'Time and date','Fp1','Fp2','F3','Fz','F4','P3','Pz','P4','AccX','AccY','AccZ','GyroX','GyroY','GyroZ','Battery','Event'
'[hh:mm:ss.mmm dd/mm/yyyy]','uV','uV','uV','uV','uV','uV','uV','uV','G','G','G','Deg/s','Deg/s','Deg/s','%','Button'
'[12:58:00.000 21/01/2026]',-128515.2,-206870.2,-117505.9,-34439.88,-375000,-375000,-172865.9,-144734.7,0.03,-0.02,0.88,-4,0,-2,34,0
'[12:58:00.004 21/01/2026]',-128556.8,-206908.4,-117556.4,-34461.38,-375000,-375000,-172680.6,-144600.6,0.03,-0.02,0.88,-4,0,-2,34,0
'[12:58:00.008 21/01/2026]',-128560.1,-206918.9,-117562,-34486.95,-375000,-375000,-172839.8,-144764.6,0.03,-0.02,0.88,-4,0,-2,34,0
'[12:58:00.012 21/01/2026]',-128513.5,-206869.3,-117506.2,-34470.73,-375000,-375000,-173035.4,-144894.8,0.03,-0.02,0.88,-4,0,-2,34,0
'[12:58:00.016 21/01/2026]',-128512.1,-206867.8,-117506.4,-34450.92,-375000,-375000,-172910.2,-144776.9,0.03,-0.02,0.88,-4,0,-2,34,0
'[12:58:00.020 21/01/2026]',-128562.3,-206923.9,-117566,-34477.3,-375000,-375000,-172708.1,-144635.8,0.03,-0.02,0.88,-4,0,-2,34,0
'[12:58:00.024 21/01/2026]',-128568.4,-206930.8,-117574.3,-34491.69,-375000,-375000,-172794.8,-144747.6,0.03,-0.02,0.88,-4,0,-2,34,0
'[12:58:00.028 21/01/2026]',-128509.6,-206860.5,-117501,-34460.89,-375000,-375000,-173000.1,-144888.4,0.03,-0.02,0.88,-4,0,-2,34,0
'[12:58:00.032 21/01/2026]',-128488.1,-206834,-117476.6,-34422.76,-375000,-375000,-172908.5,-144785.8,0.03,-0.02,0.88,-4,0,-2,34,0
'[12:58:00.036 21/01/2026]',-128515.2,-206870.2,-117505.9,-34439.88,-375000,-375000,-172865.9,-144734.7,0.03,-0.02,0.88,-4,0,-2,34,0
'[12:58:00.040 21/01/2026]',-128556.8,-206908.4,-117556.4,-34461.38,-375000,-375000,-172680.6,-144600.6,0.03,-0.02,0.88,-4,0,-2,34,0
'[12:58:00.044 21/01/2026]',-128560.1,-206918.9,-117562,-34486.95,-375000,-375000,-172839.8,-144764.6,0.03,-0.02,0.88,-4,0,-2,34,0
'[12:58:00.048 21/01/2026]',-128513.5,-206869.3,-117506.2,-34470.73,-375000,-375000,-173035.4,-144894.8,0.03,-0.02,0.88,-4,0,-2,34,0
'[12:58:00.052 21/01/2026]',-128512.1,-206867.8,-117506.4,-34450.92,-375000,-375000,-172910.2,-144776.9,0.03,-0.02,0.88,-4,0,-2,34,0
'[12:58:00.056 21/01/2026]',-128562.3,-206923.9,-117566,-34477.3,-375000,-375000,-172708.1,-144635.8,0.03,-0.02,0.88,-4,0,-2,34,0
'[12:58:00.060 21/01/2026]',-128568.4,-206930.8,-117574.3,-34491.69,-375000,-375000,-172794.8,-144747.6,0.03,-0.02,0.88,-4,0,-2,34,0
'[12:58:00.064 21/01/2026]',-128509.6,-206860.5,-117501,-34460.89,-375000,-375000,-173000.1,-144888.4,0.03,-0.02,0.88,-4,0,-2,34,0
'[12:58:00.068 21/01/2026]',-128488.1,-206834,-117476.6,-34422.76,-375000,-375000,-172908.5,-144785.8,0.03,-0.02,0.88,-4,0,-2,34,0
'[12:58:00.072 21/01/2026]',-128538.9,-206890.7,-117537.5,-34448.46,-375000,-375000,-172690.8,-144613.1,0.02,0.00,0.89,-4,0,-2,34,0
'[12:58:00.076 21/01/2026]',-128557.6,-206916.1,-117556.9,-34473.59,-375000,-375000,-172715.2,-144676.8,0.02,0.00,0.89,-4,0,-2,34,0
'[12:58:00.080 21/01/2026]',-128520.1,-206869.6,-117506.3,-34471.35,-375000,-375000,-172965.4,-144864.1,0.02,0.00,0.89,-4,0,-2,34,0
'[12:58:00.084 21/01/2026]',-128496,-206833.6,-117478.6,-34440.46,-375000,-375000,-172946.9,-144810.1,0.02,0.00,0.89,-4,0,-2,34,0
'[12:58:00.088 21/01/2026]',-128552.1,-206904.1,-117548,-34471.57,-375000,-375000,-172754.4,-144657,0.02,0.00,0.89,-4,0,-2,34,0
'[12:58:00.092 21/01/2026]',-128572.1,-206928.9,-117573.9,-34490.04,-375000,-375000,-172719.6,-144664.2,0.02,0.00,0.89,-4,0,-2,34,0
'[12:58:00.096 21/01/2026]',-128530.1,-206875,-117522,-34475.91,-375000,-375000,-172952.1,-144836.1,0.02,0.00,0.89,-4,0,-2,34,0
'[12:58:00.100 21/01/2026]',-128489.1,-206827.4,-117472.3,-34436.53,-375000,-375000,-172979,-144809.6,0.02,0.00,0.89,-4,0,-2,34,0
'[12:58:00.104 21/01/2026]',-128512.9,-206853.2,-117499.3,-34431.3,-375000,-375000,-172762.5,-144627.7,0.02,0.00,0.89,-4,0,-2,34,0
'[12:58:00.108 21/01/2026]',-128555,-206900.3,-117541.4,-34463.66,-375000,-375000,-172679.3,-144584.8,0.03,0.00,0.89,-4,0,-2,34,0
'[12:58:00.112 21/01/2026]',-128526.5,-206870.7,-117513.9,-34471.48,-375000,-375000,-172921.9,-144794.8,0.03,0.00,0.89,-4,0,-2,34,0
'[12:58:00.116 21/01/2026]',-128466.5,-206803.3,-117449.8,-34430.13,-375000,-375000,-173012,-144820.3,0.03,0.00,0.89,-4,0,-2,34,0
'[12:58:00.120 21/01/2026]',-128506.1,-206847.4,-117495.3,-34449.36,-375000,-375000,-172849.3,-144672.2,0.03,0.00,0.89,-4,0,-2,34,0
'[12:58:00.124 21/01/2026]',-128542.2,-206890.4,-117545,-34489.19,-375000,-375000,-172728.5,-144596.4,0.03,0.00,0.89,-4,0,-2,34,0
'[12:58:00.128 21/01/2026]',-128547.6,-206902.8,-117545.5,-34512.21,-375000,-375000,-172925,-144787.6,0.03,0.00,0.89,-4,0,-2,34,0
'[12:58:00.132 21/01/2026]',-128527,-206887.7,-117493.6,-34483.38,-375000,-375000,-173057.9,-144862.8,0.03,0.00,0.89,-4,0,-2,34,0
'[12:58:00.136 21/01/2026]',-128539.5,-206896.5,-117511.3,-34473.59,-375000,-375000,-172910.8,-144749.3,0.03,0.00,0.89,-4,0,-2,34,0
'[12:58:00.140 21/01/2026]',-128548.7,-206903.1,-117548.4,-34483.55,-375000,-375000,-172736.5,-144611.9,0.03,0.00,0.89,-4,0,-2,34,0
'[12:58:00.144 21/01/2026]',-128538.8,-206896.3,-117540.3,-34490.35,-375000,-375000,-172871.9,-144744.7,0.03,0.00,0.88,-4,0,-2,34,0
'[12:58:00.148 21/01/2026]',-128451.2,-206802.3,-117440,-34427.95,-375000,-375000,-173023.3,-144825.3,0.03,0.00,0.88,-4,0,-2,34,0
'[12:58:00.152 21/01/2026]',-128456.1,-206806.4,-117444.2,-34408.68,-375000,-375000,-172909.8,-144718.7,0.03,0.00,0.88,-4,0,-2,34,0
'[12:58:00.156 21/01/2026]',-128495,-206844.8,-117486.6,-34422.98,-375000,-375000,-172707.5,-144571.8,0.03,0.00,0.88,-4,0,-2,34,0
'[12:58:00.160 21/01/2026]',-128498.4,-206853,-117491.4,-34441.58,-375000,-375000,-172788.4,-144683.5,0.03,0.00,0.88,-4,0,-2,34,0
'[12:58:00.164 21/01/2026]',-128454.1,-206802.9,-117433.7,-34426.47,-375000,-375000,-173010.1,-144843.8,0.03,0.00,0.88,-4,0,-2,34,0
'[12:58:00.168 21/01/2026]',-128441.8,-206786.5,-117415.3,-34398.84,-375000,-375000,-172944.2,-144766.4,0.03,0.00,0.88,-4,0,-2,34,0
'[12:58:00.172 21/01/2026]',-128479,-206830.5,-117456.4,-34412.43,-375000,-375000,-172740.6,-144608.5,0.03,0.00,0.88,-4,0,-2,34,0
'[12:58:00.176 21/01/2026]',-128491.3,-206847.3,-117475.9,-34424.5,-375000,-375000,-172754.7,-144656.3,0.03,0.00,0.88,-4,0,-2,34,0
'[12:58:00.180 21/01/2026]',-128434.8,-206789.5,-117412.2,-34402.02,-375000,-375000,-172970.6,-144824.3,0.03,-0.02,0.89,-4,0,-2,34,0
'[12:58:00.184 21/01/2026]',-128402.6,-206751.8,-117368.3,-34357.85,-375000,-375000,-172935,-144768.6,0.03,-0.02,0.89,-4,0,-2,34,0
'[12:58:00.188 21/01/2026]',-128448.6,-206796.3,-117424.9,-34375.06,-375000,-375000,-172745.1,-144628.3,0.03,-0.02,0.89,-4,0,-2,34,0
'[12:58:00.192 21/01/2026]',-128477.7,-206830.9,-117463.9,-34406.89,-375000,-375000,-172717.6,-144645.9,0.03,-0.02,0.89,-4,0,-2,34,0
'[12:58:00.196 21/01/2026]',-128432.7,-206784.1,-117412,-34394.91,-375000,-375000,-172926,-144809.5,0.03,-0.02,0.89,-4,0,-2,34,0
'[12:58:00.200 21/01/2026]',-128400.3,-206745.4,-117369.5,-34360.62,-375000,-375000,-172961.5,-144799.3,0.03,-0.02,0.89,-4,0,-2,34,0
'[12:58:00.204 21/01/2026]',-128434.1,-206775.6,-117407.4,-34363.48,-375000,-375000,-172767.4,-144648.6,0.03,-0.02,0.89,-4,0,-2,34,0
'[12:58:00.208 21/01/2026]',-128468.5,-206815.4,-117445.2,-34389.45,-375000,-375000,-172681.9,-144610.2,0.03,-0.02,0.89,-4,0,-2,34,0
'[12:58:00.212 21/01/2026]',-128452.7,-206796,-117420,-34399.96,-375000,-375000,-172888.1,-144787.2,0.03,-0.02,0.89,-4,0,-2,34,0
'[12:58:00.216 21/01/2026]',-128403.8,-206742.3,-117363.7,-34365,-375000,-375000,-172966.2,-144812.3,0.03,0.00,0.88,-4,0,-2,34,0
'[12:58:00.220 21/01/2026]',-128438.4,-206782.5,-117404.4,-34371.53,-375000,-375000,-172799,-144681,0.03,0.00,0.88,-4,0,-2,34,0
'[12:58:00.224 21/01/2026]',-128478.7,-206827.2,-117450,-34398.48,-375000,-375000,-172675.1,-144605.5,0.03,0.00,0.88,-4,0,-2,34,0
'[12:58:00.228 21/01/2026]',-128463.8,-206808.6,-117430.3,-34405.77,-375000,-375000,-172840.1,-144760.1,0.03,0.00,0.88,-4,0,-2,34,0
'[12:58:00.232 21/01/2026]',-128407.9,-206746.2,-117359.6,-34368.27,-375000,-375000,-172968.2,-144819.2,0.03,0.00,0.88,-4,0,-2,34,0
'[12:58:00.236 21/01/2026]',-128426.5,-206773.4,-117386.4,-34364.82,-375000,-375000,-172836.3,-144703,0.03,0.00,0.88,-4,0,-2,34,0
'[12:58:00.240 21/01/2026]',-128473.2,-206824.8,-117433.6,-34390.21,-375000,-375000,-172682.6,-144597.2,0.03,0.00,0.88,-4,0,-2,34,0
'[12:58:00.244 21/01/2026]',-128460.1,-206812.5,-117412.8,-34392.67,-375000,-375000,-172804.6,-144715.2,0.03,0.00,0.88,-4,0,-2,34,0
'[12:58:00.248 21/01/2026]',-128403.4,-206744.4,-117346.2,-34359.95,-375000,-375000,-172964.5,-144803.8,0.03,0.00,0.88,-4,0,-2,34,0
'[12:58:00.252 21/01/2026]',-128416.3,-206759.5,-117365.8,-34357.13,-375000,-375000,-172866.6,-144711.3,0.03,0.00,0.88,-4,0,-2,34,0
'[12:58:00.256 21/01/2026]',-128464.7,-206818.6,-117424,-34389.81,-375000,-375000,-172692.7,-144589.1,0.03,0.00,0.88,-4,0,-2,34,0
'[12:58:00.260 21/01/2026]',-128462,-206818.1,-117419.2,-34400.63,-375000,-375000,-172757.9,-144669.4,0.03,0.00,0.88,-4,0,-2,34,0
'[12:58:00.264 21/01/2026]',-128406.9,-206754,-117350.5,-34373.76,-375000,-375000,-172945.3,-144788,0.03,0.00,0.88,-4,0,-2,34,0
'[12:58:00.268 21/01/2026]',-128393.2,-206733.5,-117335.3,-34346.98,-375000,-375000,-172881.8,-144709.5,0.03,0.00,0.88,-4,0,-2,34,0
'[12:58:00.272 21/01/2026]',-128444.3,-206795.2,-117397.2,-34372.78,-375000,-375000,-172701.3,-144574.7,0.03,0.00,0.88,-4,0,-2,34,0
'[12:58:00.276 21/01/2026]',-128457.6,-206814,-117415,-34389.14,-375000,-375000,-172712.3,-144611.8,0.03,0.00,0.88,-4,0,-2,34,0
'[12:58:00.280 21/01/2026]',-128403.9,-206753.9,-117351.5,-34370.95,-375000,-375000,-172924.8,-144763.5,0.03,0.00,0.88,-4,0,-2,34,0
'[12:58:00.284 21/01/2026]',-128376.2,-206719.8,-117322.4,-34339.61,-375000,-375000,-172916.6,-144725.9,0.03,0.00,0.88,-4,0,-2,34,0
'[12:58:00.288 21/01/2026]',-128430.3,-206779.6,-117377.9,-34362.99,-375000,-375000,-172740.2,-144593,0.03,0.00,0.89,-4,0,-2,34,0
'[12:58:00.292 21/01/2026]',-128441.4,-206800.7,-117393.2,-34381.63,-375000,-375000,-172697.3,-144591,0.03,0.00,0.89,-4,0,-2,34,0
'[12:58:00.296 21/01/2026]',-128398.2,-206750.4,-117345.7,-34377.7,-375000,-375000,-172899.1,-144756.2,0.03,0.00,0.89,-4,0,-2,34,0
'[12:58:00.300 21/01/2026]',-128362.5,-206702.8,-117298,-34345.96,-375000,-375000,-172938.1,-144752.4,0.03,0.00,0.89,-4,0,-2,34,0
'[12:58:00.304 21/01/2026]',-128401.2,-206750.4,-117344,-34355.79,-375000,-375000,-172762.5,-144613.1,0.03,0.00,0.89,-4,0,-2,34,0
'[12:58:00.308 21/01/2026]',-128430.5,-206784.2,-117381.4,-34378.01,-375000,-375000,-172671.6,-144569.6,0.03,0.00,0.89,-4,0,-2,34,0
'[12:58:00.312 21/01/2026]',-128394.9,-206742.6,-117343.2,-34376.98,-375000,-375000,-172855,-144727.2,0.03,0.00,0.89,-4,0,-2,34,0
'[12:58:00.316 21/01/2026]',-128345.1,-206684.1,-117282.1,-34341.26,-375000,-375000,-172924.2,-144751.6,0.03,0.00,0.89,-4,0,-2,34,0
'[12:58:00.320 21/01/2026]',-128374.4,-206716.2,-117318.2,-34347.07,-375000,-375000,-172759.1,-144628.1,0.03,0.00,0.89,-4,0,-2,34,0
'[12:58:00.324 21/01/2026]',-128413.4,-206758.8,-117363.6,-34370.68,-375000,-375000,-172631.4,-144552.6,0.03,0.00,0.88,-4,0,-2,34,0
'[12:58:00.328 21/01/2026]',-128404.3,-206753.2,-117350.1,-34389.5,-375000,-375000,-172795.3,-144703.7,0.03,0.00,0.88,-4,0,-2,34,0
'[12:58:00.332 21/01/2026]',-128341.3,-206689.1,-117277.3,-34348.82,-375000,-375000,-172916.6,-144762.5,0.03,0.00,0.88,-4,0,-2,34,0
'[12:58:00.336 21/01/2026]',-128367.6,-206708.5,-117302.6,-34343.27,-375000,-375000,-172784.9,-144649.1,0.03,0.00,0.88,-4,0,-2,34,0
'[12:58:00.340 21/01/2026]',-128419.8,-206755.7,-117360.9,-34372.15,-375000,-375000,-172637.1,-144548.8,0.03,0.00,0.88,-4,0,-2,34,0
'[12:58:00.344 21/01/2026]',-128400.9,-206734.9,-117339.2,-34366.52,-375000,-375000,-172752.2,-144655.2,0.03,0.00,0.88,-4,0,-2,34,0
'[12:58:00.348 21/01/2026]',-128350.1,-206676.1,-117273.2,-34339.03,-375000,-375000,-172944.9,-144757.8,0.03,0.00,0.88,-4,0,-2,34,0
'[12:58:00.352 21/01/2026]',-128353.8,-206685.7,-117283.3,-34329.24,-375000,-375000,-172839.4,-144669.2,0.03,0.00,0.88,-4,0,-2,34,0
'[12:58:00.356 21/01/2026]',-128406,-206743.9,-117348.9,-34359.37,-375000,-375000,-172658.6,-144548,0.03,0.00,0.88,-4,0,-2,34,0
'[12:58:00.360 21/01/2026]',-128412.2,-206751.9,-117357.9,-34380.25,-375000,-375000,-172726,-144636,0.02,0.02,0.88,-4,0,-2,34,0
'[12:58:00.364 21/01/2026]',-128355.3,-206683,-117289.3,-34356.69,-375000,-375000,-172921.8,-144763.5,0.02,0.02,0.88,-4,0,-2,34,0
'[12:58:00.368 21/01/2026]',-128340.8,-206664.9,-117277.2,-34330.94,-375000,-375000,-172864.8,-144690.3,0.02,0.02,0.88,-4,0,-2,34,0
'[12:58:00.372 21/01/2026]',-128385.5,-206717.5,-117334.5,-34350.7,-375000,-375000,-172680.7,-144554,0.02,0.02,0.88,-4,0,-2,34,0
'[12:58:00.376 21/01/2026]',-128398.2,-206734.4,-117348.7,-34367.1,-375000,-375000,-172692,-144594.4,0.02,0.02,0.88,-4,0,-2,34,0
'[12:58:00.380 21/01/2026]',-128352.8,-206683,-117295,-34352.13,-375000,-375000,-172898.4,-144745.2,0.02,0.02,0.88,-4,0,-2,34,0
'[12:58:00.384 21/01/2026]',-128323.3,-206648.2,-117261.5,-34319.49,-375000,-375000,-172892.3,-144704.6,0.02,0.02,0.88,-4,0,-2,34,0
'[12:58:00.388 21/01/2026]',-128368.8,-206696.1,-117314.4,-34336.12,-375000,-375000,-172709.4,-144568.8,0.02,0.02,0.88,-4,0,-2,34,0
'[12:58:00.392 21/01/2026]',-128388.7,-206720.6,-117340.8,-34357.4,-375000,-375000,-172670.7,-144563.1,0.02,0.02,0.88,-4,0,-2,34,0
'[12:58:00.396 21/01/2026]',-128342.5,-206671.9,-117290.7,-34345.55,-375000,-375000,-172872.4,-144716,0.02,0.00,0.88,-4,0,-2,34,0
'[12:58:00.400 21/01/2026]',-128309,-206629.4,-117252.1,-34312.16,-375000,-375000,-172921.8,-144712.8,0.02,0.00,0.88,-4,0,-2,34,0
'[12:58:00.404 21/01/2026]',-128352.9,-206677.9,-117303.4,-34324.72,-375000,-375000,-172747.9,-144577.2,0.02,0.00,0.88,-4,0,-2,34,0
'[12:58:00.408 21/01/2026]',-128382.4,-206716.9,-117339.3,-34349.54,-375000,-375000,-172661.8,-144535.6,0.02,0.00,0.88,-4,0,-2,34,0
'[12:58:00.412 21/01/2026]',-128344.7,-206679.8,-117296.4,-34339.83,-375000,-375000,-172844.9,-144686,0.02,0.00,0.88,-4,0,-2,34,0
'[12:58:00.416 21/01/2026]',-128291.1,-206615.5,-117234.3,-34292.76,-375000,-375000,-172933.6,-144711.8,0.02,0.00,0.88,-4,0,-2,34,0
'[12:58:00.420 21/01/2026]',-128304.5,-206636.5,-117264,-34289.99,-375000,-375000,-172781.1,-144585.7,0.02,0.00,0.88,-4,0,-2,34,0
'[12:58:00.424 21/01/2026]',-128336.3,-206671.1,-117315.5,-34319.54,-375000,-375000,-172658.5,-144517.1,0.02,0.00,0.88,-4,0,-2,34,0
'[12:58:00.428 21/01/2026]',-128351.8,-206675.3,-117316.8,-34331.43,-375000,-375000,-172806.5,-144649.2,0.02,0.00,0.88,-4,0,-2,34,0
'[12:58:00.432 21/01/2026]',-128317.2,-206633,-117259.9,-34300.18,-375000,-375000,-172932.1,-144707.8,0.02,0.00,0.88,-4,0,-2,34,0
'[12:58:00.436 21/01/2026]',-128319,-206638.7,-117268.9,-34278.68,-375000,-375000,-172794.9,-144589.9,0.02,0.00,0.88,-4,0,-2,34,0
'[12:58:00.440 21/01/2026]',-128389.4,-206704.5,-117344.2,-34321.59,-375000,-375000,-172664.4,-144510.3,0.02,0.00,0.88,-4,0,-2,34,0
'[12:58:00.444 21/01/2026]',-128386.8,-206699.2,-117334,-34330.09,-375000,-375000,-172770.3,-144615.3,0.02,0.00,0.88,-4,0,-2,34,0
'[12:58:00.448 21/01/2026]',-128332.8,-206633,-117263.5,-34297.5,-375000,-375000,-172932.8,-144708.1,0.02,0.00,0.88,-4,0,-2,34,0
'[12:58:00.452 21/01/2026]',-128326.2,-206633.4,-117256.7,-34274.12,-375000,-375000,-172832.3,-144611.6,0.02,0.00,0.88,-4,0,-2,34,0
'[12:58:00.456 21/01/2026]',-128384.7,-206703.5,-117325.8,-34309.08,-375000,-375000,-172658.6,-144492.4,0.02,0.00,0.88,-4,0,-2,34,0
'[12:58:00.460 21/01/2026]',-128387.5,-206705,-117334.7,-34338.85,-375000,-375000,-172729.2,-144565.9,0.02,0.00,0.88,-4,0,-2,34,0
'[12:58:00.464 21/01/2026]',-128337.1,-206646.1,-117273.6,-34323.43,-375000,-375000,-172932.2,-144692.5,0.02,0.00,0.88,-4,0,-2,34,0
'[12:58:00.468 21/01/2026]',-128329.7,-206631.9,-117265.7,-34298.57,-375000,-375000,-172889.3,-144628.9,0.03,0.00,0.88,-4,0,-2,34,0
'[12:58:00.472 21/01/2026]',-128379.6,-206685.6,-117326.4,-34315.11,-375000,-375000,-172716.9,-144507,0.03,0.00,0.88,-4,0,-2,34,0
'[12:58:00.476 21/01/2026]',-128406.1,-206716.6,-117354.2,-34339.3,-375000,-375000,-172718.3,-144550.8,0.03,0.00,0.88,-4,0,-2,34,0
'[12:58:00.480 21/01/2026]',-128346.4,-206651.1,-117284.1,-34315.65,-375000,-375000,-172899.4,-144681.3,0.03,0.00,0.88,-4,0,-2,34,0
'[12:58:00.484 21/01/2026]',-128317.3,-206611.2,-117253.8,-34286.1,-375000,-375000,-172894.9,-144647.5,0.03,0.00,0.88,-4,0,-2,34,0
'[12:58:00.488 21/01/2026]',-128367.6,-206661.8,-117311.8,-34306.8,-375000,-375000,-172713.7,-144516.8,0.03,0.00,0.88,-4,0,-2,34,0
'[12:58:00.492 21/01/2026]',-128399.8,-206699.6,-117350.6,-34339.74,-375000,-375000,-172668.4,-144512.7,0.03,0.00,0.88,-4,0,-2,34,0
'[12:58:00.496 21/01/2026]',-128366.2,-206664,-117310,-34339.03,-375000,-375000,-172862.6,-144668.5,0.03,0.00,0.88,-4,0,-2,34,0
'[12:58:00.500 21/01/2026]',-128321,-206611.3,-117257.3,-34294.73,-375000,-375000,-172891.4,-144661.7,0.03,0.00,0.88,-4,0,-2,34,0
'[12:58:00.504 21/01/2026]',-128366.9,-206659.3,-117313,-34310.78,-375000,-375000,-172719,-144542.3,0.02,0.00,0.88,-4,0,-2,34,0
'[12:58:00.508 21/01/2026]',-128405,-206700.1,-117357.7,-34336.44,-375000,-375000,-172624.8,-144505.9,0.02,0.00,0.88,-4,0,-2,34,0
'[12:58:00.512 21/01/2026]',-128373.8,-206665.7,-117321.1,-34331.52,-375000,-375000,-172789.8,-144649,0.02,0.00,0.88,-4,0,-2,34,0
'[12:58:00.516 21/01/2026]',-128330.2,-206614.3,-117266.8,-34292.76,-375000,-375000,-172875.8,-144686.6,0.02,0.00,0.88,-4,0,-2,34,0
'[12:58:00.520 21/01/2026]',-128361.4,-206649.8,-117308.6,-34297.36,-375000,-375000,-172729.5,-144569.6,0.02,0.00,0.88,-4,0,-2,34,0
'[12:58:00.524 21/01/2026]',-128400.7,-206695.3,-117357.8,-34327.94,-375000,-375000,-172614.4,-144498.4,0.02,0.00,0.88,-4,0,-2,34,0
'[12:58:00.528 21/01/2026]',-128391.4,-206679.4,-117340.3,-34336.17,-375000,-375000,-172759,-144625.9,0.02,0.00,0.88,-4,0,-2,34,0
'[12:58:00.532 21/01/2026]',-128329.3,-206607.3,-117269.3,-34296.61,-375000,-375000,-172889.5,-144692.3,0.02,0.00,0.88,-4,0,-2,34,0
'[12:58:00.536 21/01/2026]',-128344,-206626.9,-117296,-34291.73,-375000,-375000,-172770.5,-144592.2,0.02,0.00,0.88,-4,0,-2,34,0
'[12:58:00.540 21/01/2026]',-128401.3,-206692.5,-117364,-34327.99,-375000,-375000,-172626.6,-144496.8,0.03,-0.02,0.88,-4,0,-2,34,0
'[12:58:00.544 21/01/2026]',-128395.4,-206686.4,-117355.4,-34336.7,-375000,-375000,-172718.4,-144587.4,0.03,-0.02,0.88,-4,0,-2,34,0
'[12:58:00.548 21/01/2026]',-128348.2,-206629.9,-117292.7,-34312.47,-375000,-375000,-172884,-144683.5,0.03,-0.02,0.88,-4,0,-2,34,0
'[12:58:00.552 21/01/2026]',-128356.2,-206635.1,-117300.7,-34299.6,-375000,-375000,-172798.8,-144603.5,0.03,-0.02,0.88,-4,0,-2,34,0
'[12:58:00.556 21/01/2026]',-128396.6,-206683.8,-117356,-34320.48,-375000,-375000,-172623.2,-144488,0.03,-0.02,0.88,-4,0,-2,34,0
'[12:58:00.560 21/01/2026]',-128412.2,-206701.1,-117378.5,-34351.81,-375000,-375000,-172688,-144560,0.03,-0.02,0.88,-4,0,-2,34,0
'[12:58:00.564 21/01/2026]',-128361.2,-206642.4,-117311.3,-34324.81,-375000,-375000,-172859.3,-144666.4,0.03,-0.02,0.88,-4,0,-2,34,0
'[12:58:00.568 21/01/2026]',-128343.7,-206621.1,-117299.4,-34298.21,-375000,-375000,-172814.7,-144606,0.03,-0.02,0.88,-4,0,-2,34,0
'[12:58:00.572 21/01/2026]',-128399.1,-206686.6,-117370.8,-34332.82,-375000,-375000,-172656.8,-144496.7,0.03,-0.02,0.88,-4,0,-2,34,0
'[12:58:00.576 21/01/2026]',-128414.6,-206710.6,-117380.1,-34355.52,-375000,-375000,-172665.8,-144532.2,0.02,0.00,0.88,-4,0,-2,34,0
'[12:58:00.580 21/01/2026]',-128363.9,-206648.2,-117315.1,-34342.38,-375000,-375000,-172854.8,-144658,0.02,0.00,0.88,-4,0,-2,34,0
'[12:58:00.584 21/01/2026]',-128336.7,-206617.5,-117289.8,-34316.72,-375000,-375000,-172858.8,-144625.3,0.02,0.00,0.88,-4,0,-2,34,0
'[12:58:00.588 21/01/2026]',-128394.1,-206680,-117356,-34337.82,-375000,-375000,-172697.1,-144507.4,0.02,0.00,0.88,-4,0,-2,34,0
'[12:58:00.592 21/01/2026]',-128429.7,-206718.7,-117392.4,-34365.54,-375000,-375000,-172662.1,-144508.4,0.02,0.00,0.88,-4,0,-2,34,0
'[12:58:00.596 21/01/2026]',-128389.9,-206667.5,-117342.9,-34353.2,-375000,-375000,-172841.6,-144638.6,0.02,0.00,0.88,-4,0,-2,34,0
'[12:58:00.600 21/01/2026]',-128341.9,-206612,-117289.9,-34316.01,-375000,-375000,-172881.6,-144629.3,0.02,0.00,0.88,-4,0,-2,34,0
'[12:58:00.604 21/01/2026]',-128384.9,-206665.7,-117347.5,-34335.5,-375000,-375000,-172728.4,-144521.3,0.02,0.00,0.88,-4,0,-2,34,0
'[12:58:00.608 21/01/2026]',-128442.4,-206725.3,-117408.7,-34381.95,-375000,-375000,-172669.3,-144505.8,0.02,0.00,0.88,-4,0,-2,34,0
'[12:58:00.612 21/01/2026]',-128408.1,-206686,-117370.7,-34373.67,-375000,-375000,-172828.3,-144624.3,0.02,0.00,0.89,-4,0,-2,34,0
'[12:58:00.616 21/01/2026]',-128344,-206616.8,-117301,-34316.72,-375000,-375000,-172880,-144620.7,0.02,0.00,0.89,-4,0,-2,34,0
'[12:58:00.620 21/01/2026]',-128381.9,-206655.5,-117347,-34322.09,-375000,-375000,-172727,-144517.6,0.02,0.00,0.89,-4,0,-2,34,0
'[12:58:00.624 21/01/2026]',-128425.6,-206705.4,-117399,-34352.93,-375000,-375000,-172608.2,-144472.4,0.02,0.00,0.89,-4,0,-2,34,0
'[12:58:00.628 21/01/2026]',-128399.2,-206684.5,-117371.1,-34355.12,-375000,-375000,-172725.4,-144586.8,0.02,0.00,0.89,-4,0,-2,34,0
'[12:58:00.632 21/01/2026]',-128343.8,-206623.9,-117306.7,-34322.18,-375000,-375000,-172849.2,-144655.4,0.02,0.00,0.89,-4,0,-2,34,0
'[12:58:00.636 21/01/2026]',-128357.8,-206640.8,-117335,-34319.45,-375000,-375000,-172733.8,-144570,0.02,0.00,0.89,-4,0,-2,34,0
'[12:58:00.640 21/01/2026]',-128412.2,-206700.8,-117398.3,-34355.97,-375000,-375000,-172598,-144496.6,0.02,0.00,0.89,-4,0,-2,34,0
'[12:58:00.644 21/01/2026]',-128415.2,-206697.6,-117392.1,-34370.32,-375000,-375000,-172703.6,-144605,0.02,0.00,0.89,-4,0,-2,34,0
'[12:58:00.648 21/01/2026]',-128357.8,-206639,-117324.3,-34343.86,-375000,-375000,-172869.6,-144698.4,0.03,0.00,0.88,-4,0,-2,34,0
'[12:58:00.652 21/01/2026]',-128364.8,-206648.5,-117331,-34334.47,-375000,-375000,-172802.9,-144628.8,0.03,0.00,0.88,-4,0,-2,34,0
'[12:58:00.656 21/01/2026]',-128430.7,-206714.1,-117403.4,-34377.92,-375000,-375000,-172669.4,-144539.6,0.03,0.00,0.88,-4,0,-2,34,0
'[12:58:00.660 21/01/2026]',-128433.2,-206717.8,-117409.5,-34401.88,-375000,-375000,-172737.7,-144611,0.03,0.00,0.88,-4,0,-2,34,0
'[12:58:00.664 21/01/2026]',-128385.4,-206653.5,-117344.9,-34383.55,-375000,-375000,-172925.5,-144731.1,0.03,0.00,0.88,-4,0,-2,34,0
'[12:58:00.668 21/01/2026]',-128374.4,-206634.7,-117326.8,-34365.09,-375000,-375000,-172892.1,-144684.9,0.03,0.00,0.88,-4,0,-2,34,0
'[12:58:00.672 21/01/2026]',-128443.2,-206713.2,-117405.5,-34412.97,-375000,-375000,-172735.8,-144589,0.03,0.00,0.88,-4,0,-2,34,0
'[12:58:00.676 21/01/2026]',-128462.7,-206734,-117425.1,-34440.33,-375000,-375000,-172734.5,-144632,0.03,0.00,0.88,-4,0,-2,34,0
'[12:58:00.680 21/01/2026]',-128412.7,-206674.1,-117364.9,-34425.44,-375000,-375000,-172910.5,-144777.9,0.03,0.00,0.88,-4,0,-2,34,0
'[12:58:00.684 21/01/2026]',-128374.9,-206625.3,-117325.2,-34382.3,-375000,-375000,-172903.8,-144754.5,0.03,0.00,0.88,-4,0,-2,34,0
'[12:58:00.688 21/01/2026]',-128426.7,-206680.2,-117390.8,-34405.19,-375000,-375000,-172736.8,-144656.3,0.03,0.00,0.88,-4,0,-2,34,0
'[12:58:00.692 21/01/2026]',-128463.9,-206726.7,-117432.6,-34438.58,-375000,-375000,-172689,-144653.6,0.03,0.00,0.88,-4,0,-2,34,0
'[12:58:00.696 21/01/2026]',-128415.3,-206675.9,-117378.1,-34424.86,-375000,-375000,-172853.6,-144773.6,0.03,0.00,0.88,-4,0,-2,34,0
'[12:58:00.700 21/01/2026]',-128358.2,-206615.5,-117325.5,-34376,-375000,-375000,-172885.2,-144767,0.03,0.00,0.88,-4,0,-2,34,0
'[12:58:00.704 21/01/2026]',-128393.2,-206653.4,-117377.2,-34386.95,-375000,-375000,-172716.3,-144643.5,0.03,0.00,0.88,-4,0,-2,34,0
'[12:58:00.708 21/01/2026]',-128436.7,-206702.4,-117435.7,-34440.41,-375000,-375000,-172657.6,-144615.4,0.03,0.00,0.88,-4,0,-2,34,0
'[12:58:00.712 21/01/2026]',-128412.3,-206679.2,-117406.4,-34444.08,-375000,-375000,-172823.1,-144730.2,0.03,0.00,0.88,-4,0,-2,34,0
'[12:58:00.716 21/01/2026]',-128351.4,-206612.6,-117337.8,-34390.26,-375000,-375000,-172893.3,-144740.6,0.03,0.00,0.88,-4,0,-2,34,0
'[12:58:00.720 21/01/2026]',-128377.1,-206642.7,-117379.5,-34390.62,-375000,-375000,-172737.5,-144641.5,0.03,0.00,0.88,-4,0,-2,34,0
'[12:58:00.724 21/01/2026]',-128423.6,-206700.9,-117438.1,-34421.51,-375000,-375000,-172601.6,-144588.3,0.03,0.00,0.88,-4,0,-2,34,0
'[12:58:00.728 21/01/2026]',-128415.6,-206691.4,-117427.7,-34433.66,-375000,-375000,-172714.5,-144729,0.03,0.00,0.88,-4,0,-2,34,0
'[12:58:00.732 21/01/2026]',-128352.7,-206620.2,-117358.2,-34393.97,-375000,-375000,-172803.2,-144802.5,0.03,0.00,0.88,-4,0,-2,34,0
'[12:58:00.736 21/01/2026]',-128356.1,-206629.4,-117376.9,-34378.59,-375000,-375000,-172644.8,-144703.4,0.03,0.00,0.88,-4,0,-2,34,0
'[12:58:00.740 21/01/2026]',-128403.1,-206680.5,-117432.4,-34392.58,-375000,-375000,-172474.5,-144608.2,0.03,0.00,0.88,-4,0,-2,34,0
'[12:58:00.744 21/01/2026]',-128404.8,-206673.4,-117416.2,-34397.23,-375000,-375000,-172572.7,-144696,0.03,0.00,0.88,-4,0,-2,34,0
'[12:58:00.748 21/01/2026]',-128360.5,-206606.7,-117351.2,-34371.66,-375000,-375000,-172739.5,-144781.7,0.03,0.00,0.88,-4,0,-2,34,0
'[12:58:00.752 21/01/2026]',-128369.2,-206602.9,-117355.3,-34348.37,-375000,-375000,-172637.8,-144710.2,0.03,0.00,0.88,-4,0,-2,34,0
'[12:58:00.756 21/01/2026]',-128421.5,-206661.7,-117418.9,-34375.06,-375000,-375000,-172466.7,-144610.4,0.03,0.00,0.88,-4,0,-2,34,0
'[12:58:00.760 21/01/2026]',-128429.7,-206670.6,-117430,-34394.55,-375000,-375000,-172522.6,-144670,0.03,0.00,0.88,-4,0,-2,34,0
'[12:58:00.764 21/01/2026]',-128366.4,-206601.5,-117359.7,-34369.65,-375000,-375000,-172706.3,-144767.8,0.03,0.00,0.88,-4,0,-2,34,0
'[12:58:00.768 21/01/2026]',-128354.7,-206588.4,-117346.6,-34347.34,-375000,-375000,-172680.5,-144716.4,0.03,0.00,0.88,-4,0,-2,34,0
'[12:58:00.772 21/01/2026]',-128425.4,-206663.5,-117430.3,-34389.05,-375000,-375000,-172542.6,-144634.8,0.03,0.00,0.88,-4,0,-2,34,0
'[12:58:00.776 21/01/2026]',-128457.6,-206705.2,-117475.4,-34422.18,-375000,-375000,-172584.3,-144696.7,0.03,0.00,0.88,-4,0,-2,34,0
'[12:58:00.780 21/01/2026]',-128408.2,-206658,-117423.2,-34397.28,-375000,-375000,-172789.8,-144819.4,0.03,0.00,0.88,-4,0,-2,34,0
'[12:58:00.784 21/01/2026]',-128383.1,-206624.9,-117393.6,-34358.34,-375000,-375000,-172814.8,-144792.3,0.03,0.00,0.88,-4,0,-2,34,0
'[12:58:00.788 21/01/2026]',-128440.4,-206667.8,-117460.1,-34376.09,-375000,-375000,-172665.3,-144679.7,0.03,0.00,0.88,-4,0,-2,34,0
'[12:58:00.792 21/01/2026]',-128464.3,-206706.2,-117496.7,-34406.71,-375000,-375000,-172637.8,-144679.8,0.03,0.00,0.88,-4,0,-2,34,0
'[12:58:00.796 21/01/2026]',-128437.1,-206688.4,-117443.4,-34402.42,-375000,-375000,-172817,-144790,0.03,0.00,0.88,-4,0,-2,34,0
'[12:58:00.800 21/01/2026]',-128418,-206661.6,-117395.9,-34366.79,-375000,-375000,-172860.9,-144768,0.03,0.00,0.88,-4,0,-2,34,0
'[12:58:00.804 21/01/2026]',-128470,-206717.5,-117446.3,-34373.14,-375000,-375000,-172703.5,-144638.2,0.03,0.00,0.88,-4,0,-2,34,0
'[12:58:00.808 21/01/2026]',-128507.1,-206772.9,-117492.1,-34409.44,-375000,-375000,-172650,-144601.7,0.03,0.00,0.88,-4,0,-2,34,0
'[12:58:00.812 21/01/2026]',-128491.3,-206758.2,-117450.8,-34406.75,-375000,-375000,-172820.4,-144713,0.03,0.00,0.88,-4,0,-2,34,0
'[12:58:00.816 21/01/2026]',-128442.6,-206709.3,-117380.9,-34357.58,-375000,-375000,-172903.6,-144723.9,0.03,0.00,0.88,-4,0,-2,34,0
'[12:58:00.820 21/01/2026]',-128472.6,-206745.1,-117413.4,-34356.6,-375000,-375000,-172761.3,-144599.5,0.03,0.00,0.88,-4,0,-2,34,0
'[12:58:00.824 21/01/2026]',-128543,-206827.6,-117474.2,-34408.09,-375000,-375000,-172665.1,-144532.4,0.03,0.00,0.88,-4,0,-2,34,0
'[12:58:00.828 21/01/2026]',-128557.2,-206842.5,-117461,-34430.49,-375000,-375000,-172812.3,-144633.4,0.02,0.00,0.88,-4,0,-2,34,0
'[12:58:00.832 21/01/2026]',-128510.8,-206785.1,-117380.5,-34383.02,-375000,-375000,-172916.6,-144664.7,0.02,0.00,0.88,-4,0,-2,34,0
'[12:58:00.836 21/01/2026]',-128558.2,-206827,-117409.7,-34374.61,-375000,-375000,-172787.7,-144572.8,0.02,0.00,0.88,-4,0,-2,34,0
'[12:58:00.840 21/01/2026]',-128643,-206909,-117480.5,-34412.88,-375000,-375000,-172640.1,-144502.5,0.02,0.00,0.88,-4,0,-2,34,0
'[12:58:00.844 21/01/2026]',-128663.6,-206930.4,-117479.5,-34432.41,-375000,-375000,-172713.1,-144609.7,0.02,0.00,0.88,-4,0,-2,34,0
'[12:58:00.848 21/01/2026]',-128614.7,-206878.5,-117404.8,-34399.87,-375000,-375000,-172840.5,-144706.1,0.02,0.00,0.88,-4,0,-2,34,0
'[12:58:00.852 21/01/2026]',-128600.9,-206885,-117404.6,-34389.1,-375000,-375000,-172743.7,-144636.6,0.02,0.00,0.88,-4,0,-2,34,0
'[12:58:00.856 21/01/2026]',-128648.9,-206955,-117470.1,-34422.63,-375000,-375000,-172588.3,-144534.1,0.02,0.00,0.88,-4,0,-2,34,0
'[12:58:00.860 21/01/2026]',-128663.8,-206978,-117487.3,-34447.79,-375000,-375000,-172634.1,-144595,0.02,0.00,0.88,-4,0,-2,34,0
'[12:58:00.864 21/01/2026]',-128585.6,-206899.2,-117414,-34419.27,-375000,-375000,-172804.8,-144709.8,0.03,0.00,0.88,-4,0,-2,34,0
'[12:58:00.868 21/01/2026]',-128552.6,-206858.4,-117396.6,-34384.54,-375000,-375000,-172758.5,-144653.8,0.03,0.00,0.88,-4,0,-2,34,0
'[12:58:00.872 21/01/2026]',-128596.2,-206917.2,-117460.6,-34408.32,-375000,-375000,-172589.4,-144543,0.03,0.00,0.88,-4,0,-2,34,0
'[12:58:00.876 21/01/2026]',-128606.6,-206936.6,-117480.8,-34433.18,-375000,-375000,-172589.1,-144576.9,0.03,0.00,0.88,-4,0,-2,34,0
'[12:58:00.880 21/01/2026]',-128528.2,-206842.2,-117397.6,-34394.59,-375000,-375000,-172752.5,-144693.8,0.03,0.00,0.88,-4,0,-2,34,0
'[12:58:00.884 21/01/2026]',-128483,-206793,-117355,-34346,-375000,-375000,-172747.7,-144661.2,0.03,0.00,0.88,-4,0,-2,34,0
'[12:58:00.888 21/01/2026]',-128519.4,-206830.4,-117415.8,-34362.5,-375000,-375000,-172588.4,-144549,0.03,0.00,0.88,-4,0,-2,34,0
'[12:58:00.892 21/01/2026]',-128540.6,-206850.5,-117453.7,-34395.36,-375000,-375000,-172559.4,-144556.7,0.03,0.00,0.88,-4,0,-2,34,0
'[12:58:00.896 21/01/2026]',-128495.2,-206799.2,-117402.4,-34384.54,-375000,-375000,-172735,-144668.6,0.03,0.00,0.88,-4,0,-2,34,0
'[12:58:00.900 21/01/2026]',-128435.8,-206731,-117345.8,-34338.94,-375000,-375000,-172787.2,-144645,0.03,0.00,0.89,-4,0,-2,34,0
'[12:58:00.904 21/01/2026]',-128463.4,-206759.9,-117391.4,-34340.73,-375000,-375000,-172625.5,-144508.5,0.03,0.00,0.89,-4,0,-2,34,0
'[12:58:00.908 21/01/2026]',-128511.7,-206802.7,-117450.1,-34377.03,-375000,-375000,-172553.8,-144468.7,0.03,0.00,0.89,-4,0,-2,34,0
'[12:58:00.912 21/01/2026]',-128473,-206755.1,-117409.9,-34368.89,-375000,-375000,-172704.3,-144578.8,0.03,0.00,0.89,-4,0,-2,34,0
'[12:58:00.916 21/01/2026]',-128415.1,-206690.5,-117345.3,-34326.51,-375000,-375000,-172791.8,-144607.8,0.03,0.00,0.89,-4,0,-2,34,0
'[12:58:00.920 21/01/2026]',-128437.9,-206711.8,-117379,-34323.83,-375000,-375000,-172650.2,-144499.5,0.03,0.00,0.89,-4,0,-2,34,0
'[12:58:00.924 21/01/2026]',-128495.4,-206770,-117443.4,-34363.57,-375000,-375000,-172537.3,-144425.7,0.03,0.00,0.89,-4,0,-2,34,0
'[12:58:00.928 21/01/2026]',-128466.3,-206743.2,-117416.9,-34368.18,-375000,-375000,-172663.7,-144532,0.03,0.00,0.89,-4,0,-2,34,0
'[12:58:00.932 21/01/2026]',-128396.7,-206659.6,-117342.5,-34315.69,-375000,-375000,-172786.5,-144582.9,0.03,0.00,0.89,-4,0,-2,34,0
'[12:58:00.936 21/01/2026]',-128416.5,-206675.8,-117367.8,-34304.16,-375000,-375000,-172677.3,-144494.7,0.02,0.00,0.88,-4,0,-2,34,0
'[12:58:00.940 21/01/2026]',-128458.1,-206728.2,-117423.1,-34328.57,-375000,-375000,-172529.6,-144414.8,0.02,0.00,0.88,-4,0,-2,34,0
'[12:58:00.944 21/01/2026]',-128451.9,-206721.8,-117418.4,-34344.84,-375000,-375000,-172621.7,-144509.5,0.02,0.00,0.88,-4,0,-2,34,0
'[12:58:00.948 21/01/2026]',-128389.1,-206647.3,-117342.2,-34309.3,-375000,-375000,-172778.9,-144600,0.02,0.00,0.88,-4,0,-2,34,0
'[12:58:00.952 21/01/2026]',-128371.7,-206630.7,-117336.3,-34281.59,-375000,-375000,-172700.6,-144532.7,0.02,0.00,0.88,-4,0,-2,34,0
'[12:58:00.956 21/01/2026]',-128418.1,-206685,-117398.6,-34305.77,-375000,-375000,-172533.5,-144440,0.02,0.00,0.88,-4,0,-2,34,0
'[12:58:00.960 21/01/2026]',-128428.4,-206699.8,-117409.4,-34331.7,-375000,-375000,-172588.5,-144514.8,0.02,0.00,0.88,-4,0,-2,34,0
'[12:58:00.964 21/01/2026]',-128368.7,-206637.8,-117343.1,-34306.93,-375000,-375000,-172768.2,-144622.2,0.02,0.00,0.88,-4,0,-2,34,0
'[12:58:00.968 21/01/2026]',-128338.8,-206611.3,-117321.8,-34274.43,-375000,-375000,-172738.3,-144568.9,0.02,0.00,0.88,-4,0,-2,34,0
'[12:58:00.972 21/01/2026]',-128394.8,-206678.2,-117392.1,-34303.49,-375000,-375000,-172578.5,-144473.3,0.02,0.00,0.89,-4,0,-2,34,0
'[12:58:00.976 21/01/2026]',-128418.9,-206711,-117417.8,-34334.56,-375000,-375000,-172592.8,-144505.8,0.02,0.00,0.89,-4,0,-2,34,0
'[12:58:00.980 21/01/2026]',-128363.8,-206651.8,-117354.5,-34314,-375000,-375000,-172783,-144625.6,0.02,0.00,0.89,-4,0,-2,34,0
'[12:58:00.984 21/01/2026]',-128328.1,-206613.2,-117317.2,-34276.49,-375000,-375000,-172803.8,-144609.2,0.02,0.00,0.89,-4,0,-2,34,0
'[12:58:00.988 21/01/2026]',-128377.1,-206664.8,-117377.5,-34292.63,-375000,-375000,-172637.3,-144502,0.02,0.00,0.89,-4,0,-2,34,0
'[12:58:00.992 21/01/2026]',-128421.4,-206714.9,-117428.3,-34337.69,-375000,-375000,-172609.5,-144515.2,0.02,0.00,0.89,-4,0,-2,34,0
'[12:58:00.996 21/01/2026]',-128390.7,-206677.4,-117385.1,-34335.5,-375000,-375000,-172790.2,-144654.6,0.02,0.00,0.89,-4,0,-2,34,0
'[12:58:01.000 21/01/2026]',-128347.2,-206629.4,-117333.6,-34295.71,-375000,-375000,-172843.7,-144674.3,0.02,0.00,0.89,-4,0,-2,34,0
'[12:58:01.004 21/01/2026]',-128381.5,-206677.5,-117380.1,-34305.01,-375000,-375000,-172696.3,-144594.5,0.02,0.00,0.89,-4,0,-2,34,0
'[12:58:01.008 21/01/2026]',-128426.7,-206731.2,-117432.7,-34341.49,-375000,-375000,-172624,-144586.7,0.03,0.00,0.88,-4,0,-2,34,0
'[12:58:01.012 21/01/2026]',-128398,-206696.5,-117394.7,-34336.7,-375000,-375000,-172783.5,-144722.7,0.03,0.00,0.88,-4,0,-2,34,0
'[12:58:01.016 21/01/2026]',-128351.4,-206639.4,-117335.7,-34299.29,-375000,-375000,-172883.8,-144785.1,0.03,0.00,0.88,-4,0,-2,34,0
'[12:58:01.020 21/01/2026]',-128380.4,-206676,-117372.4,-34299.91,-375000,-375000,-172751.1,-144710,0.03,0.00,0.88,-4,0,-2,34,0
'[12:58:01.024 21/01/2026]',-128439.4,-206741.9,-117439.6,-34346.54,-375000,-375000,-172648.9,-144680.6,0.03,0.00,0.88,-4,0,-2,34,0
'[12:58:01.028 21/01/2026]',-128432.6,-206735.9,-117425.8,-34359.95,-375000,-375000,-172779.3,-144808.6,0.03,0.00,0.88,-4,0,-2,34,0
'[12:58:01.032 21/01/2026]',-128374.1,-206671.8,-117357.4,-34322.71,-375000,-375000,-172906.9,-144890.6,0.03,0.00,0.88,-4,0,-2,34,0
'[12:58:01.036 21/01/2026]',-128383.2,-206691.1,-117380,-34312.92,-375000,-375000,-172790.2,-144827.8,0.03,0.00,0.88,-4,0,-2,34,0
'[12:58:01.040 21/01/2026]',-128447,-206758.5,-117456.8,-34352.8,-375000,-375000,-172647.9,-144766.2,0.03,0.00,0.88,-4,0,-2,34,0
'[12:58:01.044 21/01/2026]',-128453.3,-206763.8,-117459.1,-34374.7,-375000,-375000,-172742.5,-144872.1,0.02,0.00,0.89,-4,0,-2,34,0
'[12:58:01.048 21/01/2026]',-128399.5,-206704,-117391.6,-34344.66,-375000,-375000,-172900.5,-144990.5,0.02,0.00,0.89,-4,0,-2,34,0
'[12:58:01.052 21/01/2026]',-128398.7,-206705.2,-117397.3,-34326.82,-375000,-375000,-172824,-144949.8,0.02,0.00,0.89,-4,0,-2,34,0
'[12:58:01.056 21/01/2026]',-128466.7,-206780,-117477.5,-34364.29,-375000,-375000,-172669.1,-144874.1,0.02,0.00,0.89,-4,0,-2,34,0
'[12:58:01.060 21/01/2026]',-128488.9,-206799.8,-117497.1,-34392.58,-375000,-375000,-172705.8,-144940.6,0.02,0.00,0.89,-4,0,-2,34,0
'[12:58:01.064 21/01/2026]',-128435.4,-206737.6,-117432,-34365.63,-375000,-375000,-172866.8,-145062.8,0.02,0.00,0.89,-4,0,-2,34,0
'[12:58:01.068 21/01/2026]',-128415.5,-206713.8,-117412,-34331.29,-375000,-375000,-172832,-145034.3,0.02,0.00,0.89,-4,0,-2,34,0
'[12:58:01.072 21/01/2026]',-128475.7,-206780.5,-117483.5,-34354.9,-375000,-375000,-172657.7,-144951.2,0.02,0.00,0.89,-4,0,-2,34,0
'[12:58:01.076 21/01/2026]',-128512,-206817.5,-117517.2,-34387.8,-375000,-375000,-172651.6,-145004.2,0.02,0.00,0.89,-4,0,-2,34,0
'[12:58:01.080 21/01/2026]',-128467.4,-206764.2,-117454.5,-34369.11,-375000,-375000,-172820.8,-145141.5,0.02,0.00,0.88,-4,0,-2,34,0
'[12:58:01.084 21/01/2026]',-128433.4,-206724.7,-117410.5,-34322.4,-375000,-375000,-172819.3,-145130.1,0.02,0.00,0.88,-4,0,-2,34,0
'[12:58:01.088 21/01/2026]',-128490,-206789.9,-117477.5,-34342.2,-375000,-375000,-172663.3,-145051.9,0.02,0.00,0.88,-4,0,-2,34,0
'[12:58:01.092 21/01/2026]',-128534.7,-206837.9,-117529.4,-34379.57,-375000,-375000,-172624.9,-145078.3,0.02,0.00,0.88,-4,0,-2,34,0
'[12:58:01.096 21/01/2026]',-128492.4,-206787.9,-117475.8,-34359.82,-375000,-375000,-172772.9,-145214.4,0.02,0.00,0.88,-4,0,-2,34,0
'[12:58:01.100 21/01/2026]',-128448,-206738.8,-117419.5,-34304.79,-375000,-375000,-172803.3,-145243.2,0.02,0.00,0.88,-4,0,-2,34,0
'[12:58:01.104 21/01/2026]',-128502.1,-206800.9,-117481,-34302.77,-375000,-375000,-172624.3,-145160.8,0.02,0.00,0.88,-4,0,-2,34,0
'[12:58:01.108 21/01/2026]',-128559.1,-206857.1,-117535.4,-34324.41,-375000,-375000,-172500.6,-145155.2,0.02,0.00,0.88,-4,0,-2,34,0
'[12:58:01.112 21/01/2026]',-128535.5,-206824.8,-117497.8,-34315.43,-375000,-375000,-172612.3,-145296,0.02,0.00,0.88,-4,0,-2,34,0
'[12:58:01.116 21/01/2026]',-128477.4,-206743.6,-117422.9,-34268.04,-375000,-375000,-172713.9,-145335.6,0.02,0.00,0.89,-4,0,-2,34,0
'[12:58:01.120 21/01/2026]',-128496.6,-206757.8,-117439.2,-34261.29,-375000,-375000,-172584.7,-145200.5,0.02,0.00,0.89,-4,0,-2,34,0
'[12:58:01.124 21/01/2026]',-128551.4,-206826,-117499.5,-34323.29,-375000,-375000,-172503.1,-145119.3,0.02,0.00,0.89,-4,0,-2,34,0
'[12:58:01.128 21/01/2026]',-128528.6,-206808.7,-117479.1,-34348.24,-375000,-375000,-172666,-145184.2,0.02,0.00,0.89,-4,0,-2,34,0
'[12:58:01.132 21/01/2026]',-128447.5,-206726.8,-117398.3,-34302.95,-375000,-375000,-172811.7,-145202.1,0.02,0.00,0.89,-4,0,-2,34,0
'[12:58:01.136 21/01/2026]',-128458.7,-206742.3,-117421.2,-34291.91,-375000,-375000,-172704.1,-145100.7,0.02,0.00,0.89,-4,0,-2,34,0
'[12:58:01.140 21/01/2026]',-128515.1,-206795.7,-117485.2,-34324.54,-375000,-375000,-172562.8,-145007.9,0.02,0.00,0.89,-4,0,-2,34,0
'[12:58:01.144 21/01/2026]',-128507.8,-206776,-117469.3,-34327.45,-375000,-375000,-172627.3,-145052.3,0.02,0.00,0.89,-4,0,-2,34,0
'[12:58:01.148 21/01/2026]',-128448.6,-206706.4,-117393,-34294.14,-375000,-375000,-172786.5,-145115.6,0.02,0.00,0.89,-4,0,-2,34,0
'[12:58:01.152 21/01/2026]',-128447.2,-206707.5,-117394.3,-34281.63,-375000,-375000,-172736.9,-145031.4,0.03,0.00,0.88,-4,0,-2,34,0
'[12:58:01.156 21/01/2026]',-128504.5,-206778,-117465.9,-34317.39,-375000,-375000,-172582.8,-144920.9,0.03,0.00,0.88,-4,0,-2,34,0
'[12:58:01.160 21/01/2026]',-128517,-206793.6,-117480.8,-34337.82,-375000,-375000,-172604.5,-144959.7,0.03,0.00,0.88,-4,0,-2,34,0
'[12:58:01.164 21/01/2026]',-128453.6,-206724,-117406,-34301.16,-375000,-375000,-172750.2,-145050.3,0.03,0.00,0.88,-4,0,-2,34,0
'[12:58:01.168 21/01/2026]',-128427.9,-206699.1,-117382.5,-34269.52,-375000,-375000,-172722.5,-144986,0.03,0.00,0.88,-4,0,-2,34,0
'[12:58:01.172 21/01/2026]',-128479.7,-206755.5,-117446.2,-34294.86,-375000,-375000,-172566.5,-144846,0.03,0.00,0.88,-4,0,-2,34,0
'[12:58:01.176 21/01/2026]',-128500.8,-206777.9,-117468.6,-34321.64,-375000,-375000,-172558.9,-144855.2,0.03,0.00,0.88,-4,0,-2,34,0
'[12:58:01.180 21/01/2026]',-128442.7,-206716.4,-117399,-34304.96,-375000,-375000,-172728.9,-144977.2,0.03,0.00,0.88,-4,0,-2,34,0
'[12:58:01.184 21/01/2026]',-128394.9,-206649.3,-117353.6,-34257.85,-375000,-375000,-172729.5,-144950.7,0.03,0.00,0.88,-4,0,-2,34,0
'[12:58:01.188 21/01/2026]',-128457.8,-206705,-117421,-34268.4,-375000,-375000,-172548,-144812.1,0.03,0.00,0.88,-4,0,-2,34,0
'[12:58:01.192 21/01/2026]',-128503.4,-206756.4,-117462.8,-34296.11,-375000,-375000,-172484.3,-144768.9,0.03,0.00,0.88,-4,0,-2,34,0
'[12:58:01.196 21/01/2026]',-128457.9,-206701.3,-117406.5,-34282.7,-375000,-375000,-172647.4,-144869.7,0.03,0.00,0.88,-4,0,-2,34,0
'[12:58:01.200 21/01/2026]',-128394,-206620.5,-117342.4,-34233.8,-375000,-375000,-172703.2,-144866.8,0.03,0.00,0.88,-4,0,-2,34,0
'[12:58:01.204 21/01/2026]',-128425.8,-206655.2,-117386.8,-34243.45,-375000,-375000,-172551.7,-144736.2,0.03,0.00,0.88,-4,0,-2,34,0
'[12:58:01.208 21/01/2026]',-128462.4,-206706,-117429.9,-34278.05,-375000,-375000,-172462.7,-144670.3,0.03,0.00,0.88,-4,0,-2,34,0
'[12:58:01.212 21/01/2026]',-128445.8,-206681.8,-117404.9,-34286.77,-375000,-375000,-172611,-144767.9,0.03,0.00,0.88,-4,0,-2,34,0
'[12:58:01.216 21/01/2026]',-128382.9,-206613.8,-117331.6,-34241.31,-375000,-375000,-172706.2,-144763.4,0.03,0.00,0.88,-4,0,-2,34,0
'[12:58:01.220 21/01/2026]',-128406.5,-206639.2,-117364.6,-34246.89,-375000,-375000,-172595.4,-144644.1,0.03,0.00,0.88,-4,0,-2,34,0
'[12:58:01.224 21/01/2026]',-128453.9,-206690.2,-117424.9,-34289.5,-375000,-375000,-172493.6,-144568.3,0.02,0.00,0.88,-4,0,-2,34,0
'[12:58:01.228 21/01/2026]',-128441.7,-206682.4,-117410,-34305.95,-375000,-375000,-172617.9,-144655.7,0.02,0.00,0.88,-4,0,-2,34,0
'[12:58:01.232 21/01/2026]',-128389.4,-206618.6,-117345.6,-34278.32,-375000,-375000,-172766.6,-144719.7,0.02,0.00,0.88,-4,0,-2,34,0
'[12:58:01.236 21/01/2026]',-128397.4,-206623.5,-117360.1,-34269.78,-375000,-375000,-172682.5,-144627.4,0.02,0.00,0.88,-4,0,-2,34,0
'[12:58:01.240 21/01/2026]',-128447.6,-206680.2,-117420.3,-34304.2,-375000,-375000,-172545.3,-144527.8,0.02,0.00,0.88,-4,0,-2,34,0
'[12:58:01.244 21/01/2026]',-128442,-206676.9,-117412.7,-34316.5,-375000,-375000,-172607.6,-144591.5,0.02,0.00,0.88,-4,0,-2,34,0
'[12:58:01.248 21/01/2026]',-128385.6,-206613.9,-117341.1,-34288.16,-375000,-375000,-172759.4,-144678,0.02,0.00,0.88,-4,0,-2,34,0
'[12:58:01.252 21/01/2026]',-128373.2,-206600.8,-117332.4,-34259.28,-375000,-375000,-172689.8,-144593,0.02,0.00,0.88,-4,0,-2,34,0
'[12:58:01.256 21/01/2026]',-128427.4,-206663.9,-117399.9,-34287.22,-375000,-375000,-172536.3,-144486.2,0.02,0.00,0.88,-4,0,-2,34,0
'[12:58:01.260 21/01/2026]',-128443.8,-206681.9,-117416.8,-34314.26,-375000,-375000,-172574,-144537.9,0.03,0.00,0.88,-4,0,-2,34,0
'[12:58:01.264 21/01/2026]',-128384.7,-206615,-117345.3,-34284.71,-375000,-375000,-172737,-144645.8,0.03,0.00,0.88,-4,0,-2,34,0
'[12:58:01.268 21/01/2026]',-128362.8,-206591.9,-117321.8,-34253.82,-375000,-375000,-172722.2,-144611.7,0.03,0.00,0.88,-4,0,-2,34,0
'[12:58:01.272 21/01/2026]',-128412.8,-206647.1,-117381.1,-34274.12,-375000,-375000,-172570.6,-144506.3,0.03,0.00,0.88,-4,0,-2,34,0
'[12:58:01.276 21/01/2026]',-128447,-206682.4,-117414.6,-34305.99,-375000,-375000,-172575.7,-144539.8,0.03,0.00,0.88,-4,0,-2,34,0
'[12:58:01.280 21/01/2026]',-128407.3,-206640.6,-117367.5,-34294.1,-375000,-375000,-172757.4,-144678.2,0.03,0.00,0.88,-4,0,-2,34,0
'[12:58:01.284 21/01/2026]',-128366.5,-206601.5,-117326.8,-34253.87,-375000,-375000,-172777.2,-144672.9,0.03,0.00,0.88,-4,0,-2,34,0
'[12:58:01.288 21/01/2026]',-128416.8,-206659,-117389.7,-34273.85,-375000,-375000,-172635.3,-144574.9,0.03,0.00,0.88,-4,0,-2,34,0
'[12:58:01.292 21/01/2026]',-128452.6,-206694.7,-117431.5,-34303.94,-375000,-375000,-172589.8,-144568.1,0.03,0.00,0.88,-4,0,-2,34,0
'[12:58:01.296 21/01/2026]',-128407.3,-206646.6,-117382.6,-34288.65,-375000,-375000,-172739,-144694.3,0.03,0.00,0.88,-4,0,-2,34,0
'[12:58:01.300 21/01/2026]',-128367,-206600.9,-117333.7,-34254.85,-375000,-375000,-172808.4,-144726.7,0.03,0.00,0.88,-4,0,-2,34,0
'[12:58:01.304 21/01/2026]',-128407.9,-206648.9,-117381,-34262.63,-375000,-375000,-172673,-144634.9,0.03,0.00,0.88,-4,0,-2,34,0
'[12:58:01.308 21/01/2026]',-128453.8,-206701.6,-117430.9,-34292.45,-375000,-375000,-172592.7,-144606.9,0.03,0.00,0.88,-4,0,-2,34,0
'[12:58:01.312 21/01/2026]',-128426.6,-206671.5,-117399,-34289.23,-375000,-375000,-172730.6,-144727.4,0.03,0.00,0.88,-4,0,-2,34,0
'[12:58:01.316 21/01/2026]',-128374.1,-206604.9,-117333.6,-34243.23,-375000,-375000,-172828.5,-144768.3,0.03,0.00,0.88,-4,0,-2,34,0
'[12:58:01.320 21/01/2026]',-128408.8,-206639,-117372.4,-34242.78,-375000,-375000,-172717.7,-144675.2,0.03,0.00,0.88,-4,0,-2,34,0
'[12:58:01.324 21/01/2026]',-128458.3,-206690.5,-117424.1,-34265.09,-375000,-375000,-172597.8,-144610.5,0.03,0.00,0.88,-4,0,-2,34,0
'[12:58:01.328 21/01/2026]',-128450.7,-206679.1,-117410.4,-34267.32,-375000,-375000,-172701.1,-144714.6,0.03,0.00,0.88,-4,0,-2,34,0
'[12:58:01.332 21/01/2026]',-128388.6,-206612.1,-117341.1,-34223.25,-375000,-375000,-172835.7,-144791.6,0.02,0.00,0.88,-4,0,-2,34,0
'[12:58:01.336 21/01/2026]',-128402.3,-206630.7,-117363,-34212.07,-375000,-375000,-172750.8,-144715.3,0.02,0.00,0.88,-4,0,-2,34,0
'[12:58:01.340 21/01/2026]',-128459.5,-206694,-117427.4,-34243.86,-375000,-375000,-172627.1,-144628.3,0.02,0.00,0.88,-4,0,-2,34,0
'[12:58:01.344 21/01/2026]',-128459.7,-206690.2,-117424.8,-34254.36,-375000,-375000,-172688.3,-144691.8,0.02,0.00,0.88,-4,0,-2,34,0
'[12:58:01.348 21/01/2026]',-128387.1,-206610.3,-117338.3,-34226.2,-375000,-375000,-172842.9,-144781.7,0.02,0.00,0.88,-4,0,-2,34,0
'[12:58:01.352 21/01/2026]',-128370.6,-206598.1,-117325.7,-34214.8,-375000,-375000,-172794.1,-144723.3,0.02,0.00,0.88,-4,0,-2,34,0
'[12:58:01.356 21/01/2026]',-128422.7,-206660.5,-117386.4,-34253.11,-375000,-375000,-172641.6,-144615.7,0.02,0.00,0.88,-4,0,-2,34,0
'[12:58:01.360 21/01/2026]',-128439.9,-206682.8,-117405.1,-34287.08,-375000,-375000,-172675.8,-144668.5,0.02,0.00,0.88,-4,0,-2,34,0
'[12:58:01.364 21/01/2026]',-128387.1,-206622.4,-117346,-34266.96,-375000,-375000,-172835.9,-144777,0.02,0.00,0.88,-4,0,-2,34,0
'[12:58:01.368 21/01/2026]',-128355.7,-206589.1,-117316.3,-34236.21,-375000,-375000,-172824,-144734.3,0.03,0.00,0.88,-4,0,-2,34,0
'[12:58:01.372 21/01/2026]',-128402.5,-206638.3,-117375.1,-34255.52,-375000,-375000,-172668.4,-144614.8,0.03,0.00,0.88,-4,0,-2,34,0
'[12:58:01.376 21/01/2026]',-128420.2,-206659.7,-117396.2,-34272.64,-375000,-375000,-172640.7,-144611.7,0.03,0.00,0.88,-4,0,-2,34,0
'[12:58:01.380 21/01/2026]',-128362.4,-206597.1,-117328.6,-34249.8,-375000,-375000,-172800.9,-144720.7,0.03,0.00,0.88,-4,0,-2,34,0
'[12:58:01.384 21/01/2026]',-128320.7,-206548.8,-117283.2,-34214.44,-375000,-375000,-172828,-144704,0.03,0.00,0.88,-4,0,-2,34,0
'[12:58:01.388 21/01/2026]',-128375.9,-206606.7,-117347.7,-34242.29,-375000,-375000,-172686.5,-144595.8,0.03,0.00,0.88,-4,0,-2,34,0
'[12:58:01.392 21/01/2026]',-128414.2,-206651.1,-117391.6,-34282.25,-375000,-375000,-172639.6,-144578.4,0.03,0.00,0.88,-4,0,-2,34,0
'[12:58:01.396 21/01/2026]',-128394.2,-206633.6,-117365.1,-34297.72,-375000,-375000,-172817.1,-144715.2,0.03,0.00,0.88,-4,0,-2,34,0
'[12:58:01.400 21/01/2026]',-128355.6,-206592,-117319.7,-34272.91,-375000,-375000,-172895.9,-144741,0.03,0.00,0.88,-4,0,-2,34,0
'[12:58:01.404 21/01/2026]',-128397,-206640,-117370.3,-34290.17,-375000,-375000,-172764.4,-144638.9,0.02,0.00,0.88,-4,0,-2,34,0
'[12:58:01.408 21/01/2026]',-128445.9,-206693.6,-117424.5,-34329.77,-375000,-375000,-172678,-144592.2,0.02,0.00,0.88,-4,0,-2,34,0
'[12:58:01.412 21/01/2026]',-128420.4,-206667.5,-117390.3,-34328.66,-375000,-375000,-172814.6,-144700.6,0.02,0.00,0.88,-4,0,-2,34,0
'[12:58:01.416 21/01/2026]',-128354.2,-206591.5,-117310.9,-34276.04,-375000,-375000,-172900.8,-144726.7,0.02,0.00,0.88,-4,0,-2,34,0
'[12:58:01.420 21/01/2026]',-128377.1,-206619.3,-117342.2,-34278.01,-375000,-375000,-172789.1,-144627.9,0.02,0.00,0.88,-4,0,-2,34,0
'[12:58:01.424 21/01/2026]',-128435.4,-206683.8,-117409.1,-34323.16,-375000,-375000,-172681.9,-144565.1,0.02,0.00,0.88,-4,0,-2,34,0
'[12:58:01.428 21/01/2026]',-128424.4,-206669.8,-117392.2,-34333.13,-375000,-375000,-172785.7,-144661.5,0.02,0.00,0.88,-4,0,-2,34,0
'[12:58:01.432 21/01/2026]',-128362.3,-206600.9,-117319.1,-34295.62,-375000,-375000,-172920,-144727.6,0.02,0.00,0.88,-4,0,-2,34,0
'[12:58:01.436 21/01/2026]',-128373.3,-206612.9,-117338.2,-34287.62,-375000,-375000,-172841.1,-144648.3,0.02,0.00,0.88,-4,0,-2,34,0
'[12:58:01.440 21/01/2026]',-128432.9,-206679.7,-117408.8,-34325.48,-375000,-375000,-172706.6,-144556.8,0.03,0.00,0.88,-4,0,-2,34,0
'[12:58:01.444 21/01/2026]',-128433.7,-206681.9,-117404.3,-34338.8,-375000,-375000,-172771.2,-144624.7,0.03,0.00,0.88,-4,0,-2,34,0
'[12:58:01.448 21/01/2026]',-128376.1,-206612.5,-117333,-34303.67,-375000,-375000,-172922.3,-144716.4,0.03,0.00,0.88,-4,0,-2,34,0
'[12:58:01.452 21/01/2026]',-128371.9,-206605.2,-117330.6,-34285.52,-375000,-375000,-172879.8,-144659.4,0.03,0.00,0.88,-4,0,-2,34,0
'[12:58:01.456 21/01/2026]',-128434.1,-206677.1,-117403.1,-34327.99,-375000,-375000,-172749,-144575.9,0.03,0.00,0.88,-4,0,-2,34,0
'[12:58:01.460 21/01/2026]',-128456.4,-206703.1,-117428.1,-34360.48,-375000,-375000,-172783.9,-144630.7,0.03,0.00,0.88,-4,0,-2,34,0
'[12:58:01.464 21/01/2026]',-128406.2,-206647.1,-117367.2,-34340.91,-375000,-375000,-172953.4,-144743.4,0.03,0.00,0.88,-4,0,-2,34,0
'[12:58:01.468 21/01/2026]',-128382.3,-206622,-117343.6,-34313.01,-375000,-375000,-172944.7,-144706.4,0.03,0.00,0.88,-4,0,-2,34,0
'[12:58:01.472 21/01/2026]',-128433.7,-206682.8,-117410.3,-34344.04,-375000,-375000,-172804.1,-144608.1,0.03,0.00,0.88,-4,0,-2,34,0
'[12:58:01.476 21/01/2026]',-128469,-206720.1,-117448.2,-34380.83,-375000,-375000,-172799.7,-144634,0.02,0.00,0.88,-4,0,-2,34,0
'[12:58:01.480 21/01/2026]',-128428.8,-206671.1,-117394.3,-34367.46,-375000,-375000,-172974.8,-144757.5,0.02,0.00,0.88,-4,0,-2,34,0
'[12:58:01.484 21/01/2026]',-128400.1,-206636.8,-117359.5,-34339.83,-375000,-375000,-173020,-144761.9,0.02,0.00,0.88,-4,0,-2,34,0
'[12:58:01.488 21/01/2026]',-128446.4,-206693.5,-117418.9,-34361.61,-375000,-375000,-172884.2,-144666.9,0.02,0.00,0.88,-4,0,-2,34,0
'[12:58:01.492 21/01/2026]',-128487,-206743.7,-117468.7,-34404.52,-375000,-375000,-172853.9,-144673.3,0.02,0.00,0.88,-4,0,-2,34,0
'[12:58:01.496 21/01/2026]',-128443.7,-206700.3,-117418,-34394.06,-375000,-375000,-173019.9,-144802.7,0.02,0.00,0.88,-4,0,-2,34,0
'[12:58:01.500 21/01/2026]',-128393.8,-206644,-117361.5,-34352.98,-375000,-375000,-173100.6,-144830.6,0.02,0.00,0.88,-4,0,-2,34,0
'[12:58:01.504 21/01/2026]',-128440.2,-206692.6,-117418,-34373,-375000,-375000,-172994.7,-144752.1,0.02,0.00,0.88,-4,0,-2,34,0
'[12:58:01.508 21/01/2026]',-128498,-206754.4,-117480.1,-34419.27,-375000,-375000,-172922.2,-144724.7,0.02,0.00,0.88,-4,0,-2,34,0
'[12:58:01.512 21/01/2026]',-128477.8,-206731.4,-117451.7,-34426.38,-375000,-375000,-173057.6,-144835.3,0.03,0.00,0.89,-4,0,-2,34,0
'[12:58:01.516 21/01/2026]',-128412.4,-206661,-117374,-34374.61,-375000,-375000,-173141.3,-144857.7,0.03,0.00,0.89,-4,0,-2,34,0
'[12:58:01.520 21/01/2026]',-128424.6,-206677.3,-117392.5,-34361.38,-375000,-375000,-173007.7,-144741.5,0.03,0.00,0.89,-4,0,-2,34,0
'[12:58:01.524 21/01/2026]',-128486.4,-206747.2,-117464,-34409.21,-375000,-375000,-172895.1,-144681.5,0.03,0.00,0.89,-4,0,-2,34,0
'[12:58:01.528 21/01/2026]',-128481.6,-206742.1,-117455,-34426.96,-375000,-375000,-172997.7,-144778.5,0.03,0.00,0.89,-4,0,-2,34,0
'[12:58:01.532 21/01/2026]',-128410.1,-206661.5,-117374.6,-34378.5,-375000,-375000,-173113.9,-144830,0.03,0.00,0.89,-4,0,-2,34,0
'[12:58:01.536 21/01/2026]',-128419.3,-206673.7,-117389.3,-34367.46,-375000,-375000,-173025.6,-144751,0.03,0.00,0.89,-4,0,-2,34,0
'[12:58:01.540 21/01/2026]',-128466.5,-206728.9,-117449.6,-34394.82,-375000,-375000,-172869.4,-144651,0.03,0.00,0.89,-4,0,-2,34,0
'[12:58:01.544 21/01/2026]',-128473.1,-206734.6,-117452.6,-34414.22,-375000,-375000,-172924.5,-144719.3,0.03,0.00,0.89,-4,0,-2,34,0
'[12:58:01.548 21/01/2026]',-128412.9,-206662.3,-117377.3,-34374.61,-375000,-375000,-173058.5,-144791.5,0.02,0.00,0.89,-4,0,-2,34,0
'[12:58:01.552 21/01/2026]',-128399.8,-206649.3,-117367.8,-34345.38,-375000,-375000,-172992,-144717.4,0.02,0.00,0.89,-4,0,-2,34,0
'[12:58:01.556 21/01/2026]',-128456.3,-206715.1,-117435.5,-34381.41,-375000,-375000,-172854.5,-144624.6,0.02,0.00,0.89,-4,0,-2,34,0
'[12:58:01.560 21/01/2026]',-128478.7,-206741.5,-117457.8,-34410.33,-375000,-375000,-172879.5,-144670.9,0.02,0.00,0.89,-4,0,-2,34,0
'[12:58:01.564 21/01/2026]',-128425.1,-206680.6,-117392.9,-34385.88,-375000,-375000,-173036.9,-144776,0.02,0.00,0.89,-4,0,-2,34,0
'[12:58:01.568 21/01/2026]',-128397.4,-206652.8,-117363.3,-34352.62,-375000,-375000,-173014.6,-144735,0.02,0.00,0.89,-4,0,-2,34,0
'[12:58:01.572 21/01/2026]',-128457.2,-206723.4,-117435.1,-34388.43,-375000,-375000,-172872,-144641.4,0.02,0.00,0.89,-4,0,-2,34,0
'[12:58:01.576 21/01/2026]',-128470.9,-206740.9,-117452.4,-34404.52,-375000,-375000,-172840.5,-144638.3,0.02,0.00,0.89,-4,0,-2,34,0
'[12:58:01.580 21/01/2026]',-128434,-206701.7,-117404.5,-34396.03,-375000,-375000,-173007.3,-144760.8,0.02,0.00,0.89,-4,0,-2,34,0
'[12:58:01.584 21/01/2026]',-128398.7,-206660.5,-117364,-34360.44,-375000,-375000,-173028.3,-144744,0.03,0.00,0.88,-4,0,-2,34,0
'[12:58:01.588 21/01/2026]',-128445.1,-206708.3,-117414.9,-34372.87,-375000,-375000,-172874.1,-144626.6,0.03,0.00,0.88,-4,0,-2,34,0
'[12:58:01.592 21/01/2026]',-128483.1,-206749.1,-117451.6,-34405.01,-375000,-375000,-172818.4,-144609.4,0.03,0.00,0.88,-4,0,-2,34,0
'[12:58:01.596 21/01/2026]',-128450.5,-206716.8,-117411.7,-34401.57,-375000,-375000,-172968.2,-144726.7,0.03,0.00,0.88,-4,0,-2,34,0
'[12:58:01.600 21/01/2026]',-128407.1,-206669.1,-117362,-34371.04,-375000,-375000,-173033.8,-144745.3,0.03,0.00,0.88,-4,0,-2,34,0
'[12:58:01.604 21/01/2026]',-128441.8,-206710.5,-117404.6,-34381.18,-375000,-375000,-172904,-144646.5,0.03,0.00,0.88,-4,0,-2,34,0
'[12:58:01.608 21/01/2026]',-128496.4,-206773.8,-117463.9,-34423.21,-375000,-375000,-172821.7,-144610.5,0.03,0.00,0.88,-4,0,-2,34,0
'[12:58:01.612 21/01/2026]',-128486.4,-206753.9,-117439.4,-34431.52,-375000,-375000,-172948.6,-144717.8,0.03,0.00,0.88,-4,0,-2,34,0
'[12:58:01.616 21/01/2026]',-128431.7,-206693.5,-117373.7,-34390.93,-375000,-375000,-173043.6,-144762.1,0.03,0.00,0.88,-4,0,-2,34,0
'[12:58:01.620 21/01/2026]',-128449.3,-206715.4,-117402.4,-34387.44,-375000,-375000,-172932.1,-144671.3,0.02,0.00,0.88,-4,0,-2,34,0
'[12:58:01.624 21/01/2026]',-128505.6,-206775.4,-117463.4,-34422.89,-375000,-375000,-172820,-144608.5,0.02,0.00,0.88,-4,0,-2,34,0
'[12:58:01.628 21/01/2026]',-128500.2,-206768.7,-117450.4,-34436.21,-375000,-375000,-172923.9,-144709.1,0.02,0.00,0.88,-4,0,-2,34,0
'[12:58:01.632 21/01/2026]',-128429.9,-206691.4,-117376.6,-34408.27,-375000,-375000,-173076.9,-144801.7,0.02,0.00,0.88,-4,0,-2,34,0
'[12:58:01.636 21/01/2026]',-128430,-206694.6,-117381.9,-34389.9,-375000,-375000,-172996.8,-144724.7,0.02,0.00,0.88,-4,0,-2,34,0
'[12:58:01.640 21/01/2026]',-128518.5,-206796.1,-117465.4,-34429.6,-375000,-375000,-172843.1,-144631.6,0.02,0.00,0.88,-4,0,-2,34,0
'[12:58:01.644 21/01/2026]',-128517.8,-206796.1,-117468.6,-34446.36,-375000,-375000,-172893.6,-144698.3,0.02,0.00,0.88,-4,0,-2,34,0
'[12:58:01.648 21/01/2026]',-128436.3,-206707.6,-117385.2,-34407.02,-375000,-375000,-173047.2,-144788.7,0.02,0.00,0.88,-4,0,-2,34,0
'[12:58:01.652 21/01/2026]',-128422.7,-206697.1,-117373.3,-34381.27,-375000,-375000,-172996.7,-144732,0.02,0.00,0.88,-4,0,-2,34,0
'[12:58:01.656 21/01/2026]',-128481,-206754,-117442.5,-34412.7,-375000,-375000,-172847.9,-144638.8,0.03,0.00,0.88,-4,0,-2,34,0
'[12:58:01.660 21/01/2026]',-128508.4,-206779.9,-117464.3,-34438.54,-375000,-375000,-172865.1,-144681.2,0.03,0.00,0.88,-4,0,-2,34,0
'[12:58:01.664 21/01/2026]',-128443.9,-206716.4,-117392.7,-34411.49,-375000,-375000,-173027.5,-144790.1,0.03,0.00,0.88,-4,0,-2,34,0
'[12:58:01.668 21/01/2026]',-128417.2,-206685.9,-117366.6,-34384,-375000,-375000,-173021.4,-144763.1,0.03,0.00,0.88,-4,0,-2,34,0
'[12:58:01.672 21/01/2026]',-128470.9,-206749.1,-117428.7,-34412.03,-375000,-375000,-172874.5,-144662.3,0.03,0.00,0.88,-4,0,-2,34,0
'[12:58:01.676 21/01/2026]',-128504.9,-206787.1,-117464.8,-34448.82,-375000,-375000,-172858.7,-144677.7,0.03,0.00,0.88,-4,0,-2,34,0
'[12:58:01.680 21/01/2026]',-128462.2,-206735.9,-117409.2,-34434.96,-375000,-375000,-173020,-144797,0.03,0.00,0.88,-4,0,-2,34,0
'[12:58:01.684 21/01/2026]',-128422.3,-206687.4,-117364.3,-34391.78,-375000,-375000,-173035.3,-144781,0.03,0.00,0.88,-4,0,-2,34,0
'[12:58:01.688 21/01/2026]',-128464.1,-206736.6,-117414.3,-34405.95,-375000,-375000,-172885.9,-144670.6,0.03,0.00,0.88,-4,0,-2,34,0
'[12:58:01.692 21/01/2026]',-128508.6,-206788.3,-117463.8,-34447.25,-375000,-375000,-172840.5,-144665.7,0.03,0.00,0.89,-4,0,-2,34,0
'[12:58:01.696 21/01/2026]',-128476.9,-206751.9,-117423.9,-34442.65,-375000,-375000,-172989.8,-144786.2,0.03,0.00,0.89,-4,0,-2,34,0
'[12:58:01.700 21/01/2026]',-128427.1,-206696.3,-117365.1,-34403.4,-375000,-375000,-173062.2,-144804.7,0.03,0.00,0.89,-4,0,-2,34,0
'[12:58:01.704 21/01/2026]',-128461.8,-206736.2,-117409.1,-34410.11,-375000,-375000,-172931.2,-144702,0.03,0.00,0.89,-4,0,-2,34,0
'[12:58:01.708 21/01/2026]',-128499.6,-206780,-117458.4,-34441.76,-375000,-375000,-172839.2,-144653.8,0.03,0.00,0.89,-4,0,-2,34,0
'[12:58:01.712 21/01/2026]',-128477.1,-206750.6,-117429.4,-34440.86,-375000,-375000,-172961.7,-144758.3,0.03,0.00,0.89,-4,0,-2,34,0
'[12:58:01.716 21/01/2026]',-128421.2,-206689.3,-117361.4,-34402.11,-375000,-375000,-173068.6,-144810.1,0.03,0.00,0.89,-4,0,-2,34,0
'[12:58:01.720 21/01/2026]',-128446.7,-206719,-117393.3,-34402.2,-375000,-375000,-172962.1,-144723.1,0.03,0.00,0.89,-4,0,-2,34,0
'[12:58:01.724 21/01/2026]',-128507.3,-206781.3,-117460.2,-34443.77,-375000,-375000,-172847.5,-144657.4,0.03,0.00,0.89,-4,0,-2,34,0
'[12:58:01.728 21/01/2026]',-128501.3,-206772.9,-117447.2,-34457.09,-375000,-375000,-172944.4,-144745.3,0.03,0.00,0.89,-4,0,-2,34,0
'[12:58:01.732 21/01/2026]',-128437.5,-206704,-117374.8,-34416.23,-375000,-375000,-173072.8,-144817.6,0.03,0.00,0.89,-4,0,-2,34,0
'[12:58:01.736 21/01/2026]',-128446.5,-206714.3,-117391.3,-34405.91,-375000,-375000,-172997.8,-144747.5,0.03,0.00,0.89,-4,0,-2,34,0
'[12:58:01.740 21/01/2026]',-128505.2,-206779,-117459.8,-34444.21,-375000,-375000,-172874.2,-144672,0.03,0.00,0.89,-4,0,-2,34,0
'[12:58:01.744 21/01/2026]',-128513,-206785.2,-117466.1,-34466.34,-375000,-375000,-172937.9,-144743.2,0.03,0.00,0.89,-4,0,-2,34,0
'[12:58:01.748 21/01/2026]',-128450.1,-206716.8,-117394.6,-34430.04,-375000,-375000,-173081.4,-144827.9,0.03,0.00,0.89,-4,0,-2,34,0
'[12:58:01.752 21/01/2026]',-128442.1,-206707,-117388.3,-34406.26,-375000,-375000,-173039,-144773.2,0.03,0.00,0.89,-4,0,-2,34,0
'[12:58:01.756 21/01/2026]',-128508.9,-206780.2,-117467.1,-34448.95,-375000,-375000,-172902.1,-144685.4,0.03,0.00,0.89,-4,0,-2,34,0
'[12:58:01.760 21/01/2026]',-128531.2,-206803.7,-117491.5,-34480.07,-375000,-375000,-172920.7,-144728.7,0.03,0.00,0.89,-4,0,-2,34,0
'[12:58:01.764 21/01/2026]',-128476.8,-206746.5,-117426,-34458.03,-375000,-375000,-173084,-144842.4,0.02,0.00,0.88,-4,0,-2,34,0
'[12:58:01.768 21/01/2026]',-128438.4,-206703.4,-117387.2,-34418.2,-375000,-375000,-173069.2,-144803.3,0.02,0.00,0.88,-4,0,-2,34,0
'[12:58:01.772 21/01/2026]',-128489.4,-206758.6,-117451.2,-34441.4,-375000,-375000,-172918.8,-144697,0.02,0.00,0.88,-4,0,-2,34,0
'[12:58:01.776 21/01/2026]',-128518.6,-206796.3,-117488.8,-34475.2,-375000,-375000,-172902.5,-144711.5,0.02,0.00,0.88,-4,0,-2,34,0
'[12:58:01.780 21/01/2026]',-128467.4,-206737.2,-117429.6,-34452.44,-375000,-375000,-173048.5,-144817.2,0.02,0.00,0.88,-4,0,-2,34,0
'[12:58:01.784 21/01/2026]',-128432.4,-206695.5,-117391.8,-34420.75,-375000,-375000,-173083.3,-144816.7,0.02,0.00,0.88,-4,0,-2,34,0
'[12:58:01.788 21/01/2026]',-128487.6,-206754.9,-117458.4,-34449.27,-375000,-375000,-172953.5,-144723.8,0.02,0.00,0.88,-4,0,-2,34,0
'[12:58:01.792 21/01/2026]',-128525.7,-206792.8,-117497.9,-34477.16,-375000,-375000,-172889.6,-144698.3,0.02,0.00,0.88,-4,0,-2,34,0
'[12:58:01.796 21/01/2026]',-128488.7,-206753.9,-117453.3,-34469.12,-375000,-375000,-173031.2,-144814.1,0.02,0.00,0.88,-4,0,-2,34,0
'[12:58:01.800 21/01/2026]',-128435,-206699.8,-117395.5,-34427.72,-375000,-375000,-173095.2,-144832.3,0.02,0.00,0.88,-4,0,-2,34,0
'[12:58:01.804 21/01/2026]',-128472.9,-206743,-117440.5,-34437.82,-375000,-375000,-172963.9,-144730.4,0.02,0.00,0.88,-4,0,-2,34,0
'[12:58:01.808 21/01/2026]',-128533.1,-206809.5,-117505.2,-34486.33,-375000,-375000,-172888.6,-144700.3,0.02,0.00,0.88,-4,0,-2,34,0
'[12:58:01.812 21/01/2026]',-128519.8,-206793.6,-117485.8,-34494.82,-375000,-375000,-173012.6,-144811.3,0.02,0.00,0.88,-4,0,-2,34,0
'[12:58:01.816 21/01/2026]',-128458.2,-206722.1,-117417.4,-34450.61,-375000,-375000,-173105.9,-144850.2,0.02,0.00,0.88,-4,0,-2,34,0
'[12:58:01.820 21/01/2026]',-128473.6,-206740.8,-117443.6,-34446.94,-375000,-375000,-172994.9,-144759.8,0.02,0.00,0.88,-4,0,-2,34,0
'[12:58:01.824 21/01/2026]',-128523.4,-206798.4,-117503.3,-34482.62,-375000,-375000,-172879.1,-144689.9,0.02,0.00,0.88,-4,0,-2,34,0
'[12:58:01.828 21/01/2026]',-128516.9,-206791.2,-117491.9,-34491.82,-375000,-375000,-172967.6,-144775.5,0.02,0.00,0.88,-4,0,-2,34,0
'[12:58:01.832 21/01/2026]',-128460.4,-206726,-117425.2,-34458.66,-375000,-375000,-173103.2,-144853.6,0.02,0.00,0.88,-4,0,-2,34,0
'[12:58:01.836 21/01/2026]',-128470.1,-206730.6,-117439.6,-34448.69,-375000,-375000,-173030.7,-144784.5,0.03,0.00,0.88,-4,0,-2,34,0
'[12:58:01.840 21/01/2026]',-128537.3,-206803,-117512.9,-34488.79,-375000,-375000,-172899.2,-144702.7,0.03,0.00,0.88,-4,0,-2,34,0
'[12:58:01.844 21/01/2026]',-128545.6,-206813,-117522.2,-34511.54,-375000,-375000,-172957.1,-144770.9,0.03,0.00,0.88,-4,0,-2,34,0
'[12:58:01.848 21/01/2026]',-128490.3,-206754.3,-117457.6,-34482.26,-375000,-375000,-173105.1,-144864.7,0.03,0.00,0.88,-4,0,-2,34,0
'[12:58:01.852 21/01/2026]',-128474.3,-206740.3,-117441.4,-34457.4,-375000,-375000,-173061.9,-144811.2,0.03,0.00,0.88,-4,0,-2,34,0
'[12:58:01.856 21/01/2026]',-128531.3,-206802.1,-117508.9,-34489.95,-375000,-375000,-172916.8,-144721.1,0.03,0.00,0.88,-4,0,-2,34,0
'[12:58:01.860 21/01/2026]',-128553.5,-206821.4,-117528.4,-34512.12,-375000,-375000,-172928.2,-144754.8,0.03,0.00,0.88,-4,0,-2,34,0
'[12:58:01.864 21/01/2026]',-128492.6,-206760.4,-117461.4,-34484.58,-375000,-375000,-173083.4,-144855.7,0.03,0.00,0.88,-4,0,-2,34,0
'[12:58:01.868 21/01/2026]',-128456.3,-206722.4,-117425.6,-34446.36,-375000,-375000,-173069.2,-144816.9,0.03,0.00,0.88,-4,0,-2,34,0
'[12:58:01.872 21/01/2026]',-128516.8,-206786.3,-117491.1,-34472.07,-375000,-375000,-172915.8,-144708.9,0.02,0.00,0.89,-4,0,-2,34,0
'[12:58:01.876 21/01/2026]',-128560.7,-206831,-117536.7,-34511.58,-375000,-375000,-172899.5,-144725.3,0.02,0.00,0.89,-4,0,-2,34,0
'[12:58:01.880 21/01/2026]',-128518.1,-206785.9,-117486,-34498.66,-375000,-375000,-173059.8,-144844.3,0.02,0.00,0.89,-4,0,-2,34,0
'[12:58:01.884 21/01/2026]',-128472.2,-206739,-117434.2,-34458.97,-375000,-375000,-173096.1,-144841.4,0.02,0.00,0.89,-4,0,-2,34,0
'[12:58:01.888 21/01/2026]',-128519.8,-206790.9,-117488.4,-34477.43,-375000,-375000,-172956.9,-144737,0.02,0.00,0.89,-4,0,-2,34,0
'[12:58:01.892 21/01/2026]',-128564.6,-206834.6,-117537.5,-34514.4,-375000,-375000,-172899,-144718.4,0.02,0.00,0.89,-4,0,-2,34,0
'[12:58:01.896 21/01/2026]',-128531.7,-206794.5,-117495.8,-34503.98,-375000,-375000,-173038.1,-144828.8,0.02,0.00,0.89,-4,0,-2,34,0
'[12:58:01.900 21/01/2026]',-128475.9,-206738.3,-117439.7,-34462.37,-375000,-375000,-173104.4,-144850.4,0.02,0.00,0.89,-4,0,-2,34,0
'[12:58:01.904 21/01/2026]',-128512.1,-206781.7,-117490,-34473.27,-375000,-375000,-172975.7,-144756,0.02,0.00,0.89,-4,0,-2,34,0
'[12:58:01.908 21/01/2026]',-128562.1,-206835.6,-117545.4,-34509.62,-375000,-375000,-172883.9,-144708.3,0.02,0.00,0.88,-4,0,-2,34,0
'[12:58:01.912 21/01/2026]',-128545,-206816,-117520.7,-34513.91,-375000,-375000,-173007.7,-144817.5,0.02,0.00,0.88,-4,0,-2,34,0
'[12:58:01.916 21/01/2026]',-128490,-206751.4,-117455.6,-34470.5,-375000,-375000,-173108.3,-144866.2,0.02,0.00,0.88,-4,0,-2,34,0
'[12:58:01.920 21/01/2026]',-128510.8,-206774.4,-117482.8,-34467.95,-375000,-375000,-173000.8,-144773.4,0.02,0.00,0.88,-4,0,-2,34,0
'[12:58:01.924 21/01/2026]',-128571,-206840,-117552.7,-34513.19,-375000,-375000,-172891.7,-144709.1,0.02,0.00,0.88,-4,0,-2,34,0
'[12:58:01.928 21/01/2026]',-128562.9,-206828.6,-117538.3,-34524.05,-375000,-375000,-172984.2,-144799.1,0.02,0.00,0.88,-4,0,-2,34,0
'[12:58:01.932 21/01/2026]',-128496.4,-206753.5,-117460,-34479.84,-375000,-375000,-173112.9,-144868.6,0.02,0.00,0.88,-4,0,-2,34,0
'[12:58:01.936 21/01/2026]',-128494.7,-206757.7,-117464.3,-34460.98,-375000,-375000,-173032.3,-144788.6,0.02,0.00,0.88,-4,0,-2,34,0
'[12:58:01.940 21/01/2026]',-128562.3,-206833.4,-117542.4,-34505.28,-375000,-375000,-172902.1,-144711.2,0.02,0.00,0.88,-4,0,-2,34,0
'[12:58:01.944 21/01/2026]',-128574.6,-206845.9,-117552.2,-34527.72,-375000,-375000,-172956.7,-144777.6,0.03,0.00,0.88,-4,0,-2,34,0
'[12:58:01.948 21/01/2026]',-128512.5,-206777.7,-117479.2,-34494.78,-375000,-375000,-173108.6,-144873.8,0.03,0.00,0.88,-4,0,-2,34,0
'[12:58:01.952 21/01/2026]',-128502.9,-206767.8,-117468.3,-34471.04,-375000,-375000,-173066.7,-144818.8,0.03,0.00,0.88,-4,0,-2,34,0
'[12:58:01.956 21/01/2026]',-128565.6,-206835.4,-117541.8,-34507.02,-375000,-375000,-172923.5,-144721.2,0.03,0.00,0.88,-4,0,-2,34,0
'[12:58:01.960 21/01/2026]',-128581.4,-206854.5,-117560.7,-34531.16,-375000,-375000,-172934.7,-144753.2,0.03,0.00,0.88,-4,0,-2,34,0
'[12:58:01.964 21/01/2026]',-128531.1,-206796.8,-117497.9,-34507.61,-375000,-375000,-173095.9,-144863.5,0.03,0.00,0.88,-4,0,-2,34,0
'[12:58:01.968 21/01/2026]',-128504.4,-206766.8,-117468.9,-34477.39,-375000,-375000,-173095.2,-144836.3,0.03,0.00,0.88,-4,0,-2,34,0
'[12:58:01.972 21/01/2026]',-128551,-206821.2,-117529.8,-34498.39,-375000,-375000,-172944.3,-144731.2,0.03,0.00,0.88,-4,0,-2,34,0
'[12:58:01.976 21/01/2026]',-128583.9,-206858.8,-117566.3,-34531.16,-375000,-375000,-172920.8,-144742.8,0.03,0.00,0.88,-4,0,-2,34,0
'[12:58:01.980 21/01/2026]',-128532.9,-206805.3,-117505,-34507.16,-375000,-375000,-173067,-144851.6,0.02,0.00,0.88,-4,0,-2,34,0
'[12:58:01.984 21/01/2026]',-128483.7,-206748,-117451.2,-34458.48,-375000,-375000,-173088.7,-144840.3,0.02,0.00,0.88,-4,0,-2,34,0
'[12:58:01.988 21/01/2026]',-128517,-206786.4,-117497.6,-34467.11,-375000,-375000,-172943.5,-144728.4,0.02,0.00,0.88,-4,0,-2,34,0
'[12:58:01.992 21/01/2026]',-128563.7,-206836.4,-117551.8,-34508.41,-375000,-375000,-172886.8,-144705.9,0.02,0.00,0.88,-4,0,-2,34,0
'[12:58:01.996 21/01/2026]',-128536.9,-206806,-117516.5,-34509.04,-375000,-375000,-173036.3,-144825.4,0.02,0.00,0.88,-4,0,-2,34,0
'[12:58:02.000 21/01/2026]',-128485.9,-206750.2,-117456.5,-34471.26,-375000,-375000,-173111.6,-144851.7,0.02,0.00,0.88,-4,0,-2,34,0
'[12:58:02.004 21/01/2026]',-128533.3,-206801.9,-117509.5,-34492.9,-375000,-375000,-172999.9,-144769,0.02,0.00,0.88,-4,0,-2,34,0
'[12:58:02.008 21/01/2026]',-128595.4,-206871.4,-117582.6,-34543.5,-375000,-375000,-172917.8,-144733.8,0.02,0.00,0.88,-4,0,-2,34,0
'[12:58:02.012 21/01/2026]',-128587.2,-206865.2,-117570.6,-34552.98,-375000,-375000,-173040.6,-144844.4,0.02,0.00,0.88,-4,0,-2,34,0
'[12:58:02.016 21/01/2026]',-128535.9,-206805.8,-117504.5,-34516.05,-375000,-375000,-173153.2,-144903.8,0.02,0.00,0.88,-4,0,-2,34,0
'[12:58:02.020 21/01/2026]',-128551.9,-206821.3,-117520.8,-34505.01,-375000,-375000,-173052.2,-144815.7,0.02,0.00,0.88,-4,0,-2,34,0
'[12:58:02.024 21/01/2026]',-128606.2,-206881.9,-117583.1,-34539.97,-375000,-375000,-172936.2,-144743.1,0.02,0.00,0.88,-4,0,-2,34,0
'[12:58:02.028 21/01/2026]',-128599,-206876,-117573.7,-34549.14,-375000,-375000,-173019.2,-144824.1,0.02,0.00,0.88,-4,0,-2,34,0
'[12:58:02.032 21/01/2026]',-128517.8,-206788.1,-117489.1,-34506.89,-375000,-375000,-173154.6,-144901,0.02,0.00,0.88,-4,0,-2,34,0
'[12:58:02.036 21/01/2026]',-128496.9,-206762,-117486.5,-34480.52,-375000,-375000,-173074.4,-144822.5,0.02,0.00,0.88,-4,0,-2,34,0
'[12:58:02.040 21/01/2026]',-128593.2,-206857,-117575.5,-34521.96,-375000,-375000,-172921.7,-144724,0.02,0.00,0.88,-4,0,-2,34,0
'[12:58:02.044 21/01/2026]',-128624,-206893.7,-117590.8,-34548.73,-375000,-375000,-172964.5,-144784.3,0.02,0.00,0.88,-4,0,-2,34,0
'[12:58:02.048 21/01/2026]',-128564.9,-206829,-117518.7,-34522.09,-375000,-375000,-173124.5,-144889.2,0.02,0.00,0.88,-4,0,-2,34,0
'[12:58:02.052 21/01/2026]',-128564.2,-206829.5,-117512.8,-34506.27,-375000,-375000,-173095.4,-144845.1,0.03,0.00,0.88,-4,0,-2,34,0
'[12:58:02.056 21/01/2026]',-128636.7,-206908,-117591,-34548.46,-375000,-375000,-172961.3,-144758,0.03,0.00,0.88,-4,0,-2,34,0
'[12:58:02.060 21/01/2026]',-128671.9,-206943.3,-117617.9,-34575.64,-375000,-375000,-172972.2,-144790.3,0.03,0.00,0.88,-4,0,-2,34,0
'[12:58:02.064 21/01/2026]',-128627.2,-206891,-117559.5,-34556.02,-375000,-375000,-173134,-144902.2,0.03,0.00,0.88,-4,0,-2,34,0
'[12:58:02.068 21/01/2026]',-128587.7,-206850.5,-117523.6,-34520.88,-375000,-375000,-173133,-144872,0.03,0.00,0.88,-4,0,-2,34,0
'[12:58:02.072 21/01/2026]',-128639.5,-206907.9,-117586.9,-34543.73,-375000,-375000,-172984.6,-144768.8,0.03,0.00,0.88,-4,0,-2,34,0
'[12:58:02.076 21/01/2026]',-128667.4,-206937.1,-117616.7,-34568.63,-375000,-375000,-172952.1,-144768.6,0.03,0.00,0.88,-4,0,-2,34,0
'[12:58:02.080 21/01/2026]',-128615.5,-206880.1,-117556.4,-34549,-375000,-375000,-173104.6,-144880.5,0.03,0.00,0.88,-4,0,-2,34,0
'[12:58:02.084 21/01/2026]',-128569.1,-206830.8,-117505.1,-34509.04,-375000,-375000,-173142.7,-144880.2,0.03,0.00,0.88,-4,0,-2,34,0
'[12:58:02.088 21/01/2026]',-128611.9,-206883.8,-117559.3,-34526.34,-375000,-375000,-173003.4,-144779.6,0.03,0.00,0.88,-4,0,-2,34,0
'[12:58:02.092 21/01/2026]',-128653.3,-206930.8,-117608.4,-34561.96,-375000,-375000,-172937,-144756.5,0.03,0.00,0.88,-4,0,-2,34,0
'[12:58:02.096 21/01/2026]',-128618.2,-206890.8,-117564.1,-34552.18,-375000,-375000,-173077.5,-144866.9,0.03,0.00,0.88,-4,0,-2,34,0
'[12:58:02.100 21/01/2026]',-128569.6,-206837,-117507.1,-34516.19,-375000,-375000,-173157.2,-144895.2,0.03,0.00,0.88,-4,0,-2,34,0
'[12:58:02.104 21/01/2026]',-128599.4,-206865,-117547.2,-34517.62,-375000,-375000,-173023.6,-144789,0.03,0.00,0.88,-4,0,-2,34,0
'[12:58:02.108 21/01/2026]',-128646.8,-206910.4,-117601.1,-34548.73,-375000,-375000,-172915.9,-144727.8,0.03,0.00,0.88,-4,0,-2,34,0
'[12:58:02.112 21/01/2026]',-128629.9,-206892.2,-117579.4,-34552.75,-375000,-375000,-173033,-144835.2,0.03,0.00,0.88,-4,0,-2,34,0
'[12:58:02.116 21/01/2026]',-128569.4,-206829.4,-117512.8,-34514.4,-375000,-375000,-173143,-144892.1,0.03,0.00,0.88,-4,0,-2,34,0
'[12:58:02.120 21/01/2026]',-128578.9,-206840.5,-117527.7,-34503.76,-375000,-375000,-173042,-144801.9,0.03,0.00,0.88,-4,0,-2,34,0
'[12:58:02.124 21/01/2026]',-128636.7,-206901.8,-117592.4,-34540.77,-375000,-375000,-172915.6,-144730.8,0.03,0.02,0.88,-4,0,-2,34,0
'[12:58:02.128 21/01/2026]',-128630.7,-206899.5,-117584.2,-34554.59,-375000,-375000,-173003,-144816,0.03,0.02,0.88,-4,0,-2,34,0
'[12:58:02.132 21/01/2026]',-128564.4,-206823.9,-117507.3,-34512.61,-375000,-375000,-173126,-144884,0.03,0.02,0.88,-4,0,-2,34,0
'[12:58:02.136 21/01/2026]',-128560.1,-206823,-117505.2,-34495.58,-375000,-375000,-173052.5,-144810.2,0.03,0.02,0.88,-4,0,-2,34,0
'[12:58:02.140 21/01/2026]',-128619,-206899.5,-117575,-34534.61,-375000,-375000,-172923.2,-144728.7,0.03,0.02,0.88,-4,0,-2,34,0
'[12:58:02.144 21/01/2026]',-128626.7,-206903.5,-117585.7,-34550.66,-375000,-375000,-172969.4,-144783.4,0.03,0.02,0.88,-4,0,-2,34,0
'[12:58:02.148 21/01/2026]',-128572.8,-206835.5,-117518.3,-34521.02,-375000,-375000,-173125.6,-144882.6,0.03,0.02,0.88,-4,0,-2,34,0
'[12:58:02.152 21/01/2026]',-128558.2,-206816.7,-117502.3,-34491.96,-375000,-375000,-173088.9,-144834.7,0.03,0.02,0.88,-4,0,-2,34,0
'[12:58:02.156 21/01/2026]',-128612.4,-206874.2,-117568.9,-34517.93,-375000,-375000,-172935,-144732.7,0.03,0.02,0.88,-4,0,-2,34,0
'[12:58:02.160 21/01/2026]',-128630.9,-206895.1,-117589.6,-34544.57,-375000,-375000,-172941,-144759.6,0.03,0.00,0.88,-4,0,-2,34,0
'[12:58:02.164 21/01/2026]',-128580.2,-206843.7,-117527.6,-34526.34,-375000,-375000,-173105.9,-144873.3,0.03,0.00,0.88,-4,0,-2,34,0
'[12:58:02.168 21/01/2026]',-128554,-206812.1,-117496.7,-34493.08,-375000,-375000,-173102.5,-144845.3,0.03,0.00,0.88,-4,0,-2,34,0
'[12:58:02.172 21/01/2026]',-128606.8,-206869.3,-117561.5,-34520.57,-375000,-375000,-172954.9,-144743.7,0.03,0.00,0.88,-4,0,-2,34,0
'[12:58:02.176 21/01/2026]',-128630.2,-206897.3,-117594.8,-34549.36,-375000,-375000,-172917.8,-144736.6,0.03,0.00,0.88,-4,0,-2,34,0
'[12:58:02.180 21/01/2026]',-128584.8,-206845,-117540,-34532.28,-375000,-375000,-173070,-144845,0.03,0.00,0.88,-4,0,-2,34,0
'[12:58:02.184 21/01/2026]',-128542.2,-206799,-117488.7,-34493.52,-375000,-375000,-173113,-144852.1,0.03,0.00,0.88,-4,0,-2,34,0
'[12:58:02.188 21/01/2026]',-128579.2,-206840.1,-117532.8,-34502.2,-375000,-375000,-172969.9,-144745.8,0.03,0.00,0.88,-4,0,-2,34,0
'[12:58:02.192 21/01/2026]',-128628.3,-206893,-117584.6,-34542.21,-375000,-375000,-172908.3,-144722.4,0.03,0.00,0.88,-4,0,-2,34,0
'[12:58:02.196 21/01/2026]',-128591.6,-206858.2,-117543.3,-34537.42,-375000,-375000,-173049.6,-144834.7,0.02,-0.02,0.89,-4,0,-2,34,0
'[12:58:02.200 21/01/2026]',-128529.1,-206789.3,-117475.4,-34490.17,-375000,-375000,-173124.7,-144862.4,0.02,-0.02,0.89,-4,0,-2,34,0
'[12:58:02.204 21/01/2026]',-128564.3,-206828.2,-117518,-34495.85,-375000,-375000,-173003.4,-144769.7,0.02,-0.02,0.89,-4,0,-2,34,0
'[12:58:02.208 21/01/2026]',-128621.1,-206890.6,-117580.3,-34537.33,-375000,-375000,-172900.9,-144716.2,0.02,-0.02,0.89,-4,0,-2,34,0
'[12:58:02.212 21/01/2026]',-128596.9,-206864.4,-117551.4,-34539.3,-375000,-375000,-173014.6,-144812.9,0.02,-0.02,0.89,-4,0,-2,34,0
'[12:58:02.216 21/01/2026]',-128532.2,-206791.9,-117476,-34494.73,-375000,-375000,-173126.4,-144864.6,0.02,-0.02,0.89,-4,0,-2,34,0
'[12:58:02.220 21/01/2026]',-128555.1,-206813.7,-117500,-34489.5,-375000,-375000,-173030.5,-144781.5,0.02,-0.02,0.89,-4,0,-2,34,0
'[12:58:02.224 21/01/2026]',-128605.3,-206876.4,-117565.9,-34522.89,-375000,-375000,-172896.3,-144702.4,0.02,-0.02,0.89,-4,0,-2,34,0
'[12:58:02.228 21/01/2026]',-128603.3,-206876.6,-117563.2,-34539.08,-375000,-375000,-172977.2,-144785.6,0.02,-0.02,0.89,-4,0,-2,34,0
'[12:58:02.232 21/01/2026]',-128545.8,-206810,-117493.9,-34504.03,-375000,-375000,-173123.3,-144871.1,0.02,0.00,0.88,-4,0,-2,34,0
'[12:58:02.236 21/01/2026]',-128549.2,-206811.8,-117500.1,-34486.77,-375000,-375000,-173054.4,-144805.5,0.02,0.00,0.88,-4,0,-2,34,0
'[12:58:02.240 21/01/2026]',-128610.8,-206878.8,-117570.8,-34525.89,-375000,-375000,-172915.8,-144717,0.02,0.00,0.88,-4,0,-2,34,0
'[12:58:02.244 21/01/2026]',-128621.1,-206890.3,-117575.4,-34546.23,-375000,-375000,-172963.5,-144777.7,0.02,0.00,0.88,-4,0,-2,34,0
'[12:58:02.248 21/01/2026]',-128562.2,-206820,-117504.6,-34514.54,-375000,-375000,-173116.2,-144870.9,0.02,0.00,0.88,-4,0,-2,34,0
'[12:58:02.252 21/01/2026]',-128542.6,-206801.2,-117491.3,-34489.86,-375000,-375000,-173078.6,-144818.3,0.02,0.00,0.88,-4,0,-2,34,0
'[12:58:02.256 21/01/2026]',-128602.1,-206870.1,-117564.5,-34525.13,-375000,-375000,-172931.1,-144719.6,0.02,0.00,0.88,-4,0,-2,34,0
'[12:58:02.260 21/01/2026]',-128627.8,-206893.9,-117587.9,-34552.22,-375000,-375000,-172938.2,-144748.3,0.02,0.00,0.88,-4,0,-2,34,0
'[12:58:02.264 21/01/2026]',-128572.3,-206835.3,-117524.9,-34528.13,-375000,-375000,-173094,-144856.3,0.02,0.00,0.88,-4,0,-2,34,0
'[12:58:02.268 21/01/2026]',-128537.4,-206799.9,-117487.3,-34492.63,-375000,-375000,-173095.1,-144829.5,0.03,0.00,0.88,-4,0,-2,34,0
'[12:58:02.272 21/01/2026]',-128598.6,-206866.5,-117553.1,-34524.5,-375000,-375000,-172957.4,-144739.7,0.03,0.00,0.88,-4,0,-2,34,0
'[12:58:02.276 21/01/2026]',-128636.6,-206907.4,-117593.8,-34558.52,-375000,-375000,-172929,-144748,0.03,0.00,0.88,-4,0,-2,34,0
'[12:58:02.280 21/01/2026]',-128587.8,-206851.4,-117533.2,-34531.88,-375000,-375000,-173068.2,-144847.7,0.03,0.00,0.88,-4,0,-2,34,0
'[12:58:02.284 21/01/2026]',-128542.1,-206802.5,-117483.1,-34494.06,-375000,-375000,-173105.8,-144846.9,0.03,0.00,0.88,-4,0,-2,34,0
'[12:58:02.288 21/01/2026]',-128578.2,-206849.3,-117534.9,-34509.08,-375000,-375000,-172968,-144743.7,0.03,0.00,0.88,-4,0,-2,34,0
'[12:58:02.292 21/01/2026]',-128624.9,-206898.1,-117586.2,-34546.86,-375000,-375000,-172903.4,-144715.6,0.03,0.00,0.88,-4,0,-2,34,0
'[12:58:02.296 21/01/2026]',-128596.6,-206863.5,-117546.1,-34539.12,-375000,-375000,-173035.2,-144827.6,0.03,0.00,0.88,-4,0,-2,34,0
'[12:58:02.300 21/01/2026]',-128542,-206803.7,-117487.1,-34500.23,-375000,-375000,-173114.3,-144857.8,0.03,0.00,0.88,-4,0,-2,34,0
'[12:58:02.304 21/01/2026]',-128574.7,-206845.1,-117531.1,-34513.42,-375000,-375000,-173001,-144768.5,0.02,-0.02,0.88,-4,0,-2,34,0
'[12:58:02.308 21/01/2026]',-128632.6,-206905.4,-117592.6,-34554.36,-375000,-375000,-172906.3,-144722.4,0.02,-0.02,0.88,-4,0,-2,34,0
'[12:58:02.312 21/01/2026]',-128614.1,-206886.8,-117564.5,-34552.84,-375000,-375000,-173018.3,-144818.3,0.02,-0.02,0.88,-4,0,-2,34,0
'[12:58:02.316 21/01/2026]',-128541.8,-206810.7,-117484.7,-34502.91,-375000,-375000,-173125.4,-144872.1,0.02,-0.02,0.88,-4,0,-2,34,0
'[12:58:02.320 21/01/2026]',-128551.7,-206829.1,-117507.4,-34496.88,-375000,-375000,-173030.3,-144789,0.02,-0.02,0.88,-4,0,-2,34,0
'[12:58:02.324 21/01/2026]',-128610.5,-206894.4,-117575.1,-34535.1,-375000,-375000,-172909.7,-144716.8,0.02,-0.02,0.88,-4,0,-2,34,0
'[12:58:02.328 21/01/2026]',-128611,-206891.5,-117570,-34548.91,-375000,-375000,-172984.5,-144794.5,0.02,-0.02,0.88,-4,0,-2,34,0
'[12:58:02.332 21/01/2026]',-128545,-206816.9,-117491.8,-34505.46,-375000,-375000,-173116.1,-144869.1,0.02,-0.02,0.88,-4,0,-2,34,0
'[12:58:02.336 21/01/2026]',-128543.5,-206817.6,-117491.2,-34485.75,-375000,-375000,-173046.5,-144799.3,0.02,-0.02,0.88,-4,0,-2,34,0
'[12:58:02.340 21/01/2026]',-128602.2,-206881.4,-117560.3,-34522.09,-375000,-375000,-172906.3,-144711.4,0.03,0.00,0.89,-4,0,-2,34,0
'[12:58:02.344 21/01/2026]',-128619.7,-206898.4,-117575,-34548.69,-375000,-375000,-172955.4,-144777,0.03,0.00,0.89,-4,0,-2,34,0
'[12:58:02.348 21/01/2026]',-128562.4,-206833.4,-117505.5,-34517.08,-375000,-375000,-173111.3,-144876,0.03,0.00,0.89,-4,0,-2,34,0
'[12:58:02.352 21/01/2026]',-128540.5,-206813.6,-117489.2,-34489.99,-375000,-375000,-173080.3,-144826.7,0.03,0.00,0.89,-4,0,-2,34,0
'[12:58:02.356 21/01/2026]',-128600.3,-206879.7,-117559.7,-34524.59,-375000,-375000,-172935.4,-144731.6,0.03,0.00,0.89,-4,0,-2,34,0
'[12:58:02.360 21/01/2026]',-128623.5,-206903.6,-117578.8,-34546.36,-375000,-375000,-172926.7,-144753.3,0.03,0.00,0.89,-4,0,-2,34,0
'[12:58:02.364 21/01/2026]',-128569.8,-206845.6,-117513.8,-34520.26,-375000,-375000,-173078.9,-144859.8,0.03,0.00,0.89,-4,0,-2,34,0
'[12:58:02.368 21/01/2026]',-128533.3,-206804.8,-117473.6,-34482.21,-375000,-375000,-173080.5,-144829.5,0.03,0.00,0.89,-4,0,-2,34,0
'[12:58:02.372 21/01/2026]',-128584.9,-206865.1,-117539.7,-34508.86,-375000,-375000,-172933.8,-144725.5,0.03,0.00,0.89,-4,0,-2,34,0
'[12:58:02.376 21/01/2026]',-128620.2,-206902.7,-117577.9,-34542.43,-375000,-375000,-172899.5,-144723.1,0.02,0.00,0.88,-4,0,-2,34,0
'[12:58:02.380 21/01/2026]',-128575,-206849.1,-117522.5,-34524.28,-375000,-375000,-173046.6,-144832.2,0.02,0.00,0.88,-4,0,-2,34,0
'[12:58:02.384 21/01/2026]',-128529.9,-206799.1,-117473.9,-34485.48,-375000,-375000,-173093.4,-144837,0.02,0.00,0.88,-4,0,-2,34,0
'[12:58:02.388 21/01/2026]',-128573.5,-206849.7,-117527.6,-34502.42,-375000,-375000,-172960.3,-144739.8,0.02,0.00,0.88,-4,0,-2,34,0
'[12:58:02.392 21/01/2026]',-128618.3,-206897.2,-117576.7,-34537.47,-375000,-375000,-172887,-144710.7,0.02,0.00,0.88,-4,0,-2,34,0
'[12:58:02.396 21/01/2026]',-128589.5,-206864,-117539.5,-34532.06,-375000,-375000,-173019.8,-144818.4,0.02,0.00,0.88,-4,0,-2,34,0
'[12:58:02.400 21/01/2026]',-128535.9,-206800.1,-117478.3,-34489.86,-375000,-375000,-173103.2,-144851.6,0.02,0.00,0.88,-4,0,-2,34,0
'[12:58:02.404 21/01/2026]',-128564.1,-206835.2,-117516.8,-34490.26,-375000,-375000,-172980,-144754.9,0.02,0.00,0.88,-4,0,-2,34,0
'[12:58:02.408 21/01/2026]',-128620,-206895.4,-117578.4,-34530.63,-375000,-375000,-172880.5,-144698.3,0.02,0.00,0.88,-4,0,-2,34,0
'[12:58:02.412 21/01/2026]',-128600.3,-206874.8,-117550.8,-34532.95,-375000,-375000,-172987.1,-144789.3,0.02,0.00,0.88,-4,0,-2,34,0
'[12:58:02.416 21/01/2026]',-128536.3,-206804.1,-117477.1,-34486.46,-375000,-375000,-173091,-144838.3,0.02,0.00,0.88,-4,0,-2,34,0
'[12:58:02.420 21/01/2026]',-128550.9,-206824,-117499.9,-34480.43,-375000,-375000,-172994.2,-144756.3,0.02,0.00,0.88,-4,0,-2,34,0
'[12:58:02.424 21/01/2026]',-128617.4,-206898.5,-117574.9,-34530.94,-375000,-375000,-172881.4,-144693.9,0.02,0.00,0.88,-4,0,-2,34,0
'[12:58:02.428 21/01/2026]',-128624.5,-206902.4,-117580.1,-34554.99,-375000,-375000,-172970.1,-144783.4,0.02,0.00,0.88,-4,0,-2,34,0
'[12:58:02.432 21/01/2026]',-128558,-206831.5,-117505.3,-34515.88,-375000,-375000,-173101.8,-144860.8,0.02,0.00,0.88,-4,0,-2,34,0
'[12:58:02.436 21/01/2026]',-128555,-206830.8,-117506.9,-34497.23,-375000,-375000,-173038.6,-144797.2,0.02,0.00,0.88,-4,0,-2,34,0
'[12:58:02.440 21/01/2026]',-128612.8,-206890.6,-117574.4,-34527.95,-375000,-375000,-172890.9,-144701.1,0.02,0.00,0.88,-4,0,-2,34,0
'[12:58:02.444 21/01/2026]',-128624.8,-206905.1,-117584.9,-34550.97,-375000,-375000,-172934.2,-144756.2,0.02,0.00,0.88,-4,0,-2,34,0
'[12:58:02.448 21/01/2026]',-128562,-206838.1,-117510.8,-34516.77,-375000,-375000,-173087.6,-144853,0.03,0.00,0.88,-4,0,-2,34,0
'[12:58:02.452 21/01/2026]',-128546,-206820,-117494,-34489.72,-375000,-375000,-173055.7,-144807.7,0.03,0.00,0.88,-4,0,-2,34,0
'[12:58:02.456 21/01/2026]',-128610.5,-206887.2,-117568.1,-34529.06,-375000,-375000,-172913.3,-144707.6,0.03,0.00,0.88,-4,0,-2,34,0
'[12:58:02.460 21/01/2026]',-128634.2,-206913.7,-117590.2,-34554.99,-375000,-375000,-172911.7,-144728.3,0.03,0.00,0.88,-4,0,-2,34,0
'[12:58:02.464 21/01/2026]',-128581.9,-206858.5,-117529.4,-34532.1,-375000,-375000,-173068.7,-144839.6,0.03,0.00,0.88,-4,0,-2,34,0
'[12:58:02.468 21/01/2026]',-128547.2,-206822.1,-117493.5,-34497.05,-375000,-375000,-173074.9,-144821.5,0.03,0.00,0.88,-4,0,-2,34,0
'[12:58:02.472 21/01/2026]',-128598.2,-206877.3,-117555.3,-34517.84,-375000,-375000,-172928,-144721.9,0.03,0.00,0.88,-4,0,-2,34,0
'[12:58:02.476 21/01/2026]',-128634.7,-206911.8,-117594.6,-34547.88,-375000,-375000,-172891.3,-144720.7,0.03,0.00,0.88,-4,0,-2,34,0
'[12:58:02.480 21/01/2026]',-128600.4,-206869.6,-117547.5,-34535.86,-375000,-375000,-173043.1,-144838.2,0.03,0.00,0.88,-4,0,-2,34,0
'[12:58:02.484 21/01/2026]',-128550.2,-206817.2,-117492.8,-34494.06,-375000,-375000,-173086.1,-144843.1,0.03,0.00,0.88,-4,0,-2,34,0
'[12:58:02.488 21/01/2026]',-128584.2,-206858.7,-117539.1,-34504.03,-375000,-375000,-172946.3,-144738,0.03,0.00,0.88,-4,0,-2,34,0
'[12:58:02.492 21/01/2026]',-128641.7,-206920.4,-117601.6,-34551.64,-375000,-375000,-172884.8,-144717.3,0.03,0.00,0.88,-4,0,-2,34,0
'[12:58:02.496 21/01/2026]',-128615.5,-206891.6,-117569.4,-34551.23,-375000,-375000,-173020.7,-144828.4,0.03,0.00,0.88,-4,0,-2,34,0
'[12:58:02.500 21/01/2026]',-128562.8,-206835.3,-117506.2,-34512.61,-375000,-375000,-173105.5,-144863.7,0.03,0.00,0.88,-4,0,-2,34,0
'[12:58:02.504 21/01/2026]',-128586.3,-206865,-117537,-34513.02,-375000,-375000,-172982.2,-144765.4,0.03,0.00,0.88,-4,0,-2,34,0
'[12:58:02.508 21/01/2026]',-128638.7,-206922.9,-117596.7,-34554.19,-375000,-375000,-172885.9,-144715.5,0.03,0.00,0.88,-4,0,-2,34,0
'[12:58:02.512 21/01/2026]',-128631.4,-206914,-117580.1,-34561.2,-375000,-375000,-172992.3,-144814.2,0.03,0.00,0.88,-4,0,-2,34,0
'[12:58:02.516 21/01/2026]',-128572.7,-206848.7,-117512.2,-34522.13,-375000,-375000,-173110.8,-144880.3,0.03,0.00,0.88,-4,0,-2,34,0
'[12:58:02.520 21/01/2026]',-128582.9,-206858.2,-117529.7,-34513.19,-375000,-375000,-173018.4,-144798.4,0.03,0.00,0.89,-4,0,-2,34,0
'[12:58:02.524 21/01/2026]',-128644,-206922.4,-117599.8,-34552.4,-375000,-375000,-172893.2,-144719.9,0.03,0.00,0.89,-4,0,-2,34,0
'[12:58:02.528 21/01/2026]',-128644,-206924,-117599.6,-34568.71,-375000,-375000,-172970.4,-144799.7,0.03,0.00,0.89,-4,0,-2,34,0
'[12:58:02.532 21/01/2026]',-128580.2,-206855.5,-117525.4,-34531.07,-375000,-375000,-173109.7,-144882.8,0.03,0.00,0.89,-4,0,-2,34,0
'[12:58:02.536 21/01/2026]',-128578.3,-206851.3,-117526.1,-34512.25,-375000,-375000,-173047.6,-144818.8,0.03,0.00,0.89,-4,0,-2,34,0
'[12:58:02.540 21/01/2026]',-128639.8,-206915.3,-117599.3,-34551.68,-375000,-375000,-172914.4,-144732.5,0.03,0.00,0.89,-4,0,-2,34,0
'[12:58:02.544 21/01/2026]',-128648.2,-206925.6,-117605.1,-34569.03,-375000,-375000,-172947.2,-144776.9,0.03,0.00,0.89,-4,0,-2,34,0
'[12:58:02.548 21/01/2026]',-128587.9,-206862.2,-117535.8,-34539.34,-375000,-375000,-173104.3,-144879,0.03,0.00,0.89,-4,0,-2,34,0
'[12:58:02.552 21/01/2026]',-128566.7,-206840.8,-117517.5,-34509.84,-375000,-375000,-173074.9,-144833.8,0.03,0.00,0.89,-4,0,-2,34,0
'[12:58:02.556 21/01/2026]',-128632.8,-206909.4,-117592.4,-34544.89,-375000,-375000,-172932.6,-144739.1,0.02,0.00,0.88,-4,0,-2,34,0
'[12:58:02.560 21/01/2026]',-128658.1,-206935.2,-117616.4,-34575.42,-375000,-375000,-172936.8,-144768.1,0.02,0.00,0.88,-4,0,-2,34,0
'[12:58:02.564 21/01/2026]',-128611.8,-206882,-117556,-34556.91,-375000,-375000,-173101.1,-144886.1,0.02,0.00,0.88,-4,0,-2,34,0
'[12:58:02.568 21/01/2026]',-128574.6,-206840,-117516.1,-34517.75,-375000,-375000,-173107.4,-144861.3,0.02,0.00,0.88,-4,0,-2,34,0
'[12:58:02.572 21/01/2026]',-128617.8,-206893.3,-117573.5,-34538.41,-375000,-375000,-172955.8,-144752.2,0.02,0.00,0.88,-4,0,-2,34,0
'[12:58:02.576 21/01/2026]',-128652.4,-206934,-117614.2,-34573.9,-375000,-375000,-172917.4,-144746.9,0.02,0.00,0.88,-4,0,-2,34,0
'[12:58:02.580 21/01/2026]',-128615.1,-206888.2,-117564.5,-34558.12,-375000,-375000,-173066.8,-144858.5,0.02,0.00,0.88,-4,0,-2,34,0
'[12:58:02.584 21/01/2026]',-128566.2,-206833.4,-117507.4,-34514.27,-375000,-375000,-173113.1,-144860.8,0.02,0.00,0.88,-4,0,-2,34,0
'[12:58:02.588 21/01/2026]',-128600,-206873.8,-117552.4,-34523.7,-375000,-375000,-172971.6,-144754.5,0.02,0.00,0.88,-4,0,-2,34,0
'[12:58:02.592 21/01/2026]',-128647.6,-206924.8,-117605.1,-34561.12,-375000,-375000,-172895.3,-144720.8,0.03,0.00,0.88,-4,0,-2,34,0
'[12:58:02.596 21/01/2026]',-128622.4,-206896.4,-117575.6,-34560.67,-375000,-375000,-173030.4,-144836,0.03,0.00,0.88,-4,0,-2,34,0
'[12:58:02.600 21/01/2026]',-128570.9,-206839.1,-117516.8,-34525.04,-375000,-375000,-173124,-144879.4,0.03,0.00,0.88,-4,0,-2,34,0
'[12:58:02.604 21/01/2026]',-128608.4,-206879.1,-117561.2,-34539.21,-375000,-375000,-173026.5,-144802.1,0.03,0.00,0.88,-4,0,-2,34,0
'[12:58:02.608 21/01/2026]',-128674.6,-206952.2,-117634.2,-34588.61,-375000,-375000,-172927.6,-144753.3,0.03,0.00,0.88,-4,0,-2,34,0
'[12:58:02.612 21/01/2026]',-128670.7,-206955.5,-117624.8,-34608.73,-375000,-375000,-173047.3,-144860.2,0.03,0.00,0.88,-4,0,-2,34,0
'[12:58:02.616 21/01/2026]',-128608.6,-206890.2,-117552,-34567.78,-375000,-375000,-173161.6,-144920.9,0.03,0.00,0.88,-4,0,-2,34,0
'[12:58:02.620 21/01/2026]',-128613.9,-206899.1,-117567.2,-34555.3,-375000,-375000,-173062.8,-144832.9,0.03,0.00,0.88,-4,0,-2,34,0
'[12:58:02.624 21/01/2026]',-128676.1,-206964.4,-117637.1,-34597.01,-375000,-375000,-172944,-144759.7,0.03,0.00,0.88,-4,0,-2,34,0
'[12:58:02.628 21/01/2026]',-128678.5,-206966.9,-117634.4,-34611.77,-375000,-375000,-173016.2,-144835.6,0.02,-0.02,0.88,-4,0,-2,34,0
'[12:58:02.632 21/01/2026]',-128613.1,-206896.1,-117558.2,-34570.41,-375000,-375000,-173153.2,-144915,0.02,-0.02,0.88,-4,0,-2,34,0
'[12:58:02.636 21/01/2026]',-128612.2,-206888.3,-117559.1,-34550.03,-375000,-375000,-173093.4,-144850.3,0.02,-0.02,0.88,-4,0,-2,34,0
'[12:58:02.640 21/01/2026]',-128675.2,-206956.8,-117633.5,-34589.01,-375000,-375000,-172953,-144760.6,0.02,-0.02,0.88,-4,0,-2,34,0
'[12:58:02.644 21/01/2026]',-128685.3,-206969.9,-117647.1,-34612.26,-375000,-375000,-172988.2,-144810.5,0.02,-0.02,0.88,-4,0,-2,34,0
'[12:58:02.648 21/01/2026]',-128633,-206909.2,-117580.3,-34587.36,-375000,-375000,-173148.5,-144918.5,0.02,-0.02,0.88,-4,0,-2,34,0
'[12:58:02.652 21/01/2026]',-128615.4,-206887.2,-117560,-34557.85,-375000,-375000,-173121.9,-144878.9,0.02,-0.02,0.88,-4,0,-2,34,0
'[12:58:02.656 21/01/2026]',-128669,-206945.7,-117624.4,-34585.25,-375000,-375000,-172971.4,-144773.9,0.02,-0.02,0.88,-4,0,-2,34,0
'[12:58:02.660 21/01/2026]',-128703.2,-206980.3,-117659.5,-34623.75,-375000,-375000,-172979.2,-144806.4,0.02,-0.02,0.88,-4,0,-2,34,0
'[12:58:02.664 21/01/2026]',-128647.3,-206922,-117595.4,-34602.11,-375000,-375000,-173140.1,-144919.5,0.02,0.00,0.88,-4,0,-2,34,0
'[12:58:02.668 21/01/2026]',-128607.1,-206884.8,-117553.9,-34561.96,-375000,-375000,-173143.2,-144893.6,0.02,0.00,0.88,-4,0,-2,34,0
'[12:58:02.672 21/01/2026]',-128666,-206948.3,-117624.5,-34592.54,-375000,-375000,-173005.8,-144796.3,0.02,0.00,0.88,-4,0,-2,34,0
'[12:58:02.676 21/01/2026]',-128702.1,-206985.3,-117664.2,-34621.78,-375000,-375000,-172962.8,-144783.5,0.02,0.00,0.88,-4,0,-2,34,0
'[12:58:02.680 21/01/2026]',-128657.5,-206932.1,-117611.6,-34603.94,-375000,-375000,-173107.8,-144893.8,0.02,0.00,0.88,-4,0,-2,34,0
'[12:58:02.684 21/01/2026]',-128610.2,-206882.4,-117556.2,-34563.98,-375000,-375000,-173160.8,-144903.8,0.02,0.00,0.88,-4,0,-2,34,0
'[12:58:02.688 21/01/2026]',-128656.1,-206936.2,-117611,-34581.77,-375000,-375000,-173028.8,-144809.5,0.02,0.00,0.88,-4,0,-2,34,0
'[12:58:02.692 21/01/2026]',-128705.9,-206991.9,-117671.3,-34625.4,-375000,-375000,-172955.2,-144780.6,0.02,0.00,0.88,-4,0,-2,34,0
'[12:58:02.696 21/01/2026]',-128678.7,-206960.7,-117635.3,-34620.21,-375000,-375000,-173078.4,-144885.3,0.02,0.00,0.88,-4,0,-2,34,0
'[12:58:02.700 21/01/2026]',-128621.1,-206892.6,-117566.3,-34576.85,-375000,-375000,-173175.3,-144927.8,0.02,0.02,0.88,-4,0,-2,34,0
'[12:58:02.704 21/01/2026]',-128653.1,-206926.5,-117606.9,-34580.25,-375000,-375000,-173059.8,-144838.2,0.02,0.02,0.88,-4,0,-2,34,0
'[12:58:02.708 21/01/2026]',-128712.6,-206989.5,-117672.6,-34624.95,-375000,-375000,-172963.1,-144786.2,0.02,0.02,0.88,-4,0,-2,34,0
'[12:58:02.712 21/01/2026]',-128701.7,-206978.2,-117653.4,-34633.31,-375000,-375000,-173068.3,-144881.8,0.02,0.02,0.88,-4,0,-2,34,0
'[12:58:02.716 21/01/2026]',-128639.8,-206911.2,-117581.3,-34595.58,-375000,-375000,-173188.3,-144945.7,0.02,0.02,0.88,-4,0,-2,34,0
'[12:58:02.720 21/01/2026]',-128649,-206922.3,-117599.5,-34588.16,-375000,-375000,-173098.4,-144867.2,0.02,0.02,0.88,-4,0,-2,34,0
'[12:58:02.724 21/01/2026]',-128705.4,-206991.9,-117670.4,-34628.04,-375000,-375000,-172971.3,-144791.8,0.02,0.02,0.88,-4,0,-2,34,0
'[12:58:02.728 21/01/2026]',-128708.8,-206994.5,-117667.5,-34643.06,-375000,-375000,-173038.5,-144863.9,0.02,0.02,0.88,-4,0,-2,34,0
'[12:58:02.732 21/01/2026]',-128649.1,-206925.1,-117594.1,-34604.7,-375000,-375000,-173174.5,-144945.3,0.02,0.02,0.88,-4,0,-2,34,0
'[12:58:02.736 21/01/2026]',-128640.5,-206917.1,-117590.2,-34583.69,-375000,-375000,-173120.6,-144886,0.03,0.00,0.88,-4,0,-2,34,0
'[12:58:02.740 21/01/2026]',-128706.8,-206990.4,-117664.5,-34621.15,-375000,-375000,-172980.5,-144794.6,0.03,0.00,0.88,-4,0,-2,34,0
'[12:58:02.744 21/01/2026]',-128721.8,-207009.2,-117681.5,-34644.75,-375000,-375000,-173010.5,-144844.1,0.03,0.00,0.88,-4,0,-2,34,0
'[12:58:02.748 21/01/2026]',-128660.5,-206940,-117611.4,-34613.06,-375000,-375000,-173167.5,-144950.1,0.03,0.00,0.88,-4,0,-2,34,0
'[12:58:02.752 21/01/2026]',-128641.8,-206913.6,-117589,-34581.32,-375000,-375000,-173144,-144907.3,0.03,0.00,0.88,-4,0,-2,34,0
'[12:58:02.756 21/01/2026]',-128699.1,-206976.4,-117659,-34615.92,-375000,-375000,-173001.7,-144809.4,0.03,0.00,0.88,-4,0,-2,34,0
'[12:58:02.760 21/01/2026]',-128726.6,-207003.9,-117687.8,-34646.14,-375000,-375000,-172999.1,-144832.4,0.03,0.00,0.88,-4,0,-2,34,0
'[12:58:02.764 21/01/2026]',-128672.3,-206946.2,-117621.7,-34618.47,-375000,-375000,-173151.2,-144939.6,0.03,0.00,0.88,-4,0,-2,34,0
'[12:58:02.768 21/01/2026]',-128632.2,-206907.9,-117579.9,-34578.95,-375000,-375000,-173159.2,-144919.5,0.03,0.00,0.88,-4,0,-2,34,0
'[12:58:02.772 21/01/2026]',-128686.4,-206969.1,-117644.8,-34606.94,-375000,-375000,-173016.7,-144820.5,0.03,0.00,0.88,-4,0,-2,34,0
'[12:58:02.776 21/01/2026]',-128731.3,-207019.6,-117693.3,-34648.51,-375000,-375000,-172976.6,-144817,0.03,0.00,0.88,-4,0,-2,34,0
'[12:58:02.780 21/01/2026]',-128691.6,-206976.3,-117644.2,-34635.68,-375000,-375000,-173124.5,-144934.6,0.03,0.00,0.88,-4,0,-2,34,0
'[12:58:02.784 21/01/2026]',-128641.3,-206916.6,-117585.5,-34589.41,-375000,-375000,-173175.8,-144942.5,0.03,0.00,0.88,-4,0,-2,34,0
'[12:58:02.788 21/01/2026]',-128678.4,-206956.1,-117634.3,-34598.75,-375000,-375000,-173041.6,-144841.6,0.03,0.00,0.88,-4,0,-2,34,0
'[12:58:02.792 21/01/2026]',-128726.8,-207009.7,-117693,-34638.63,-375000,-375000,-172967,-144807.7,0.03,0.00,0.88,-4,0,-2,34,0
'[12:58:02.796 21/01/2026]',-128702.5,-206979.3,-117660.7,-34636.39,-375000,-375000,-173093.4,-144913,0.03,0.00,0.88,-4,0,-2,34,0
'[12:58:02.800 21/01/2026]',-128645.3,-206911.7,-117587.6,-34592.86,-375000,-375000,-173186.8,-144951.4,0.03,0.00,0.88,-4,0,-2,34,0
'[12:58:02.804 21/01/2026]',-128675.2,-206940.1,-117622.9,-34596.12,-375000,-375000,-173076.3,-144858.1,0.03,0.00,0.88,-4,0,-2,34,0
'[12:58:02.808 21/01/2026]',-128731.1,-207006.7,-117691.2,-34641.58,-375000,-375000,-172977.3,-144804.8,0.02,0.00,0.89,-4,0,-2,34,0
'[12:58:02.812 21/01/2026]',-128720.3,-207000.4,-117677.5,-34654.99,-375000,-375000,-173090.1,-144905.5,0.02,0.00,0.89,-4,0,-2,34,0
'[12:58:02.816 21/01/2026]',-128658.8,-206933.4,-117606.3,-34614.76,-375000,-375000,-173210.4,-144972.1,0.02,0.00,0.89,-4,0,-2,34,0
'[12:58:02.820 21/01/2026]',-128671.1,-206946.3,-117624.6,-34605.46,-375000,-375000,-173118.8,-144894.1,0.02,0.00,0.89,-4,0,-2,34,0
'[12:58:02.824 21/01/2026]',-128730.3,-207007.7,-117691.7,-34643.41,-375000,-375000,-172990.3,-144807.7,0.02,0.00,0.89,-4,0,-2,34,0
'[12:58:02.828 21/01/2026]',-128730.3,-207009.1,-117689.6,-34659.24,-375000,-375000,-173054.2,-144876.7,0.02,0.00,0.89,-4,0,-2,34,0
'[12:58:02.832 21/01/2026]',-128672.4,-206944.9,-117615.9,-34624.82,-375000,-375000,-173197.1,-144966.3,0.02,0.00,0.89,-4,0,-2,34,0
'[12:58:02.836 21/01/2026]',-128669.2,-206941,-117617.6,-34601.8,-375000,-375000,-173135.9,-144903.9,0.02,0.00,0.89,-4,0,-2,34,0
'[12:58:02.840 21/01/2026]',-128732.1,-207012.8,-117694.2,-34642.48,-375000,-375000,-173001,-144818.1,0.02,0.00,0.89,-4,0,-2,34,0
'[12:58:02.844 21/01/2026]',-128753.7,-207031.8,-117713.4,-34665.95,-375000,-375000,-173026.2,-144860.3,0.03,0.00,0.89,-4,0,-2,34,0
'[12:58:02.848 21/01/2026]',-128704.1,-206971.9,-117648.1,-34638.45,-375000,-375000,-173182,-144964.9,0.03,0.00,0.89,-4,0,-2,34,0
'[12:58:02.852 21/01/2026]',-128677.2,-206943.7,-117620,-34607.43,-375000,-375000,-173165.6,-144929,0.03,0.00,0.89,-4,0,-2,34,0
'[12:58:02.856 21/01/2026]',-128728.9,-207007.5,-117687.7,-34638.59,-375000,-375000,-173021.4,-144830.7,0.03,0.00,0.89,-4,0,-2,34,0
'[12:58:02.860 21/01/2026]',-128762.1,-207044.7,-117724.4,-34679.22,-375000,-375000,-173017,-144855.9,0.03,0.00,0.89,-4,0,-2,34,0
'[12:58:02.864 21/01/2026]',-128718.3,-206996.8,-117669.1,-34666.17,-375000,-375000,-173180.2,-144974.3,0.03,0.00,0.89,-4,0,-2,34,0
'[12:58:02.868 21/01/2026]',-128683.2,-206959,-117628.5,-34630.68,-375000,-375000,-173204.1,-144963.5,0.03,0.00,0.89,-4,0,-2,34,0
'[12:58:02.872 21/01/2026]',-128737,-207016.1,-117691.2,-34653.2,-375000,-375000,-173061.6,-144857,0.03,0.00,0.89,-4,0,-2,34,0
'[12:58:02.876 21/01/2026]',-128779.1,-207059.9,-117735.7,-34689.14,-375000,-375000,-173015.9,-144847,0.03,0.00,0.89,-4,0,-2,34,0
'[12:58:02.880 21/01/2026]',-128745.6,-207023.2,-117693.9,-34682.17,-375000,-375000,-173170.5,-144969.4,0.03,0.00,0.89,-4,0,-2,34,0
'[12:58:02.884 21/01/2026]',-128692.8,-206966.9,-117635.4,-34637.16,-375000,-375000,-173225.7,-144984.8,0.03,0.00,0.89,-4,0,-2,34,0
'[12:58:02.888 21/01/2026]',-128730.1,-207008.1,-117682.8,-34647.26,-375000,-375000,-173090.3,-144881,0.03,0.00,0.89,-4,0,-2,34,0
'[12:58:02.892 21/01/2026]',-128783.1,-207066.4,-117743.7,-34691.61,-375000,-375000,-173012.8,-144847,0.03,0.00,0.89,-4,0,-2,34,0
'[12:58:02.896 21/01/2026]',-128756.7,-207032.5,-117710.4,-34687.05,-375000,-375000,-173137.7,-144952.4,0.03,0.00,0.89,-4,0,-2,34,0
'[12:58:02.900 21/01/2026]',-128702.2,-206968.1,-117644.2,-34644.27,-375000,-375000,-173228.3,-144991.9,0.03,0.00,0.89,-4,0,-2,34,0
'[12:58:02.904 21/01/2026]',-128726.2,-206997.8,-117675.5,-34647.26,-375000,-375000,-173125.6,-144911.6,0.03,0.00,0.89,-4,0,-2,34,0
'[12:58:02.908 21/01/2026]',-128783.8,-207062.6,-117741.2,-34689.46,-375000,-375000,-173019.2,-144853.5,0.03,0.00,0.89,-4,0,-2,34,0
'[12:58:02.912 21/01/2026]',-128773.6,-207052.5,-117728.7,-34698.4,-375000,-375000,-173116.4,-144945.3,0.03,0.00,0.89,-4,0,-2,34,0
'[12:58:02.916 21/01/2026]',-128712.7,-206986.5,-117658.6,-34660,-375000,-375000,-173232.6,-145009.4,0.02,0.00,0.86,-4,0,-2,34,0
'[12:58:02.920 21/01/2026]',-128726.8,-207003.5,-117677.2,-34656.65,-375000,-375000,-173154.7,-144939.2,0.02,0.00,0.86,-4,0,-2,34,0
'[12:58:02.924 21/01/2026]',-128791.3,-207072.5,-117750,-34701.53,-375000,-375000,-173037.2,-144868.3,0.02,0.00,0.86,-4,0,-2,34,0
'[12:58:02.928 21/01/2026]',-128796.2,-207076.3,-117752.1,-34716.95,-375000,-375000,-173095.9,-144934.5,0.02,0.00,0.86,-4,0,-2,34,0
'[12:58:02.932 21/01/2026]',-128728,-207004.5,-117672.8,-34676,-375000,-375000,-173230.1,-145016,0.02,0.00,0.86,-4,0,-2,34,0
'[12:58:02.936 21/01/2026]',-128724.5,-207000.9,-117672.1,-34657.36,-375000,-375000,-173177.6,-144955.9,0.02,0.00,0.86,-4,0,-2,34,0
'[12:58:02.940 21/01/2026]',-128784.1,-207064.9,-117743.9,-34692.14,-375000,-375000,-173036.4,-144860.8,0.02,0.00,0.86,-4,0,-2,34,0
'[12:58:02.944 21/01/2026]',-128799.3,-207084.8,-117760.3,-34717.31,-375000,-375000,-173067.3,-144908.5,0.02,0.00,0.86,-4,0,-2,34,0
'[12:58:02.948 21/01/2026]',-128746.4,-207024.7,-117695,-34688.97,-375000,-375000,-173221.7,-145014.4,0.02,0.00,0.86,-4,0,-2,34,0
'[12:58:02.952 21/01/2026]',-128723.8,-206997.9,-117669.9,-34658.7,-375000,-375000,-173206.7,-144979.9,0.02,0.00,0.88,-4,0,-2,34,0
'[12:58:02.956 21/01/2026]',-128779.2,-207060.3,-117736.4,-34688.07,-375000,-375000,-173068.3,-144885.7,0.02,0.00,0.88,-4,0,-2,34,0
'[12:58:02.960 21/01/2026]',-128811.4,-207096.6,-117769.8,-34718.92,-375000,-375000,-173057.5,-144903.3,0.02,0.00,0.88,-4,0,-2,34,0
'[12:58:02.964 21/01/2026]',-128762.1,-207041.7,-117710.3,-34698.13,-375000,-375000,-173209.4,-145010.8,0.02,0.00,0.88,-4,0,-2,34,0
'[12:58:02.968 21/01/2026]',-128720.8,-206997.1,-117665.5,-34661.48,-375000,-375000,-173233.7,-144996.5,0.02,0.00,0.88,-4,0,-2,34,0
'[12:58:02.972 21/01/2026]',-128771.8,-207054.9,-117726.1,-34684.99,-375000,-375000,-173095.7,-144900.2,0.02,0.00,0.88,-4,0,-2,34,0
'[12:58:02.976 21/01/2026]',-128808.8,-207095.7,-117769.1,-34718.65,-375000,-375000,-173043.3,-144887.7,0.02,0.00,0.88,-4,0,-2,34,0
'[12:58:02.980 21/01/2026]',-128772.4,-207053.3,-117724.3,-34708.55,-375000,-375000,-173188.5,-144999.8,0.02,0.00,0.88,-4,0,-2,34,0
'[12:58:02.984 21/01/2026]',-128727,-207000.7,-117671.7,-34671.8,-375000,-375000,-173253.6,-145018.3,0.02,0.00,0.88,-4,0,-2,34,0
'[12:58:02.988 21/01/2026]',-128769.7,-207051,-117724.7,-34688.43,-375000,-375000,-173123.1,-144922.5,0.03,-0.02,0.86,-4,0,0,34,0
'[12:58:02.992 21/01/2026]',-128818.4,-207106.5,-117779.3,-34728.53,-375000,-375000,-173042.1,-144881.4,0.03,-0.02,0.86,-4,0,0,34,0
'[12:58:02.996 21/01/2026]',-128793.5,-207080.3,-117750.1,-34728.66,-375000,-375000,-173168.5,-144989.9,0.03,-0.02,0.86,-4,0,0,34,0
'[12:58:03.000 21/01/2026]',-128739.8,-207018.7,-117685.5,-34690.09,-375000,-375000,-173269.5,-145035.6,0.03,-0.02,0.86,-4,0,0,34,0
'[12:58:03.004 21/01/2026]',-128764.7,-207046.8,-117717.9,-34689.73,-375000,-375000,-173161.8,-144946.9,0.03,-0.02,0.86,-4,0,0,34,0
'[12:58:03.008 21/01/2026]',-128818.3,-207108.2,-117782.4,-34729.38,-375000,-375000,-173055.1,-144887.6,0.03,-0.02,0.86,-4,0,0,34,0
'[12:58:03.012 21/01/2026]',-128807.4,-207096.1,-117766.1,-34734.52,-375000,-375000,-173145.5,-144978.1,0.03,-0.02,0.86,-4,0,0,34,0
'[12:58:03.016 21/01/2026]',-128747.3,-207028.4,-117696.5,-34695.23,-375000,-375000,-173268.8,-145046.2,0.03,-0.02,0.86,-4,0,0,34,0
'[12:58:03.020 21/01/2026]',-128751,-207033.1,-117705,-34677.84,-375000,-375000,-173176.3,-144962.4,0.03,-0.02,0.86,-4,0,0,34,0
'[12:58:03.024 21/01/2026]',-128811.5,-207099.1,-117776.2,-34719.95,-375000,-375000,-173053,-144886.7,0.02,0.00,0.88,-4,0,-2,34,0
'[12:58:03.028 21/01/2026]',-128816.6,-207107.5,-117778.9,-34737.16,-375000,-375000,-173107.5,-144947.8,0.02,0.00,0.88,-4,0,-2,34,0
'[12:58:03.032 21/01/2026]',-128763.4,-207047.2,-117713.7,-34708.86,-375000,-375000,-173251.8,-145040.2,0.02,0.00,0.88,-4,0,-2,34,0
'[12:58:03.036 21/01/2026]',-128757.5,-207043.8,-117712.4,-34694.11,-375000,-375000,-173209.1,-144991.5,0.02,0.00,0.88,-4,0,-2,34,0
'[12:58:03.040 21/01/2026]',-128812.5,-207104.6,-117779.4,-34725.98,-375000,-375000,-173069.3,-144897.5,0.02,0.00,0.88,-4,0,-2,34,0
'[12:58:03.044 21/01/2026]',-128826.1,-207116.1,-117794.2,-34747.3,-375000,-375000,-173091.4,-144936,0.02,0.00,0.88,-4,0,-2,34,0
'[12:58:03.048 21/01/2026]',-128774.2,-207056.3,-117729.6,-34721.33,-375000,-375000,-173248,-145042.2,0.02,0.00,0.88,-4,0,-2,34,0
'[12:58:03.052 21/01/2026]',-128749,-207028.3,-117704.4,-34691.88,-375000,-375000,-173238.8,-145010.2,0.02,0.00,0.88,-4,0,-2,34,0
'[12:58:03.056 21/01/2026]',-128810.3,-207093.2,-117775,-34724.15,-375000,-375000,-173099.7,-144915.6,0.02,0.00,0.88,-4,0,-2,34,0
'[12:58:03.060 21/01/2026]',-128836.7,-207129,-117803,-34751.82,-375000,-375000,-173081.9,-144926,0.02,0.00,0.89,-4,0,-2,34,0
'[12:58:03.064 21/01/2026]',-128788.7,-207077.5,-117745.1,-34735.01,-375000,-375000,-173238.5,-145041,0.02,0.00,0.89,-4,0,-2,34,0
'[12:58:03.068 21/01/2026]',-128757.6,-207036.6,-117705.9,-34704.08,-375000,-375000,-173270.6,-145039.7,0.02,0.00,0.89,-4,0,-2,34,0
'[12:58:03.072 21/01/2026]',-128806.3,-207093.9,-117765.3,-34726.83,-375000,-375000,-173132.8,-144938.8,0.02,0.00,0.89,-4,0,-2,34,0
'[12:58:03.076 21/01/2026]',-128840.6,-207135.7,-117809.9,-34761.66,-375000,-375000,-173082.5,-144922.8,0.02,0.00,0.89,-4,0,-2,34,0
'[12:58:03.080 21/01/2026]',-128802.9,-207093.6,-117766,-34750.43,-375000,-375000,-173222.4,-145031.5,0.02,0.00,0.89,-4,0,-2,34,0
'[12:58:03.084 21/01/2026]',-128758.1,-207038.6,-117711.9,-34708.1,-375000,-375000,-173285,-145046.4,0.02,0.00,0.89,-4,0,-2,34,0
'[12:58:03.088 21/01/2026]',-128795.8,-207081.5,-117758.5,-34720.39,-375000,-375000,-173165,-144953.9,0.02,0.00,0.89,-4,0,-2,34,0
'[12:58:03.092 21/01/2026]',-128845,-207135.2,-117812.8,-34758.93,-375000,-375000,-173084.9,-144915.9,0.02,0.00,0.89,-4,0,-2,34,0
'[12:58:03.096 21/01/2026]',-128825.4,-207109.8,-117781.2,-34758.39,-375000,-375000,-173205.5,-145020.8,0.02,0.00,0.88,-4,0,-2,34,0
'[12:58:03.100 21/01/2026]',-128775,-207054.8,-117718.7,-34725.13,-375000,-375000,-173313.7,-145074.2,0.02,0.00,0.88,-4,0,-2,34,0
'[12:58:03.104 21/01/2026]',-128793.8,-207081.3,-117748.6,-34723.66,-375000,-375000,-173204.4,-144986.9,0.02,0.00,0.88,-4,0,-2,34,0
'[12:58:03.108 21/01/2026]',-128845.7,-207139.4,-117813.1,-34760.89,-375000,-375000,-173090.8,-144921.6,0.02,0.00,0.88,-4,0,-2,34,0
'[12:58:03.112 21/01/2026]',-128835.4,-207126.3,-117798.3,-34766.8,-375000,-375000,-173180.1,-145004.3,0.02,0.00,0.88,-4,0,-2,34,0
'[12:58:03.116 21/01/2026]',-128769.1,-207049.8,-117720.4,-34721.96,-375000,-375000,-173300.8,-145068.6,0.02,0.00,0.88,-4,0,-2,34,0
'[12:58:03.120 21/01/2026]',-128780.6,-207061.6,-117738.8,-34715.52,-375000,-375000,-173227.1,-145001.9,0.02,0.00,0.88,-4,0,-2,34,0
'[12:58:03.124 21/01/2026]',-128844.3,-207132.1,-117812.6,-34757.09,-375000,-375000,-173096.9,-144919.5,0.02,0.00,0.88,-4,0,-2,34,0
'[12:58:03.128 21/01/2026]',-128851.5,-207140.1,-117820,-34776.41,-375000,-375000,-173156.7,-144987.5,0.02,0.00,0.88,-4,0,-2,34,0
'[12:58:03.132 21/01/2026]',-128792,-207072,-117748.2,-34743.59,-375000,-375000,-173305.5,-145081.7,0.02,0.00,0.88,-4,0,-2,34,0
'[12:58:03.136 21/01/2026]',-128784.4,-207062.6,-117738.1,-34719.72,-375000,-375000,-173259.6,-145024.3,0.02,0.00,0.88,-4,0,-2,34,0
'[12:58:03.140 21/01/2026]',-128851,-207135.5,-117813.8,-34760.18,-375000,-375000,-173122.6,-144938.4,0.02,0.00,0.88,-4,0,-2,34,0
'[12:58:03.144 21/01/2026]',-128874.1,-207160.8,-117836.5,-34790.67,-375000,-375000,-173143.8,-144982,0.02,0.00,0.88,-4,0,-2,34,0
'[12:58:03.148 21/01/2026]',-128819.2,-207101.8,-117771.2,-34767.82,-375000,-375000,-173302.4,-145090.4,0.02,0.00,0.88,-4,0,-2,34,0
'[12:58:03.152 21/01/2026]',-128788.6,-207071.9,-117742.7,-34736.13,-375000,-375000,-173292.8,-145058.5,0.02,0.00,0.88,-4,0,-2,34,0
'[12:58:03.156 21/01/2026]',-128841.8,-207138.8,-117808.5,-34769.21,-375000,-375000,-173149.7,-144961.2,0.02,0.00,0.88,-4,0,-2,34,0
'[12:58:03.160 21/01/2026]',-128876.3,-207175,-117843.1,-34803.72,-375000,-375000,-173134,-144974.8,0.02,0.00,0.88,-4,0,-2,34,0
'[12:58:03.164 21/01/2026]',-128831,-207122.3,-117786.5,-34781.64,-375000,-375000,-173287.9,-145092.2,0.02,0.00,0.88,-4,0,-2,34,0
'[12:58:03.168 21/01/2026]',-128792.9,-207079.7,-117746.3,-34745.25,-375000,-375000,-173317.8,-145085.9,0.02,0.00,0.88,-4,0,-2,34,0
'[12:58:03.172 21/01/2026]',-128848.7,-207139.3,-117810.9,-34770.02,-375000,-375000,-173182.2,-144988.5,0.02,0.00,0.88,-4,0,-2,34,0
'[12:58:03.176 21/01/2026]',-128895.4,-207187,-117860.9,-34810.65,-375000,-375000,-173136.7,-144977.7,0.02,0.00,0.88,-4,0,-2,34,0
'[12:58:03.180 21/01/2026]',-128856.5,-207146.6,-117814.4,-34800.59,-375000,-375000,-173277.7,-145089.6,0.02,0.00,0.88,-4,0,-2,34,0
'[12:58:03.184 21/01/2026]',-128801.5,-207087.9,-117751.8,-34759.02,-375000,-375000,-173343.2,-145106.2,0.02,0.00,0.88,-4,0,-2,34,0
'[12:58:03.188 21/01/2026]',-128839.5,-207132.8,-117800.7,-34772.88,-375000,-375000,-173220,-145010.1,0.02,0.00,0.88,-4,0,-2,34,0
'[12:58:03.192 21/01/2026]',-128893.8,-207189.7,-117858.4,-34810.88,-375000,-375000,-173134,-144969.9,0.02,0.00,0.88,-4,0,-2,34,0
'[12:58:03.196 21/01/2026]',-128869.2,-207163.7,-117828.6,-34809.49,-375000,-375000,-173253.3,-145075.5,0.02,0.00,0.88,-4,0,-2,34,0
'[12:58:03.200 21/01/2026]',-128810.8,-207098,-117764.5,-34768.41,-375000,-375000,-173355.8,-145121,0.02,0.00,0.88,-4,0,-2,34,0
'[12:58:03.204 21/01/2026]',-128834.6,-207125.5,-117798.3,-34767.64,-375000,-375000,-173249,-145031.5,0.03,0.00,0.88,-4,0,-2,34,0
'[12:58:03.208 21/01/2026]',-128894.1,-207188.4,-117863,-34805.73,-375000,-375000,-173130.4,-144965.9,0.03,0.00,0.88,-4,0,-2,34,0
'[12:58:03.212 21/01/2026]',-128882,-207172.1,-117843,-34811.45,-375000,-375000,-173221,-145050.5,0.03,0.00,0.88,-4,0,-2,34,0
'[12:58:03.216 21/01/2026]',-128816.1,-207097.3,-117768.6,-34766.39,-375000,-375000,-173336.5,-145113.2,0.03,0.00,0.88,-4,0,-2,34,0
'[12:58:03.220 21/01/2026]',-128816,-207097.8,-117774.4,-34749.09,-375000,-375000,-173255.6,-145037.8,0.03,0.00,0.88,-4,0,-2,34,0
'[12:58:03.224 21/01/2026]',-128866,-207154.2,-117836.5,-34781.82,-375000,-375000,-173121,-144950.8,0.03,0.00,0.88,-4,0,-2,34,0
'[12:58:03.228 21/01/2026]',-128869.9,-207162.6,-117841.8,-34800.37,-375000,-375000,-173178.2,-145013.6,0.03,0.00,0.88,-4,0,-2,34,0
'[12:58:03.232 21/01/2026]',-128819.9,-207106.1,-117781.1,-34776.59,-375000,-375000,-173334.2,-145117.1,0.03,0.00,0.88,-4,0,-2,34,0
'[12:58:03.236 21/01/2026]',-128817.2,-207103.3,-117779,-34762.95,-375000,-375000,-173297.6,-145072.1,0.03,0.00,0.88,-4,0,-2,34,0
'[12:58:03.240 21/01/2026]',-128890.6,-207187.9,-117861.3,-34811.77,-375000,-375000,-173165.3,-144990.7,0.02,0.00,0.88,-4,0,-2,34,0
'[12:58:03.244 21/01/2026]',-128925.6,-207230.5,-117894.5,-34855.18,-375000,-375000,-173199.7,-145045,0.02,0.00,0.88,-4,0,-2,34,0
'[12:58:03.248 21/01/2026]',-128878.9,-207175.6,-117834.4,-34834.97,-375000,-375000,-173359.4,-145155,0.02,0.00,0.88,-4,0,-2,34,0
'[12:58:03.252 21/01/2026]',-128850.4,-207142.6,-117804.5,-34802.29,-375000,-375000,-173350.9,-145123.9,0.02,0.00,0.88,-4,0,-2,34,0
'[12:58:03.256 21/01/2026]',-128902.8,-207199.6,-117866.8,-34827.5,-375000,-375000,-173205.6,-145021,0.02,0.00,0.88,-4,0,-2,34,0
'[12:58:03.260 21/01/2026]',-128926.5,-207225.9,-117893.9,-34850.48,-375000,-375000,-173171.7,-145020,0.02,0.00,0.88,-4,0,-2,34,0
'[12:58:03.264 21/01/2026]',-128877.7,-207173.3,-117835.2,-34828,-375000,-375000,-173323.1,-145130.9,0.02,0.00,0.88,-4,0,-2,34,0
'[12:58:03.268 21/01/2026]',-128835.1,-207124,-117788.3,-34787.98,-375000,-375000,-173355.5,-145125.3,0.02,0.00,0.88,-4,0,-2,34,0
'[12:58:03.272 21/01/2026]',-128877.9,-207171.9,-117843.7,-34805.42,-375000,-375000,-173214.4,-145021.6,0.02,0.00,0.88,-4,0,-2,34,0
'[12:58:03.276 21/01/2026]',-128921.7,-207221.8,-117890.4,-34840.96,-375000,-375000,-173152.5,-144998.7,0.03,0.00,0.88,-4,0,-2,34,0
'[12:58:03.280 21/01/2026]',-128891.3,-207189.9,-117848.6,-34833.18,-375000,-375000,-173289.8,-145109.2,0.03,0.00,0.88,-4,0,-2,34,0
'[12:58:03.284 21/01/2026]',-128844.3,-207132.1,-117792.4,-34791.92,-375000,-375000,-173356,-145124.6,0.03,0.00,0.88,-4,0,-2,34,0
'[12:58:03.288 21/01/2026]',-128880.9,-207170.8,-117838.3,-34802.56,-375000,-375000,-173237.8,-145032.6,0.03,0.00,0.88,-4,0,-2,34,0
'[12:58:03.292 21/01/2026]',-128929.1,-207227.2,-117896.2,-34841,-375000,-375000,-173144.4,-144986.9,0.03,0.00,0.88,-4,0,-2,34,0
'[12:58:03.296 21/01/2026]',-128907.8,-207207.2,-117868.2,-34844.04,-375000,-375000,-173260.5,-145087,0.03,0.00,0.88,-4,0,-2,34,0
'[12:58:03.300 21/01/2026]',-128851.4,-207141.2,-117798.3,-34798.76,-375000,-375000,-173359,-145130.2,0.03,0.00,0.88,-4,0,-2,34,0
'[12:58:03.304 21/01/2026]',-128872.4,-207162.5,-117828.1,-34794.91,-375000,-375000,-173254.6,-145043.7,0.03,0.00,0.88,-4,0,-2,34,0
'[12:58:03.308 21/01/2026]',-128931,-207227.9,-117895.8,-34837.47,-375000,-375000,-173144.4,-144982.9,0.03,0.00,0.88,-4,0,-2,34,0
'[12:58:03.312 21/01/2026]',-128922.1,-207214.8,-117882.5,-34842.03,-375000,-375000,-173229.1,-145068.7,0.03,0.00,0.88,-4,0,-2,34,0
'[12:58:03.316 21/01/2026]',-128864.1,-207152.3,-117813.8,-34807.12,-375000,-375000,-173364.6,-145150.4,0.03,0.00,0.88,-4,0,-2,34,0
'[12:58:03.320 21/01/2026]',-128866,-207160.8,-117823.1,-34795.54,-375000,-375000,-173289.5,-145075.2,0.03,0.00,0.88,-4,0,-2,34,0
'[12:58:03.324 21/01/2026]',-128926.6,-207227.5,-117893.7,-34835.15,-375000,-375000,-173153.6,-144988.6,0.03,0.00,0.88,-4,0,-2,34,0
'[12:58:03.328 21/01/2026]',-128934.2,-207230.6,-117899.2,-34855,-375000,-375000,-173208.2,-145052.5,0.03,0.00,0.88,-4,0,-2,34,0
'[12:58:03.332 21/01/2026]',-128870,-207158.8,-117822.3,-34817.71,-375000,-375000,-173356.5,-145145.1,0.03,0.00,0.88,-4,0,-2,34,0
'[12:58:03.336 21/01/2026]',-128860.1,-207145.9,-117813.5,-34794.56,-375000,-375000,-173314.2,-145088.5,0.03,0.00,0.88,-4,0,-2,34,0
'[12:58:03.340 21/01/2026]',-128920.2,-207213.5,-117885.1,-34831.21,-375000,-375000,-173173.8,-144996.1,0.03,0.00,0.88,-4,0,-2,34,0
'[12:58:03.344 21/01/2026]',-128946.7,-207238,-117910.9,-34863.04,-375000,-375000,-173195.2,-145038.2,0.03,0.00,0.88,-4,0,-2,34,0
'[12:58:03.348 21/01/2026]',-128893.8,-207177.6,-117846.3,-34835.77,-375000,-375000,-173353,-145146.8,0.02,0.00,0.89,-4,0,-2,34,0
'[12:58:03.352 21/01/2026]',-128862.5,-207144.4,-117815.4,-34800.73,-375000,-375000,-173351.6,-145119,0.02,0.00,0.89,-4,0,-2,34,0
'[12:58:03.356 21/01/2026]',-128914.7,-207202.3,-117880.8,-34825.45,-375000,-375000,-173205.4,-145018.3,0.02,0.00,0.89,-4,0,-2,34,0
'[12:58:03.360 21/01/2026]',-128945.7,-207239.8,-117913.3,-34856.34,-375000,-375000,-173179,-145026.3,0.02,0.00,0.89,-4,0,-2,34,0
'[12:58:03.364 21/01/2026]',-128898.4,-207191,-117854.6,-34840.64,-375000,-375000,-173337,-145143.4,0.02,0.00,0.89,-4,0,-2,34,0
'[12:58:03.368 21/01/2026]',-128855.8,-207143.4,-117806.5,-34800.28,-375000,-375000,-173371.4,-145139.8,0.02,0.00,0.89,-4,0,-2,34,0
'[12:58:03.372 21/01/2026]',-128903,-207197.1,-117865.6,-34818.07,-375000,-375000,-173229.2,-145036.3,0.02,0.00,0.89,-4,0,-2,34,0
'[12:58:03.376 21/01/2026]',-128940.9,-207239.5,-117909.3,-34848.78,-375000,-375000,-173159.8,-145006.5,0.02,0.00,0.89,-4,0,-2,34,0
'[12:58:03.380 21/01/2026]',-128903.4,-207201,-117864,-34844.63,-375000,-375000,-173312.4,-145124.8,0.02,0.00,0.89,-4,0,-2,34,0
'[12:58:03.384 21/01/2026]',-128850.4,-207140.9,-117802.3,-34802.29,-375000,-375000,-173384,-145151.9,0.03,0.00,0.88,-4,0,-2,34,0
'[12:58:03.388 21/01/2026]',-128889.6,-207179.6,-117845.5,-34810.52,-375000,-375000,-173253.1,-145057.7,0.03,0.00,0.88,-4,0,-2,34,0
'[12:58:03.392 21/01/2026]',-128945.6,-207239.5,-117900.7,-34849.59,-375000,-375000,-173165.8,-145008.3,0.03,0.00,0.88,-4,0,-2,34,0
'[12:58:03.396 21/01/2026]',-128927.6,-207223,-117878.4,-34856.38,-375000,-375000,-173289.3,-145113.2,0.03,0.00,0.88,-4,0,-2,34,0
'[12:58:03.400 21/01/2026]',-128867.8,-207154,-117814.1,-34816.28,-375000,-375000,-173392.8,-145165,0.03,0.00,0.88,-4,0,-2,34,0
'[12:58:03.404 21/01/2026]',-128885.6,-207172.9,-117842.1,-34811.99,-375000,-375000,-173287.7,-145076,0.03,0.00,0.88,-4,0,-2,34,0
'[12:58:03.408 21/01/2026]',-128938.9,-207236.6,-117906.3,-34852.31,-375000,-375000,-173173.9,-145010.7,0.03,0.00,0.88,-4,0,-2,34,0
'[12:58:03.412 21/01/2026]',-128934.2,-207231.5,-117893.6,-34862.6,-375000,-375000,-173261.2,-145093.5,0.03,0.00,0.88,-4,0,-2,34,0
'[12:58:03.416 21/01/2026]',-128867,-207157,-117815.2,-34818.61,-375000,-375000,-173390.6,-145165,0.03,0.00,0.88,-4,0,-2,34,0
'[12:58:03.420 21/01/2026]',-128870.3,-207157.6,-117822.6,-34802.02,-375000,-375000,-173314.6,-145094.1,0.02,0.00,0.88,-4,0,-2,34,0
'[12:58:03.424 21/01/2026]',-128930.4,-207224,-117892.9,-34837.74,-375000,-375000,-173174.3,-145005.8,0.02,0.00,0.88,-4,0,-2,34,0
'[12:58:03.428 21/01/2026]',-128935.2,-207230.6,-117894.6,-34852.31,-375000,-375000,-173222.8,-145062.2,0.02,0.00,0.88,-4,0,-2,34,0
'[12:58:03.432 21/01/2026]',-128883,-207170.1,-117829.1,-34825.98,-375000,-375000,-173380.1,-145165.5,0.02,0.00,0.88,-4,0,-2,34,0
'[12:58:03.436 21/01/2026]',-128868.9,-207153.5,-117815.4,-34799.79,-375000,-375000,-173335.8,-145109.5,0.02,0.00,0.88,-4,0,-2,34,0
'[12:58:03.440 21/01/2026]',-128926.7,-207218.5,-117883.4,-34832.15,-375000,-375000,-173186.1,-145009.7,0.02,0.00,0.88,-4,0,-2,34,0
'[12:58:03.444 21/01/2026]',-128949.1,-207244.8,-117904.6,-34859.46,-375000,-375000,-173199.1,-145046.1,0.02,0.00,0.88,-4,0,-2,34,0
'[12:58:03.448 21/01/2026]',-128894.8,-207190.3,-117844.2,-34837.38,-375000,-375000,-173358.5,-145159.4,0.02,0.00,0.88,-4,0,-2,34,0
'[12:58:03.452 21/01/2026]',-128865,-207157.7,-117814.3,-34807.12,-375000,-375000,-173359.5,-145132,0.02,0.00,0.88,-4,0,-2,34,0
'[12:58:03.456 21/01/2026]',-128916,-207215.1,-117875.5,-34830.99,-375000,-375000,-173209.8,-145024.9,0.02,0.00,0.86,-4,0,-2,34,0
'[12:58:03.460 21/01/2026]',-128956.2,-207257.3,-117915.8,-34864.52,-375000,-375000,-173182.9,-145031.8,0.02,0.00,0.86,-4,0,-2,34,0
'[12:58:03.464 21/01/2026]',-128911.3,-207207.9,-117860.2,-34849.81,-375000,-375000,-173342.1,-145150.8,0.02,0.00,0.86,-4,0,-2,34,0
'[12:58:03.468 21/01/2026]',-128861.8,-207154.6,-117808.2,-34807.16,-375000,-375000,-173374.7,-145144.6,0.02,0.00,0.86,-4,0,-2,34,0
'[12:58:03.472 21/01/2026]',-128907.6,-207204.9,-117866.7,-34825.27,-375000,-375000,-173235.2,-145041.3,0.02,0.00,0.86,-4,0,-2,34,0
'[12:58:03.476 21/01/2026]',-128956.1,-207257.7,-117917.6,-34869.61,-375000,-375000,-173187.4,-145025.5,0.02,0.00,0.86,-4,0,-2,34,0
'[12:58:03.480 21/01/2026]',-128919.3,-207217.6,-117869.7,-34858.93,-375000,-375000,-173331.8,-145142.1,0.02,0.00,0.86,-4,0,-2,34,0
'[12:58:03.484 21/01/2026]',-128863.7,-207156.1,-117806.3,-34811.99,-375000,-375000,-173397,-145165.4,0.02,0.00,0.86,-4,0,-2,34,0
'[12:58:03.488 21/01/2026]',-128897.4,-207195.9,-117848,-34820.04,-375000,-375000,-173272.1,-145067.6,0.02,0.00,0.86,-4,0,-2,34,0
'[12:58:03.492 21/01/2026]',-128946.5,-207251.5,-117907.7,-34857.9,-375000,-375000,-173173.9,-145018.2,0.02,0.00,0.88,-4,0,-2,34,0
'[12:58:03.496 21/01/2026]',-128927.7,-207231.9,-117887.8,-34861.66,-375000,-375000,-173289.3,-145118,0.02,0.00,0.88,-4,0,-2,34,0
'[12:58:03.500 21/01/2026]',-128875.3,-207172.5,-117820.4,-34823.75,-375000,-375000,-173403.4,-145177.1,0.02,0.00,0.88,-4,0,-2,34,0
'[12:58:03.504 21/01/2026]',-128898.7,-207191.1,-117843.8,-34817.49,-375000,-375000,-173294.5,-145086.1,0.02,0.00,0.88,-4,0,-2,34,0
'[12:58:03.508 21/01/2026]',-128960.2,-207254,-117913.2,-34862.55,-375000,-375000,-173179.3,-145019.2,0.02,0.00,0.88,-4,0,-2,34,0
'[12:58:03.512 21/01/2026]',-128949.6,-207246.5,-117904.1,-34873.37,-375000,-375000,-173262.5,-145102.6,0.02,0.00,0.88,-4,0,-2,34,0
'[12:58:03.516 21/01/2026]',-128885,-207176.6,-117828,-34833.05,-375000,-375000,-173390,-145177.7,0.02,0.00,0.88,-4,0,-2,34,0
'[12:58:03.520 21/01/2026]',-128889.8,-207183.9,-117834.8,-34818.83,-375000,-375000,-173318.8,-145106.4,0.02,0.00,0.88,-4,0,-2,34,0
'[12:58:03.524 21/01/2026]',-128956.3,-207253.5,-117911.4,-34861.75,-375000,-375000,-173190.5,-145027.8,0.02,0.00,0.88,-4,0,-2,34,0
'[12:58:03.528 21/01/2026]',-128969.6,-207268.7,-117920.7,-34884.14,-375000,-375000,-173243.8,-145092.4,0.03,0.00,0.88,-4,0,-2,34,0
'[12:58:03.532 21/01/2026]',-128905.9,-207202.8,-117845.4,-34850.04,-375000,-375000,-173397.8,-145191.3,0.03,0.00,0.88,-4,0,-2,34,0
'[12:58:03.536 21/01/2026]',-128882.5,-207180.5,-117823.6,-34817.22,-375000,-375000,-173354.9,-145135.2,0.03,0.00,0.88,-4,0,-2,34,0
'[12:58:03.540 21/01/2026]',-128947.8,-207251.9,-117900.5,-34853.66,-375000,-375000,-173207.2,-145038,0.03,0.00,0.88,-4,0,-2,34,0
'[12:58:03.544 21/01/2026]',-128970.4,-207273,-117926.3,-34883.74,-375000,-375000,-173218.5,-145071,0.03,0.00,0.88,-4,0,-2,34,0
'[12:58:03.548 21/01/2026]',-128920.8,-207217.1,-117864.2,-34863.22,-375000,-375000,-173379.9,-145185.7,0.03,0.00,0.88,-4,0,-2,34,0
'[12:58:03.552 21/01/2026]',-128888.6,-207180,-117827.8,-34823.03,-375000,-375000,-173370.9,-145149.4,0.03,0.00,0.88,-4,0,-2,34,0
'[12:58:03.556 21/01/2026]',-128941.7,-207240.2,-117893.9,-34847.13,-375000,-375000,-173219.9,-145040.2,0.03,0.00,0.88,-4,0,-2,34,0
'[12:58:03.560 21/01/2026]',-128973.9,-207273.7,-117931.9,-34882.31,-375000,-375000,-173197.2,-145045.5,0.03,0.00,0.88,-4,0,-2,34,0
'[12:58:03.564 21/01/2026]',-128933.6,-207227.3,-117881.3,-34870.24,-375000,-375000,-173355.5,-145163.8,0.02,0.00,0.89,-4,0,-2,34,0
'[12:58:03.568 21/01/2026]',-128893.5,-207183.9,-117837.4,-34834.75,-375000,-375000,-173396.2,-145167.6,0.02,0.00,0.89,-4,0,-2,34,0
'[12:58:03.572 21/01/2026]',-128936.4,-207235.2,-117891.8,-34853.07,-375000,-375000,-173256.9,-145061.4,0.02,0.00,0.89,-4,0,-2,34,0
'[12:58:03.576 21/01/2026]',-128979.7,-207280.2,-117939.6,-34891.03,-375000,-375000,-173198.3,-145038.3,0.02,0.00,0.89,-4,0,-2,34,0
'[12:58:03.580 21/01/2026]',-128949.9,-207243.8,-117902,-34883.65,-375000,-375000,-173337.5,-145154.1,0.02,0.00,0.89,-4,0,-2,34,0
'[12:58:03.584 21/01/2026]',-128896.6,-207181.3,-117839,-34840.82,-375000,-375000,-173406.7,-145173.6,0.02,0.00,0.89,-4,0,-2,34,0
'[12:58:03.588 21/01/2026]',-128925.7,-207214.2,-117875.9,-34846.68,-375000,-375000,-173282.3,-145072.3,0.02,0.00,0.89,-4,0,-2,34,0
'[12:58:03.592 21/01/2026]',-128976.4,-207275.6,-117935.7,-34882.98,-375000,-375000,-173174.3,-145009.9,0.02,0.00,0.89,-4,0,-2,34,0
'[12:58:03.596 21/01/2026]',-128964.5,-207261.8,-117917.6,-34890.89,-375000,-375000,-173287.2,-145110.8,0.02,0.00,0.89,-4,0,-2,34,0
'[12:58:03.600 21/01/2026]',-128908.6,-207197.9,-117849.4,-34854.37,-375000,-375000,-173404.9,-145171.8,0.02,0.00,0.86,-4,0,-2,34,0
'[12:58:03.604 21/01/2026]',-128931.9,-207224,-117877.1,-34854.46,-375000,-375000,-173307.4,-145088.6,0.02,0.00,0.86,-4,0,-2,34,0
'[12:58:03.608 21/01/2026]',-128990.6,-207285.2,-117941.2,-34891.16,-375000,-375000,-173183.7,-145016.5,0.02,0.00,0.86,-4,0,-2,34,0
'[12:58:03.612 21/01/2026]',-128983.7,-207275.9,-117930.8,-34899.7,-375000,-375000,-173260.5,-145096.1,0.02,0.00,0.86,-4,0,-2,34,0
'[12:58:03.616 21/01/2026]',-128917.1,-207203.9,-117854,-34862.02,-375000,-375000,-173395.3,-145169.8,0.02,0.00,0.86,-4,0,-2,34,0
'[12:58:03.620 21/01/2026]',-128916.6,-207204.7,-117856,-34847.17,-375000,-375000,-173328.2,-145104.2,0.02,0.00,0.86,-4,0,-2,34,0
'[12:58:03.624 21/01/2026]',-128975.5,-207267.6,-117926.6,-34886.02,-375000,-375000,-173189.1,-145017.1,0.02,0.00,0.86,-4,0,-2,34,0
'[12:58:03.628 21/01/2026]',-128979.1,-207270.9,-117928.7,-34897.38,-375000,-375000,-173220.3,-145067.2,0.02,0.00,0.86,-4,0,-2,34,0
'[12:58:03.632 21/01/2026]',-128918.6,-207205.8,-117859.2,-34862.91,-375000,-375000,-173368.1,-145165.6,0.02,0.00,0.86,-4,0,-2,34,0
'[12:58:03.636 21/01/2026]',-128905,-207191.5,-117847.2,-34838.14,-375000,-375000,-173339.3,-145121,0.02,0.00,0.88,-4,0,-2,34,0
'[12:58:03.640 21/01/2026]',-128967.4,-207261.8,-117918.8,-34874.04,-375000,-375000,-173198.8,-145025.4,0.02,0.00,0.88,-4,0,-2,34,0
'[12:58:03.644 21/01/2026]',-128995.7,-207291.4,-117943.6,-34906.67,-375000,-375000,-173205.6,-145058.2,0.02,0.00,0.88,-4,0,-2,34,0
'[12:58:03.648 21/01/2026]',-128941.3,-207228.9,-117876.3,-34883.74,-375000,-375000,-173363.9,-145172.6,0.02,0.00,0.88,-4,0,-2,34,0
'[12:58:03.652 21/01/2026]',-128906.1,-207188.2,-117838.6,-34847.89,-375000,-375000,-173364.1,-145145.5,0.02,0.00,0.88,-4,0,-2,34,0
'[12:58:03.656 21/01/2026]',-128965.2,-207253,-117908.4,-34880.43,-375000,-375000,-173217.3,-145045.3,0.02,0.00,0.88,-4,0,-2,34,0
