'Time and date','Fp1','Fp2','F3','Fz','F4','P3','Pz','P4','AccX','AccY','AccZ','GyroX','GyroY','GyroZ','Battery','Event'
'[hh:mm:ss.mmm dd/mm/yyyy]','uV','uV','uV','uV','uV','uV','uV','uV','G','G','G','Deg/s','Deg/s','Deg/s','%','Button'
'[10:48:00.000 21/01/2026]',-100292.7,-182184.1,-123655.5,-5658.567,-375000,-375000,-146176.8,-117386.3,0.03,-0.02,0.89,-4,0,-2,27,0
'[10:48:00.004 21/01/2026]',-100197.1,-181972,-123635.6,-5627.856,-375000,-375000,-146294.5,-117491.7,0.03,-0.02,0.89,-4,0,-2,27,0
'[10:48:00.008 21/01/2026]',-100242.1,-182053.7,-123685.7,-5729.422,-375000,-375000,-146361.6,-117472.3,0.03,-0.02,0.89,-4,0,-2,27,0
'[10:48:00.012 21/01/2026]',-100338.4,-182280.4,-123686.6,-5741.716,-375000,-375000,-146226,-117369.2,0.03,-0.02,0.89,-4,0,-2,27,0
'[10:48:00.016 21/01/2026]',-100278.7,-182206.1,-123634.3,-5654.052,-375000,-375000,-146171.2,-117383.5,0.03,-0.02,0.89,-4,0,-2,27,0
'[10:48:00.020 21/01/2026]',-100160.5,-181970.6,-123629.5,-5605.057,-375000,-375000,-146239.2,-117449.4,0.03,-0.02,0.89,-4,0,-2,27,0
'[10:48:00.024 21/01/2026]',-100159.4,-181971.8,-123662.5,-5688.027,-375000,-375000,-146337.6,-117453,0.03,-0.02,0.89,-4,0,-2,27,0
'[10:48:00.028 21/01/2026]',-100296.5,-182225.5,-123676.8,-5738.185,-375000,-375000,-146222.6,-117362.6,0.03,-0.02,0.89,-4,0,-2,27,0
'[10:48:00.032 21/01/2026]',-100281.3,-182211.1,-123632.4,-5661.071,-375000,-375000,-146164.6,-117367.3,0.03,-0.02,0.89,-4,0,-2,27,0
'[10:48:00.036 21/01/2026]',-100292.7,-182184.1,-123655.5,-5658.567,-375000,-375000,-146176.8,-117386.3,0.03,-0.02,0.89,-4,0,-2,27,0
'[10:48:00.040 21/01/2026]',-100197.1,-181972,-123635.6,-5627.856,-375000,-375000,-146294.5,-117491.7,0.03,-0.02,0.89,-4,0,-2,27,0
'[10:48:00.044 21/01/2026]',-100242.1,-182053.7,-123685.7,-5729.422,-375000,-375000,-146361.6,-117472.3,0.03,-0.02,0.89,-4,0,-2,27,0
'[10:48:00.048 21/01/2026]',-100338.4,-182280.4,-123686.6,-5741.716,-375000,-375000,-146226,-117369.2,0.03,-0.02,0.89,-4,0,-2,27,0
'[10:48:00.052 21/01/2026]',-100278.7,-182206.1,-123634.3,-5654.052,-375000,-375000,-146171.2,-117383.5,0.03,-0.02,0.89,-4,0,-2,27,0
'[10:48:00.056 21/01/2026]',-100160.5,-181970.6,-123629.5,-5605.057,-375000,-375000,-146239.2,-117449.4,0.03,-0.02,0.89,-4,0,-2,27,0
'[10:48:00.060 21/01/2026]',-100159.4,-181971.8,-123662.5,-5688.027,-375000,-375000,-146337.6,-117453,0.03,-0.02,0.89,-4,0,-2,27,0
'[10:48:00.064 21/01/2026]',-100296.5,-182225.5,-123676.8,-5738.185,-375000,-375000,-146222.6,-117362.6,0.03,-0.02,0.89,-4,0,-2,27,0
'[10:48:00.068 21/01/2026]',-100281.3,-182211.1,-123632.4,-5661.071,-375000,-375000,-146164.6,-117367.3,0.03,-0.02,0.89,-4,0,-2,27,0
'[10:48:00.072 21/01/2026]',-100177.9,-182005.4,-123612.9,-5606.756,-375000,-375000,-146226.3,-117454.5,0.02,0.00,0.88,-4,0,-2,27,0
'[10:48:00.076 21/01/2026]',-100147.2,-181933.3,-123649.4,-5671.174,-375000,-375000,-146357,-117484.4,0.02,0.00,0.88,-4,0,-2,27,0
'[10:48:00.080 21/01/2026]',-100251.5,-182182.4,-123676.8,-5735.279,-375000,-375000,-146247.9,-117379.1,0.02,0.00,0.88,-4,0,-2,27,0
'[10:48:00.084 21/01/2026]',-100247.4,-182210.5,-123632.1,-5651.594,-375000,-375000,-146156.1,-117349.6,0.02,0.00,0.88,-4,0,-2,27,0
'[10:48:00.088 21/01/2026]',-100141.9,-182011.7,-123586.1,-5576.983,-375000,-375000,-146181.8,-117421,0.02,0.00,0.88,-4,0,-2,27,0
'[10:48:00.092 21/01/2026]',-100110.2,-181887.5,-123612.5,-5622.894,-375000,-375000,-146332.5,-117484.7,0.02,0.00,0.88,-4,0,-2,27,0
'[10:48:00.096 21/01/2026]',-100234.5,-182123.2,-123655.3,-5718.694,-375000,-375000,-146258.6,-117389,0.02,0.00,0.88,-4,0,-2,27,0
'[10:48:00.100 21/01/2026]',-100258.1,-182203.7,-123629.8,-5657.941,-375000,-375000,-146152,-117339.7,0.02,0.00,0.88,-4,0,-2,27,0
'[10:48:00.104 21/01/2026]',-100166.2,-182036.5,-123606.3,-5591.021,-375000,-375000,-146161.2,-117409.6,0.02,0.00,0.88,-4,0,-2,27,0
'[10:48:00.108 21/01/2026]',-100085.7,-181866.7,-123609.3,-5604.029,-375000,-375000,-146308.3,-117485.2,0.02,0.00,0.88,-4,0,-2,27,0
'[10:48:00.112 21/01/2026]',-100193.3,-182077,-123659.1,-5716.28,-375000,-375000,-146286.4,-117417.8,0.02,0.00,0.88,-4,0,-2,27,0
'[10:48:00.116 21/01/2026]',-100254.9,-182219.8,-123632.7,-5676.494,-375000,-375000,-146174.7,-117364.4,0.02,0.00,0.88,-4,0,-2,27,0
'[10:48:00.120 21/01/2026]',-100165.9,-182067.4,-123577.7,-5584.896,-375000,-375000,-146151.9,-117404.4,0.02,0.00,0.88,-4,0,-2,27,0
'[10:48:00.124 21/01/2026]',-100058.1,-181862.1,-123588.9,-5577.609,-375000,-375000,-146281.3,-117477.9,0.02,0.00,0.88,-4,0,-2,27,0
'[10:48:00.128 21/01/2026]',-100135.5,-182008.5,-123644.3,-5689.949,-375000,-375000,-146297.6,-117423.2,0.02,0.00,0.88,-4,0,-2,27,0
'[10:48:00.132 21/01/2026]',-100236.9,-182200,-123635.8,-5679.891,-375000,-375000,-146173.1,-117350.9,0.02,0.00,0.88,-4,0,-2,27,0
'[10:48:00.136 21/01/2026]',-100170.9,-182098.7,-123600.9,-5603.493,-375000,-375000,-146143.8,-117386.6,0.02,0.00,0.88,-4,0,-2,27,0
'[10:48:00.140 21/01/2026]',-100051.3,-181880.2,-123605.5,-5581.364,-375000,-375000,-146259.9,-117474.9,0.02,0.00,0.88,-4,0,-2,27,0
'[10:48:00.144 21/01/2026]',-100119.8,-181968.7,-123664.9,-5697.683,-375000,-375000,-146336.1,-117459.2,0.03,0.00,0.88,-4,0,-2,27,0
'[10:48:00.148 21/01/2026]',-100242.4,-182190.4,-123641.8,-5696.431,-375000,-375000,-146197.5,-117361.9,0.03,0.00,0.88,-4,0,-2,27,0
'[10:48:00.152 21/01/2026]',-100202.1,-182118.2,-123582.3,-5600.542,-375000,-375000,-146143,-117371.6,0.03,0.00,0.88,-4,0,-2,27,0
'[10:48:00.156 21/01/2026]',-100099.5,-181901.8,-123586.6,-5562.991,-375000,-375000,-146234.5,-117462.8,0.03,0.00,0.88,-4,0,-2,27,0
'[10:48:00.160 21/01/2026]',-100095.5,-181896.9,-123619.4,-5650.789,-375000,-375000,-146337.1,-117468.4,0.03,0.00,0.88,-4,0,-2,27,0
'[10:48:00.164 21/01/2026]',-100208.6,-182146.7,-123631.9,-5694.151,-375000,-375000,-146205.1,-117365,0.03,0.00,0.88,-4,0,-2,27,0
'[10:48:00.168 21/01/2026]',-100198.1,-182139.1,-123599.3,-5613.596,-375000,-375000,-146140.3,-117369.6,0.03,0.00,0.88,-4,0,-2,27,0
'[10:48:00.172 21/01/2026]',-100103.2,-181942.3,-123589.5,-5564.779,-375000,-375000,-146213,-117459.8,0.03,0.00,0.88,-4,0,-2,27,0
'[10:48:00.176 21/01/2026]',-100081.9,-181877.8,-123617,-5629.108,-375000,-375000,-146345.7,-117489.4,0.03,0.00,0.88,-4,0,-2,27,0
'[10:48:00.180 21/01/2026]',-100196.1,-182125.3,-123644,-5695.269,-375000,-375000,-146226.4,-117380.6,0.03,-0.02,0.88,-4,0,-2,27,0
'[10:48:00.184 21/01/2026]',-100191.7,-182158.2,-123607.9,-5625.844,-375000,-375000,-146145.7,-117361.3,0.03,-0.02,0.88,-4,0,-2,27,0
'[10:48:00.188 21/01/2026]',-100108.7,-181973.1,-123586.9,-5569.25,-375000,-375000,-146186.7,-117440.8,0.03,-0.02,0.88,-4,0,-2,27,0
'[10:48:00.192 21/01/2026]',-100069.5,-181844.4,-123609.1,-5606.711,-375000,-375000,-146330,-117490.9,0.03,-0.02,0.88,-4,0,-2,27,0
'[10:48:00.196 21/01/2026]',-100174.8,-182079.5,-123632,-5689.234,-375000,-375000,-146239.7,-117386.6,0.03,-0.02,0.88,-4,0,-2,27,0
'[10:48:00.200 21/01/2026]',-100206.6,-182172.4,-123600.8,-5633.846,-375000,-375000,-146140.9,-117346.3,0.03,-0.02,0.88,-4,0,-2,27,0
'[10:48:00.204 21/01/2026]',-100125.4,-182004.5,-123573.9,-5562.634,-375000,-375000,-146149.3,-117408.8,0.03,-0.02,0.88,-4,0,-2,27,0
'[10:48:00.208 21/01/2026]',-100052.9,-181836.8,-123600.7,-5585.522,-375000,-375000,-146307.7,-117488.7,0.03,-0.02,0.88,-4,0,-2,27,0
'[10:48:00.212 21/01/2026]',-100141.8,-182035.6,-123639.4,-5688.116,-375000,-375000,-146270.3,-117410.1,0.03,-0.02,0.88,-4,0,-2,27,0
'[10:48:00.216 21/01/2026]',-100208.5,-182173.5,-123601.4,-5641.491,-375000,-375000,-146147.2,-117344.5,0.05,0.00,0.88,-4,0,-2,27,0
'[10:48:00.220 21/01/2026]',-100136.2,-182030.5,-123567.8,-5561.024,-375000,-375000,-146132.8,-117389,0.05,0.00,0.88,-4,0,-2,27,0
'[10:48:00.224 21/01/2026]',-100045.9,-181845.8,-123593.3,-5567.774,-375000,-375000,-146285.1,-117482.2,0.05,0.00,0.88,-4,0,-2,27,0
'[10:48:00.228 21/01/2026]',-100125.7,-181998.6,-123645.7,-5684.316,-375000,-375000,-146295.7,-117434.1,0.05,0.00,0.88,-4,0,-2,27,0
'[10:48:00.232 21/01/2026]',-100221.4,-182187.5,-123636.8,-5671.844,-375000,-375000,-146151.4,-117350.1,0.05,0.00,0.88,-4,0,-2,27,0
'[10:48:00.236 21/01/2026]',-100144,-182069.6,-123574,-5578.727,-375000,-375000,-146109.5,-117374.6,0.05,0.00,0.88,-4,0,-2,27,0
'[10:48:00.240 21/01/2026]',-100049,-181860.5,-123577.9,-5556.509,-375000,-375000,-146231.9,-117466.3,0.05,0.00,0.88,-4,0,-2,27,0
'[10:48:00.244 21/01/2026]',-100088.4,-181935.3,-123621.6,-5656.109,-375000,-375000,-146287.6,-117434.3,0.05,0.00,0.88,-4,0,-2,27,0
'[10:48:00.248 21/01/2026]',-100187.3,-182157.1,-123618.4,-5667.598,-375000,-375000,-146146.9,-117340.6,0.05,0.00,0.88,-4,0,-2,27,0
'[10:48:00.252 21/01/2026]',-100180.3,-182115.7,-123602.2,-5607.248,-375000,-375000,-146123.5,-117386.2,0.03,0.00,0.88,-4,0,-2,27,0
'[10:48:00.256 21/01/2026]',-100084.4,-181910.6,-123587.5,-5568.267,-375000,-375000,-146224.9,-117482.8,0.03,0.00,0.88,-4,0,-2,27,0
'[10:48:00.260 21/01/2026]',-100087,-181900.2,-123617.3,-5638.898,-375000,-375000,-146307.1,-117459.6,0.03,0.00,0.88,-4,0,-2,27,0
'[10:48:00.264 21/01/2026]',-100194.3,-182150.7,-123628.4,-5684.361,-375000,-375000,-146165.2,-117353.5,0.03,0.00,0.88,-4,0,-2,27,0
'[10:48:00.268 21/01/2026]',-100159.9,-182119.9,-123583.1,-5599.693,-375000,-375000,-146091.3,-117344.1,0.03,0.00,0.88,-4,0,-2,27,0
'[10:48:00.272 21/01/2026]',-100068.9,-181913.5,-123584,-5549.357,-375000,-375000,-146161.7,-117427.4,0.03,0.00,0.88,-4,0,-2,27,0
'[10:48:00.276 21/01/2026]',-100036,-181852.4,-123621.9,-5617.396,-375000,-375000,-146305.8,-117467.9,0.03,0.00,0.88,-4,0,-2,27,0
'[10:48:00.280 21/01/2026]',-100133.7,-182105.2,-123629,-5678.058,-375000,-375000,-146177.2,-117361.9,0.03,0.00,0.88,-4,0,-2,27,0
'[10:48:00.284 21/01/2026]',-100174.4,-182145.8,-123580.3,-5613.685,-375000,-375000,-146102.8,-117344.7,0.03,0.00,0.88,-4,0,-2,27,0
'[10:48:00.288 21/01/2026]',-100100.4,-181961.3,-123551.8,-5550.43,-375000,-375000,-146144.6,-117422.6,0.05,-0.02,0.88,-4,0,-2,27,0
'[10:48:00.292 21/01/2026]',-100071.5,-181850.5,-123591,-5596.295,-375000,-375000,-146305.7,-117490.7,0.05,-0.02,0.88,-4,0,-2,27,0
'[10:48:00.296 21/01/2026]',-100165.4,-182080.8,-123617.4,-5678.639,-375000,-375000,-146217.6,-117395.3,0.05,-0.02,0.88,-4,0,-2,27,0
'[10:48:00.300 21/01/2026]',-100184.7,-182170.4,-123590.7,-5629.689,-375000,-375000,-146114.3,-117354.3,0.05,-0.02,0.88,-4,0,-2,27,0
'[10:48:00.304 21/01/2026]',-100106,-182007,-123567,-5561.203,-375000,-375000,-146131.5,-117422.6,0.05,-0.02,0.88,-4,0,-2,27,0
'[10:48:00.308 21/01/2026]',-100046.6,-181838,-123594.2,-5578.414,-375000,-375000,-146283.4,-117486.4,0.05,-0.02,0.88,-4,0,-2,27,0
'[10:48:00.312 21/01/2026]',-100140.9,-182033,-123628,-5683.422,-375000,-375000,-146243.6,-117407.5,0.05,-0.02,0.88,-4,0,-2,27,0
'[10:48:00.316 21/01/2026]',-100186.8,-182169.8,-123606.3,-5646.944,-375000,-375000,-146123.5,-117354.3,0.05,-0.02,0.88,-4,0,-2,27,0
'[10:48:00.320 21/01/2026]',-100122.7,-182026.4,-123573.3,-5568.981,-375000,-375000,-146118.8,-117402.3,0.05,-0.02,0.88,-4,0,-2,27,0
'[10:48:00.324 21/01/2026]',-100051.7,-181841,-123596.2,-5572.379,-375000,-375000,-146272.6,-117499.5,0.03,-0.02,0.88,-4,0,-2,27,0
'[10:48:00.328 21/01/2026]',-100111.9,-181970.3,-123628,-5672.783,-375000,-375000,-146269.7,-117429.9,0.03,-0.02,0.88,-4,0,-2,27,0
'[10:48:00.332 21/01/2026]',-100189.1,-182157.2,-123602.4,-5653.695,-375000,-375000,-146127.8,-117350.2,0.03,-0.02,0.88,-4,0,-2,27,0
'[10:48:00.336 21/01/2026]',-100138.3,-182080.9,-123573.2,-5580.917,-375000,-375000,-146121.7,-117403.5,0.03,-0.02,0.88,-4,0,-2,27,0
'[10:48:00.340 21/01/2026]',-100043.5,-181859.6,-123573.2,-5547.658,-375000,-375000,-146231.7,-117477.1,0.03,-0.02,0.88,-4,0,-2,27,0
'[10:48:00.344 21/01/2026]',-100074.1,-181931.2,-123621.3,-5646.811,-375000,-375000,-146282.2,-117444.7,0.03,-0.02,0.88,-4,0,-2,27,0
'[10:48:00.348 21/01/2026]',-100170.7,-182152.5,-123620.6,-5657.763,-375000,-375000,-146134.9,-117355.9,0.03,-0.02,0.88,-4,0,-2,27,0
'[10:48:00.352 21/01/2026]',-100132,-182089.7,-123577,-5582.259,-375000,-375000,-146094.7,-117375.8,0.03,-0.02,0.88,-4,0,-2,27,0
'[10:48:00.356 21/01/2026]',-100038.2,-181885.6,-123570.6,-5544.976,-375000,-375000,-146196.9,-117461.5,0.03,-0.02,0.88,-4,0,-2,27,0
'[10:48:00.360 21/01/2026]',-100069.7,-181895.2,-123621.6,-5636.484,-375000,-375000,-146310.3,-117478.2,0.03,0.00,0.88,-4,0,-2,27,0
'[10:48:00.364 21/01/2026]',-100191.8,-182134.6,-123618,-5673.141,-375000,-375000,-146167,-117375.8,0.03,0.00,0.88,-4,0,-2,27,0
'[10:48:00.368 21/01/2026]',-100161.5,-182113.6,-123568.9,-5592.987,-375000,-375000,-146102.8,-117372.3,0.03,0.00,0.88,-4,0,-2,27,0
'[10:48:00.372 21/01/2026]',-100062.6,-181911.4,-123572.6,-5546.898,-375000,-375000,-146182.2,-117468.7,0.03,0.00,0.88,-4,0,-2,27,0
'[10:48:00.376 21/01/2026]',-100040.4,-181859.7,-123610.6,-5623.788,-375000,-375000,-146344.1,-117523.8,0.03,0.00,0.88,-4,0,-2,27,0
'[10:48:00.380 21/01/2026]',-100162.3,-182112.4,-123613.6,-5677.879,-375000,-375000,-146200.7,-117405.3,0.03,0.00,0.88,-4,0,-2,27,0
'[10:48:00.384 21/01/2026]',-100183.3,-182146.1,-123580.2,-5600.989,-375000,-375000,-146091.1,-117358.1,0.03,0.00,0.88,-4,0,-2,27,0
'[10:48:00.388 21/01/2026]',-100098.6,-181953.3,-123582.7,-5552.888,-375000,-375000,-146146.6,-117442.7,0.03,0.00,0.88,-4,0,-2,27,0
'[10:48:00.392 21/01/2026]',-100078,-181838.9,-123623.2,-5602.554,-375000,-375000,-146306,-117498.7,0.03,0.00,0.88,-4,0,-2,27,0
'[10:48:00.396 21/01/2026]',-100168.1,-182064.4,-123651.1,-5687.982,-375000,-375000,-146206,-117395.6,0.05,-0.02,0.86,-4,0,-2,27,0
'[10:48:00.400 21/01/2026]',-100230.5,-182150.6,-123635.5,-5640.462,-375000,-375000,-146106.9,-117351.5,0.05,-0.02,0.86,-4,0,-2,27,0
'[10:48:00.404 21/01/2026]',-100190.5,-182002.1,-123625.9,-5587.131,-375000,-375000,-146134.5,-117427,0.05,-0.02,0.86,-4,0,-2,27,0
'[10:48:00.408 21/01/2026]',-100150,-181835.5,-123638,-5602.062,-375000,-375000,-146288.8,-117498.5,0.05,-0.02,0.86,-4,0,-2,27,0
'[10:48:00.412 21/01/2026]',-100236.5,-182011.1,-123664.8,-5705.148,-375000,-375000,-146242.8,-117413.2,0.05,-0.02,0.86,-4,0,-2,27,0
'[10:48:00.416 21/01/2026]',-100280.1,-182143,-123647.5,-5663.619,-375000,-375000,-146114,-117346.5,0.05,-0.02,0.86,-4,0,-2,27,0
'[10:48:00.420 21/01/2026]',-100187.3,-182011.6,-123628.9,-5583.913,-375000,-375000,-146096.2,-117387,0.05,-0.02,0.86,-4,0,-2,27,0
'[10:48:00.424 21/01/2026]',-100108,-181813.7,-123644.2,-5583.734,-375000,-375000,-146252.3,-117479.6,0.05,-0.02,0.86,-4,0,-2,27,0
'[10:48:00.428 21/01/2026]',-100241.4,-181948.4,-123659.2,-5679.399,-375000,-375000,-146253.1,-117419.7,0.05,-0.02,0.86,-4,0,-2,27,0
'[10:48:00.432 21/01/2026]',-100323.4,-182137.4,-123644.4,-5665.943,-375000,-375000,-146113,-117343.4,0.03,0.00,0.86,-4,0,-2,27,0
'[10:48:00.436 21/01/2026]',-100250.9,-182033.1,-123611.7,-5587.086,-375000,-375000,-146086.1,-117378.8,0.03,0.00,0.86,-4,0,-2,27,0
'[10:48:00.440 21/01/2026]',-100128.8,-181829.3,-123623.7,-5561.159,-375000,-375000,-146216.8,-117470.1,0.03,0.00,0.86,-4,0,-2,27,0
'[10:48:00.444 21/01/2026]',-100174.6,-181905.7,-123681.1,-5664.781,-375000,-375000,-146277.8,-117445.3,0.03,0.00,0.86,-4,0,-2,27,0
'[10:48:00.448 21/01/2026]',-100289,-182125.1,-123673.4,-5684.585,-375000,-375000,-146134,-117352.5,0.03,0.00,0.86,-4,0,-2,27,0
'[10:48:00.452 21/01/2026]',-100225.5,-182049.7,-123631.1,-5601.526,-375000,-375000,-146091.8,-117371.3,0.03,0.00,0.86,-4,0,-2,27,0
'[10:48:00.456 21/01/2026]',-100112.6,-181839.1,-123635.7,-5561.516,-375000,-375000,-146187.8,-117457.1,0.03,0.00,0.86,-4,0,-2,27,0
'[10:48:00.460 21/01/2026]',-100150.3,-181836.7,-123654.9,-5645.112,-375000,-375000,-146293.3,-117460.1,0.03,0.00,0.86,-4,0,-2,27,0
'[10:48:00.464 21/01/2026]',-100274.3,-182076.3,-123645.2,-5678.818,-375000,-375000,-146154.6,-117364.1,0.03,0.00,0.86,-4,0,-2,27,0
'[10:48:00.468 21/01/2026]',-100263.3,-182075.3,-123616.8,-5604.61,-375000,-375000,-146098.6,-117370.9,0.03,0.00,0.88,-4,0,-2,27,0
'[10:48:00.472 21/01/2026]',-100156.8,-181870,-123598.3,-5540.237,-375000,-375000,-146158.6,-117442.2,0.03,0.00,0.88,-4,0,-2,27,0
'[10:48:00.476 21/01/2026]',-100126.3,-181807.2,-123635.1,-5602.062,-375000,-375000,-146292.2,-117474.1,0.03,0.00,0.88,-4,0,-2,27,0
'[10:48:00.480 21/01/2026]',-100237.7,-182059.8,-123659.1,-5675.6,-375000,-375000,-146172.9,-117374.3,0.03,0.00,0.88,-4,0,-2,27,0
'[10:48:00.484 21/01/2026]',-100241.9,-182087,-123619.9,-5604.074,-375000,-375000,-146089.3,-117351.1,0.03,0.00,0.88,-4,0,-2,27,0
'[10:48:00.488 21/01/2026]',-100140.2,-181900.2,-123602.3,-5543.188,-375000,-375000,-146134,-117430.2,0.03,0.00,0.88,-4,0,-2,27,0
'[10:48:00.492 21/01/2026]',-100099.2,-181760.7,-123629.3,-5588.651,-375000,-375000,-146294.4,-117488.3,0.03,0.00,0.88,-4,0,-2,27,0
'[10:48:00.496 21/01/2026]',-100195.4,-181987,-123649.1,-5669.788,-375000,-375000,-146208,-117389.1,0.03,0.00,0.88,-4,0,-2,27,0
'[10:48:00.500 21/01/2026]',-100225.6,-182092.2,-123619.5,-5614.49,-375000,-375000,-146107.6,-117357.1,0.03,0.00,0.88,-4,0,-2,27,0
'[10:48:00.504 21/01/2026]',-100155.4,-181926.3,-123588.3,-5541.042,-375000,-375000,-146113.4,-117418,0.03,-0.02,0.86,-4,0,-2,27,0
'[10:48:00.508 21/01/2026]',-100099.6,-181771.1,-123623.1,-5565.763,-375000,-375000,-146277.7,-117501,0.03,-0.02,0.86,-4,0,-2,27,0
'[10:48:00.512 21/01/2026]',-100175.3,-181959.1,-123655,-5666.212,-375000,-375000,-146224.8,-117414.2,0.03,-0.02,0.86,-4,0,-2,27,0
'[10:48:00.516 21/01/2026]',-100208.1,-182081.1,-123626.6,-5625.576,-375000,-375000,-146087.5,-117343.5,0.03,-0.02,0.86,-4,0,-2,27,0
'[10:48:00.520 21/01/2026]',-100171.7,-181941.3,-123589.5,-5544.574,-375000,-375000,-146077.2,-117391.9,0.03,-0.02,0.86,-4,0,-2,27,0
'[10:48:00.524 21/01/2026]',-100092.2,-181760.7,-123611.1,-5542.293,-375000,-375000,-146226.5,-117482.7,0.03,-0.02,0.86,-4,0,-2,27,0
'[10:48:00.528 21/01/2026]',-100163.3,-181911.5,-123660.4,-5654.678,-375000,-375000,-146239.2,-117430.8,0.03,-0.02,0.86,-4,0,-2,27,0
'[10:48:00.532 21/01/2026]',-100245.4,-182087.2,-123625.7,-5630.494,-375000,-375000,-146090.1,-117337.3,0.03,-0.02,0.86,-4,0,-2,27,0
'[10:48:00.536 21/01/2026]',-100188.6,-181963.2,-123589.7,-5551.547,-375000,-375000,-146058.9,-117364.6,0.03,-0.02,0.86,-4,0,-2,27,0
'[10:48:00.540 21/01/2026]',-100092.7,-181765.9,-123607.4,-5535.767,-375000,-375000,-146188.8,-117459.8,0.03,-0.02,0.88,-4,0,-2,27,0
'[10:48:00.544 21/01/2026]',-100108.1,-181849.4,-123666.3,-5638.987,-375000,-375000,-146251,-117434.4,0.03,-0.02,0.88,-4,0,-2,27,0
'[10:48:00.548 21/01/2026]',-100199.6,-182071.7,-123669.2,-5656.064,-375000,-375000,-146112.2,-117347.2,0.03,-0.02,0.88,-4,0,-2,27,0
'[10:48:00.552 21/01/2026]',-100163.8,-182006.8,-123613.9,-5571.44,-375000,-375000,-146074.1,-117376.6,0.03,-0.02,0.88,-4,0,-2,27,0
'[10:48:00.556 21/01/2026]',-100098.4,-181801,-123591.8,-5527.765,-375000,-375000,-146167,-117455,0.03,-0.02,0.88,-4,0,-2,27,0
'[10:48:00.560 21/01/2026]',-100130.6,-181809.3,-123627.9,-5613.596,-375000,-375000,-146260.6,-117445.1,0.03,-0.02,0.88,-4,0,-2,27,0
'[10:48:00.564 21/01/2026]',-100248.6,-182081.3,-123651.9,-5667.285,-375000,-375000,-146134.2,-117355.9,0.03,-0.02,0.88,-4,0,-2,27,0
'[10:48:00.568 21/01/2026]',-100200.9,-182059.2,-123617.8,-5582.169,-375000,-375000,-146068.6,-117352.8,0.03,-0.02,0.88,-4,0,-2,27,0
'[10:48:00.572 21/01/2026]',-100109.1,-181840.5,-123569.6,-5507.961,-375000,-375000,-146124.3,-117423.7,0.03,-0.02,0.88,-4,0,-2,27,0
'[10:48:00.576 21/01/2026]',-100123,-181787.5,-123619.2,-5592.674,-375000,-375000,-146277.7,-117473.7,0.03,0.00,0.88,-4,0,-2,27,0
'[10:48:00.580 21/01/2026]',-100240.8,-182028.7,-123641.6,-5657.897,-375000,-375000,-146160.2,-117372.3,0.03,0.00,0.88,-4,0,-2,27,0
'[10:48:00.584 21/01/2026]',-100235.4,-182077.9,-123615.9,-5587.578,-375000,-375000,-146079.4,-117357.9,0.03,0.00,0.88,-4,0,-2,27,0
'[10:48:00.588 21/01/2026]',-100124.9,-181897,-123616.8,-5535.454,-375000,-375000,-146129.6,-117446.8,0.03,0.00,0.88,-4,0,-2,27,0
'[10:48:00.592 21/01/2026]',-100039.7,-181738.6,-123639.1,-5566.523,-375000,-375000,-146264.8,-117473.6,0.03,0.00,0.88,-4,0,-2,27,0
'[10:48:00.596 21/01/2026]',-100169.4,-181965.6,-123664.3,-5669.564,-375000,-375000,-146183,-117385,0.03,0.00,0.88,-4,0,-2,27,0
'[10:48:00.600 21/01/2026]',-100226,-182056.1,-123611.7,-5606.89,-375000,-375000,-146089.9,-117356.1,0.03,0.00,0.88,-4,0,-2,27,0
'[10:48:00.604 21/01/2026]',-100151.6,-181891.7,-123578.1,-5521.819,-375000,-375000,-146109.3,-117419.9,0.03,0.00,0.88,-4,0,-2,27,0
'[10:48:00.608 21/01/2026]',-100086.8,-181735.9,-123597.3,-5538.583,-375000,-375000,-146269.2,-117499.5,0.03,0.00,0.88,-4,0,-2,27,0
'[10:48:00.612 21/01/2026]',-100204.4,-181978.2,-123639.3,-5649.582,-375000,-375000,-146222.7,-117413.7,0.03,-0.02,0.86,-4,0,-2,27,0
'[10:48:00.616 21/01/2026]',-100270,-182136.6,-123636.1,-5627.23,-375000,-375000,-146104.9,-117359.3,0.03,-0.02,0.86,-4,0,-2,27,0
'[10:48:00.620 21/01/2026]',-100191.1,-182009.3,-123631.6,-5575.374,-375000,-375000,-146111.2,-117425.1,0.03,-0.02,0.86,-4,0,-2,27,0
'[10:48:00.624 21/01/2026]',-100098.9,-181819.2,-123646.3,-5580.962,-375000,-375000,-146255.3,-117510.6,0.03,-0.02,0.86,-4,0,-2,27,0
'[10:48:00.628 21/01/2026]',-100200.7,-181972.3,-123672.2,-5694.822,-375000,-375000,-146261.7,-117451.3,0.03,-0.02,0.86,-4,0,-2,27,0
'[10:48:00.632 21/01/2026]',-100297.1,-182209.9,-123674.3,-5684.093,-375000,-375000,-146136.8,-117381.3,0.03,-0.02,0.86,-4,0,-2,27,0
'[10:48:00.636 21/01/2026]',-100192.7,-182118.3,-123647.6,-5606.622,-375000,-375000,-146098.4,-117406.7,0.03,-0.02,0.86,-4,0,-2,27,0
'[10:48:00.640 21/01/2026]',-100161.8,-181918.5,-123647.4,-5603.448,-375000,-375000,-146226.3,-117509.8,0.03,-0.02,0.86,-4,0,-2,27,0
'[10:48:00.644 21/01/2026]',-100259.7,-182030.8,-123696.6,-5721.51,-375000,-375000,-146313.6,-117508.8,0.03,-0.02,0.86,-4,0,-2,27,0
'[10:48:00.648 21/01/2026]',-100356.1,-182290.6,-123686.6,-5720.437,-375000,-375000,-146166.6,-117402.7,0.05,0.00,0.88,-4,0,-2,27,0
'[10:48:00.652 21/01/2026]',-100309.3,-182226.7,-123643.3,-5629.957,-375000,-375000,-146115.3,-117415,0.05,0.00,0.88,-4,0,-2,27,0
'[10:48:00.656 21/01/2026]',-100194.4,-182003.6,-123631.2,-5583.51,-375000,-375000,-146208.6,-117506.3,0.05,0.00,0.88,-4,0,-2,27,0
'[10:48:00.660 21/01/2026]',-100194.2,-181979.2,-123682.3,-5678.997,-375000,-375000,-146310.9,-117508.1,0.05,0.00,0.88,-4,0,-2,27,0
'[10:48:00.664 21/01/2026]',-100303.2,-182225,-123693.1,-5720.213,-375000,-375000,-146177.6,-117406.3,0.05,0.00,0.88,-4,0,-2,27,0
'[10:48:00.668 21/01/2026]',-100284.5,-182217.9,-123645.8,-5633.578,-375000,-375000,-146116.5,-117406.3,0.05,0.00,0.88,-4,0,-2,27,0
'[10:48:00.672 21/01/2026]',-100173.3,-181995.6,-123612.8,-5570.233,-375000,-375000,-146170.4,-117481.6,0.05,0.00,0.88,-4,0,-2,27,0
'[10:48:00.676 21/01/2026]',-100143.7,-181929.9,-123656.8,-5644.352,-375000,-375000,-146307.2,-117522.9,0.05,0.00,0.88,-4,0,-2,27,0
'[10:48:00.680 21/01/2026]',-100282.1,-182197.4,-123685.9,-5726.07,-375000,-375000,-146208.4,-117424.2,0.05,0.00,0.88,-4,0,-2,27,0
'[10:48:00.684 21/01/2026]',-100294.9,-182218.8,-123643.1,-5652.354,-375000,-375000,-146119.6,-117400.1,0.03,0.00,0.86,-4,0,-2,27,0
'[10:48:00.688 21/01/2026]',-100169.9,-182027.6,-123619.1,-5576.805,-375000,-375000,-146142.2,-117465.7,0.03,0.00,0.86,-4,0,-2,27,0
'[10:48:00.692 21/01/2026]',-100130,-181930.6,-123670.7,-5638.451,-375000,-375000,-146309.7,-117541.2,0.03,0.00,0.86,-4,0,-2,27,0
'[10:48:00.696 21/01/2026]',-100288.3,-182166.8,-123715.4,-5746.276,-375000,-375000,-146244.9,-117458.1,0.03,0.00,0.86,-4,0,-2,27,0
'[10:48:00.700 21/01/2026]',-100318.5,-182248.9,-123656.8,-5669.699,-375000,-375000,-146136.5,-117404.9,0.03,0.00,0.86,-4,0,-2,27,0
'[10:48:00.704 21/01/2026]',-100214.8,-182077.9,-123607.8,-5579.397,-375000,-375000,-146129.3,-117451.3,0.03,0.00,0.86,-4,0,-2,27,0
'[10:48:00.708 21/01/2026]',-100129.7,-181905.1,-123621.5,-5592.674,-375000,-375000,-146276.1,-117526.9,0.03,0.00,0.86,-4,0,-2,27,0
'[10:48:00.712 21/01/2026]',-100235.2,-182107.1,-123679.3,-5709.306,-375000,-375000,-146253.2,-117453.2,0.03,0.00,0.86,-4,0,-2,27,0
'[10:48:00.716 21/01/2026]',-100287.5,-182230.4,-123660.4,-5670.503,-375000,-375000,-146137.1,-117395.4,0.03,0.00,0.86,-4,0,-2,27,0
'[10:48:00.720 21/01/2026]',-100205.5,-182098.4,-123632.9,-5600.051,-375000,-375000,-146124.7,-117450.7,0.03,0.00,0.88,-4,0,-2,27,0
'[10:48:00.724 21/01/2026]',-100139.4,-181929.4,-123646.8,-5604.968,-375000,-375000,-146274.5,-117557.7,0.03,0.00,0.88,-4,0,-2,27,0
'[10:48:00.728 21/01/2026]',-100223,-182066,-123682.7,-5702.243,-375000,-375000,-146283,-117501.1,0.03,0.00,0.88,-4,0,-2,27,0
'[10:48:00.732 21/01/2026]',-100295.3,-182254.7,-123653.4,-5678.55,-375000,-375000,-146137.4,-117404.9,0.03,0.00,0.88,-4,0,-2,27,0
'[10:48:00.736 21/01/2026]',-100240.5,-182150,-123616,-5603.269,-375000,-375000,-146100.7,-117438.8,0.03,0.00,0.88,-4,0,-2,27,0
'[10:48:00.740 21/01/2026]',-100126.8,-181924.4,-123607.6,-5571.977,-375000,-375000,-146202.9,-117525.5,0.03,0.00,0.88,-4,0,-2,27,0
'[10:48:00.744 21/01/2026]',-100148.3,-181979.6,-123672.5,-5679.042,-375000,-375000,-146263.3,-117497.4,0.03,0.00,0.88,-4,0,-2,27,0
'[10:48:00.748 21/01/2026]',-100272.2,-182233,-123696.4,-5712.614,-375000,-375000,-146144.2,-117413.2,0.03,0.00,0.88,-4,0,-2,27,0
'[10:48:00.752 21/01/2026]',-100255.4,-182190.2,-123621,-5621.776,-375000,-375000,-146096.2,-117433.4,0.03,0.00,0.88,-4,0,-2,27,0
'[10:48:00.756 21/01/2026]',-100159.6,-181954.8,-123589.4,-5562.813,-375000,-375000,-146169.2,-117513.2,0.03,-0.02,0.88,-4,0,-2,27,0
'[10:48:00.760 21/01/2026]',-100165.9,-181945.6,-123640.4,-5651.817,-375000,-375000,-146277.4,-117521.1,0.03,-0.02,0.88,-4,0,-2,27,0
'[10:48:00.764 21/01/2026]',-100294.5,-182217.6,-123676.3,-5704.702,-375000,-375000,-146161,-117420.2,0.03,-0.02,0.88,-4,0,-2,27,0
'[10:48:00.768 21/01/2026]',-100250.3,-182187.1,-123634.1,-5624.638,-375000,-375000,-146090.3,-117411.2,0.03,-0.02,0.88,-4,0,-2,27,0
'[10:48:00.772 21/01/2026]',-100132.8,-181990.9,-123601.4,-5567.954,-375000,-375000,-146140.8,-117493.5,0.03,-0.02,0.88,-4,0,-2,27,0
'[10:48:00.776 21/01/2026]',-100127.3,-181939.8,-123627.3,-5630.94,-375000,-375000,-146266.5,-117524.7,0.03,-0.02,0.88,-4,0,-2,27,0
'[10:48:00.780 21/01/2026]',-100268,-182191.8,-123673.4,-5714.089,-375000,-375000,-146173.2,-117426.4,0.03,-0.02,0.88,-4,0,-2,27,0
'[10:48:00.784 21/01/2026]',-100253.6,-182202.5,-123633.4,-5642.787,-375000,-375000,-146088.6,-117401.1,0.03,-0.02,0.88,-4,0,-2,27,0
'[10:48:00.788 21/01/2026]',-100144.1,-182023.8,-123594.2,-5571.396,-375000,-375000,-146112.2,-117471.7,0.03,-0.02,0.88,-4,0,-2,27,0
'[10:48:00.792 21/01/2026]',-100116.7,-181918.5,-123626.7,-5613.909,-375000,-375000,-146259.5,-117526.7,0.03,0.00,0.88,-4,0,-2,27,0
'[10:48:00.796 21/01/2026]',-100275.7,-182151.7,-123682.6,-5723.432,-375000,-375000,-146204.5,-117443,0.03,0.00,0.88,-4,0,-2,27,0
'[10:48:00.800 21/01/2026]',-100314.8,-182257.2,-123657.7,-5675.51,-375000,-375000,-146121.5,-117420,0.03,0.00,0.88,-4,0,-2,27,0
'[10:48:00.804 21/01/2026]',-100213.1,-182088.4,-123606.2,-5588.472,-375000,-375000,-146116.1,-117469.3,0.03,0.00,0.88,-4,0,-2,27,0
'[10:48:00.808 21/01/2026]',-100115.5,-181898.1,-123617.7,-5589.813,-375000,-375000,-146244.8,-117531.9,0.03,0.00,0.88,-4,0,-2,27,0
'[10:48:00.812 21/01/2026]',-100215,-182085.8,-123657.8,-5702.511,-375000,-375000,-146222.2,-117458.9,0.03,0.00,0.88,-4,0,-2,27,0
'[10:48:00.816 21/01/2026]',-100281.4,-182229.6,-123640.5,-5663.038,-375000,-375000,-146107,-117392.3,0.03,0.00,0.88,-4,0,-2,27,0
'[10:48:00.820 21/01/2026]',-100210,-182118.5,-123598.7,-5578.861,-375000,-375000,-146084.9,-117433.3,0.03,0.00,0.88,-4,0,-2,27,0
'[10:48:00.824 21/01/2026]',-100124.4,-181919.1,-123598.8,-5571.664,-375000,-375000,-146216.3,-117526.7,0.03,0.00,0.88,-4,0,-2,27,0
'[10:48:00.828 21/01/2026]',-100205.9,-182059.3,-123659.4,-5693.392,-375000,-375000,-146244.2,-117484.7,0.03,-0.02,0.88,-4,0,-2,27,0
'[10:48:00.832 21/01/2026]',-100278.5,-182261.2,-123658.7,-5678.371,-375000,-375000,-146129.9,-117408.2,0.03,-0.02,0.88,-4,0,-2,27,0
'[10:48:00.836 21/01/2026]',-100218.3,-182152.5,-123612.4,-5596.385,-375000,-375000,-146096.7,-117444,0.03,-0.02,0.88,-4,0,-2,27,0
'[10:48:00.840 21/01/2026]',-100102.1,-181927.5,-123595.4,-5564.109,-375000,-375000,-146191.8,-117527.6,0.03,-0.02,0.88,-4,0,-2,27,0
'[10:48:00.844 21/01/2026]',-100148.7,-181994.8,-123654.1,-5667.598,-375000,-375000,-146249.9,-117493.1,0.03,-0.02,0.88,-4,0,-2,27,0
'[10:48:00.848 21/01/2026]',-100287.1,-182232.9,-123656.2,-5689.279,-375000,-375000,-146129.1,-117406.2,0.03,-0.02,0.88,-4,0,-2,27,0
'[10:48:00.852 21/01/2026]',-100253.6,-182169.4,-123596.8,-5592.361,-375000,-375000,-146071.3,-117413,0.03,-0.02,0.88,-4,0,-2,27,0
'[10:48:00.856 21/01/2026]',-100126.4,-181958.7,-123580.9,-5545.691,-375000,-375000,-146149.6,-117505.5,0.03,-0.02,0.88,-4,0,-2,27,0
'[10:48:00.860 21/01/2026]',-100137.6,-181955,-123634.5,-5648.241,-375000,-375000,-146264.2,-117516.9,0.03,-0.02,0.88,-4,0,-2,27,0
'[10:48:00.864 21/01/2026]',-100281.9,-182203.4,-123670.1,-5708.099,-375000,-375000,-146165.3,-117428.1,0.03,0.00,0.88,-4,0,-2,27,0
'[10:48:00.868 21/01/2026]',-100277.1,-182220.6,-123636.3,-5635.053,-375000,-375000,-146107.8,-117436.6,0.03,0.00,0.88,-4,0,-2,27,0
'[10:48:00.872 21/01/2026]',-100166.8,-182030.2,-123593.4,-5568.132,-375000,-375000,-146145,-117511.6,0.03,0.00,0.88,-4,0,-2,27,0
'[10:48:00.876 21/01/2026]',-100137.2,-181973.4,-123620.7,-5632.818,-375000,-375000,-146267,-117523.9,0.03,0.00,0.88,-4,0,-2,27,0
'[10:48:00.880 21/01/2026]',-100273.9,-182249,-123673.6,-5724.55,-375000,-375000,-146184.1,-117442.5,0.03,0.00,0.88,-4,0,-2,27,0
'[10:48:00.884 21/01/2026]',-100291.1,-182294,-123643.5,-5659.864,-375000,-375000,-146110.6,-117428.3,0.03,0.00,0.88,-4,0,-2,27,0
'[10:48:00.888 21/01/2026]',-100191.5,-182123,-123609.2,-5593.703,-375000,-375000,-146134.9,-117498.8,0.03,0.00,0.88,-4,0,-2,27,0
'[10:48:00.892 21/01/2026]',-100131.2,-182032.2,-123648,-5648.956,-375000,-375000,-146284.6,-117568.1,0.03,0.00,0.88,-4,0,-2,27,0
'[10:48:00.896 21/01/2026]',-100257,-182285.7,-123688.1,-5739.079,-375000,-375000,-146215.6,-117472.4,0.03,0.00,0.88,-4,0,-2,27,0
'[10:48:00.900 21/01/2026]',-100300.5,-182391,-123648.4,-5683.512,-375000,-375000,-146125,-117440.3,0.02,-0.02,0.86,-4,0,-2,27,0
'[10:48:00.904 21/01/2026]',-100212.1,-182226.9,-123605.6,-5612.791,-375000,-375000,-146127.7,-117503.3,0.02,-0.02,0.86,-4,0,-2,27,0
'[10:48:00.908 21/01/2026]',-100131.3,-182047.9,-123622.6,-5632.55,-375000,-375000,-146271.3,-117578.8,0.02,-0.02,0.86,-4,0,-2,27,0
'[10:48:00.912 21/01/2026]',-100242.4,-182255.7,-123689.7,-5748.913,-375000,-375000,-146257.4,-117510.4,0.02,-0.02,0.86,-4,0,-2,27,0
'[10:48:00.916 21/01/2026]',-100308.9,-182375.7,-123673.7,-5712.078,-375000,-375000,-146148.8,-117444.4,0.02,-0.02,0.86,-4,0,-2,27,0
'[10:48:00.920 21/01/2026]',-100201,-182230.3,-123624.1,-5620.659,-375000,-375000,-146119,-117485.8,0.02,-0.02,0.86,-4,0,-2,27,0
'[10:48:00.924 21/01/2026]',-100082.2,-182042.2,-123596,-5600.408,-375000,-375000,-146235,-117568.7,0.02,-0.02,0.86,-4,0,-2,27,0
'[10:48:00.928 21/01/2026]',-100189.1,-182203,-123670.1,-5726.114,-375000,-375000,-146269,-117520.8,0.02,-0.02,0.86,-4,0,-2,27,0
'[10:48:00.932 21/01/2026]',-100278.5,-182388.6,-123682,-5726.785,-375000,-375000,-146159.8,-117444,0.02,-0.02,0.86,-4,0,-2,27,0
'[10:48:00.936 21/01/2026]',-100245.1,-182284,-123633.6,-5637.78,-375000,-375000,-146119.4,-117469.2,0.03,-0.02,0.88,-4,0,-2,27,0
'[10:48:00.940 21/01/2026]',-100158.3,-182087.5,-123607.2,-5607.695,-375000,-375000,-146229.8,-117569.7,0.03,-0.02,0.88,-4,0,-2,27,0
'[10:48:00.944 21/01/2026]',-100208,-182169.9,-123662.5,-5717.218,-375000,-375000,-146300,-117551.9,0.03,-0.02,0.88,-4,0,-2,27,0
'[10:48:00.948 21/01/2026]',-100306.6,-182379.9,-123674.6,-5721.555,-375000,-375000,-146163.9,-117444.2,0.03,-0.02,0.88,-4,0,-2,27,0
'[10:48:00.952 21/01/2026]',-100233.1,-182299.9,-123613.8,-5624.638,-375000,-375000,-146099.8,-117446.4,0.03,-0.02,0.88,-4,0,-2,27,0
'[10:48:00.956 21/01/2026]',-100112.3,-182069.6,-123595,-5587.131,-375000,-375000,-146183.8,-117542.1,0.03,-0.02,0.88,-4,0,-2,27,0
'[10:48:00.960 21/01/2026]',-100132.7,-182093.3,-123633.4,-5682.797,-375000,-375000,-146289.1,-117547.2,0.03,-0.02,0.88,-4,0,-2,27,0
'[10:48:00.964 21/01/2026]',-100271.8,-182353.1,-123667,-5731.523,-375000,-375000,-146178.3,-117447.6,0.03,-0.02,0.88,-4,0,-2,27,0
'[10:48:00.968 21/01/2026]',-100265.6,-182343.7,-123623.9,-5645.425,-375000,-375000,-146121,-117453.4,0.03,-0.02,0.88,-4,0,-2,27,0
'[10:48:00.972 21/01/2026]',-100168.2,-182139.6,-123594.4,-5587.98,-375000,-375000,-146171,-117538.7,0.03,-0.02,0.88,-4,0,-2,27,0
'[10:48:00.976 21/01/2026]',-100130.9,-182069.1,-123636,-5664.736,-375000,-375000,-146309.4,-117584.9,0.03,-0.02,0.88,-4,0,-2,27,0
'[10:48:00.980 21/01/2026]',-100275.9,-182333,-123689.3,-5752.489,-375000,-375000,-146235.2,-117499.7,0.03,-0.02,0.88,-4,0,-2,27,0
'[10:48:00.984 21/01/2026]',-100276.3,-182367,-123639.2,-5661.473,-375000,-375000,-146141.9,-117460.4,0.03,-0.02,0.88,-4,0,-2,27,0
'[10:48:00.988 21/01/2026]',-100150.9,-182150.5,-123587.6,-5582.169,-375000,-375000,-146139.8,-117513.6,0.03,-0.02,0.88,-4,0,-2,27,0
'[10:48:00.992 21/01/2026]',-100108.9,-182019.1,-123617.8,-5632.863,-375000,-375000,-146281.8,-117577.7,0.03,-0.02,0.88,-4,0,-2,27,0
'[10:48:00.996 21/01/2026]',-100223.5,-182268,-123671.7,-5726.695,-375000,-375000,-146208.6,-117474.5,0.03,-0.02,0.88,-4,0,-2,27,0
'[10:48:01.000 21/01/2026]',-100276.3,-182374.7,-123645.4,-5666.346,-375000,-375000,-146113.3,-117433.5,0.03,-0.02,0.88,-4,0,-2,27,0
'[10:48:01.004 21/01/2026]',-100193.3,-182205,-123579.1,-5576.492,-375000,-375000,-146106.2,-117492.2,0.03,-0.02,0.88,-4,0,-2,27,0
'[10:48:01.008 21/01/2026]',-100117,-182040.6,-123589.8,-5600.676,-375000,-375000,-146248,-117574.5,0.02,0.00,0.88,-4,0,-2,27,0
'[10:48:01.012 21/01/2026]',-100235.9,-182253.3,-123671.7,-5729.914,-375000,-375000,-146240.2,-117506.7,0.02,0.00,0.88,-4,0,-2,27,0
'[10:48:01.016 21/01/2026]',-100300.2,-182396.3,-123654.1,-5689.905,-375000,-375000,-146125.2,-117438.7,0.02,0.00,0.88,-4,0,-2,27,0
'[10:48:01.020 21/01/2026]',-100220,-182250.3,-123603.9,-5605.728,-375000,-375000,-146100.7,-117485.8,0.02,0.00,0.88,-4,0,-2,27,0
'[10:48:01.024 21/01/2026]',-100141,-182060,-123622.6,-5612.389,-375000,-375000,-146230.5,-117574.8,0.02,0.00,0.88,-4,0,-2,27,0
'[10:48:01.028 21/01/2026]',-100228.1,-182234.6,-123678.1,-5732.954,-375000,-375000,-146257.3,-117516.4,0.02,0.00,0.88,-4,0,-2,27,0
'[10:48:01.032 21/01/2026]',-100323.2,-182435,-123671.1,-5720.303,-375000,-375000,-146132.6,-117428.1,0.02,0.00,0.88,-4,0,-2,27,0
'[10:48:01.036 21/01/2026]',-100274.3,-182346.2,-123634.1,-5639.613,-375000,-375000,-146094.2,-117466.7,0.02,0.00,0.88,-4,0,-2,27,0
'[10:48:01.040 21/01/2026]',-100200.7,-182165.1,-123640.7,-5633.891,-375000,-375000,-146213,-117570.8,0.02,0.00,0.88,-4,0,-2,27,0
'[10:48:01.044 21/01/2026]',-100275.1,-182260.5,-123697.1,-5749.807,-375000,-375000,-146278.6,-117536,0.03,-0.02,0.88,-4,0,-2,27,0
'[10:48:01.048 21/01/2026]',-100415.3,-182521.5,-123723.8,-5777.658,-375000,-375000,-146158.7,-117452.2,0.03,-0.02,0.88,-4,0,-2,27,0
'[10:48:01.052 21/01/2026]',-100404.4,-182491,-123689.7,-5710.155,-375000,-375000,-146119.3,-117480.3,0.03,-0.02,0.88,-4,0,-2,27,0
'[10:48:01.056 21/01/2026]',-100320.3,-182302.9,-123682,-5682.528,-375000,-375000,-146198.6,-117577.8,0.03,-0.02,0.88,-4,0,-2,27,0
'[10:48:01.060 21/01/2026]',-100380.3,-182337.8,-123759.6,-5802.378,-375000,-375000,-146316.2,-117593.5,0.03,-0.02,0.88,-4,0,-2,27,0
'[10:48:01.064 21/01/2026]',-100559.7,-182614,-123802.9,-5857.9,-375000,-375000,-146192.5,-117473.9,0.03,-0.02,0.88,-4,0,-2,27,0
'[10:48:01.068 21/01/2026]',-100552.5,-182610.8,-123760,-5770.729,-375000,-375000,-146110.4,-117457,0.03,-0.02,0.88,-4,0,-2,27,0
'[10:48:01.072 21/01/2026]',-100470.2,-182429.7,-123723,-5716.816,-375000,-375000,-146153.3,-117541.3,0.03,-0.02,0.88,-4,0,-2,27,0
'[10:48:01.076 21/01/2026]',-100472.7,-182388,-123793.1,-5813.375,-375000,-375000,-146296,-117589.8,0.03,-0.02,0.88,-4,0,-2,27,0
'[10:48:01.080 21/01/2026]',-100610.8,-182647.1,-123864.6,-5913.199,-375000,-375000,-146219,-117495.9,0.03,0.00,0.88,-4,0,-2,27,0
'[10:48:01.084 21/01/2026]',-100644.8,-182719.8,-123816.2,-5839.304,-375000,-375000,-146142.4,-117482.9,0.03,0.00,0.88,-4,0,-2,27,0
'[10:48:01.088 21/01/2026]',-100589.1,-182556.8,-123779.8,-5773.679,-375000,-375000,-146164.6,-117561.7,0.03,0.00,0.88,-4,0,-2,27,0
'[10:48:01.092 21/01/2026]',-100539.1,-182430.9,-123807.9,-5813.197,-375000,-375000,-146296.4,-117612.1,0.03,0.00,0.88,-4,0,-2,27,0
'[10:48:01.096 21/01/2026]',-100687.2,-182655.6,-123851.2,-5904.303,-375000,-375000,-146219.6,-117494.8,0.03,0.00,0.88,-4,0,-2,27,0
'[10:48:01.100 21/01/2026]',-100740.6,-182752.2,-123831.4,-5851.731,-375000,-375000,-146129.4,-117459,0.03,0.00,0.88,-4,0,-2,27,0
'[10:48:01.104 21/01/2026]',-100650.8,-182585.8,-123789.7,-5780.34,-375000,-375000,-146127.3,-117526.4,0.03,0.00,0.88,-4,0,-2,27,0
'[10:48:01.108 21/01/2026]',-100563,-182398.4,-123790.3,-5784.05,-375000,-375000,-146257.2,-117587.1,0.03,0.00,0.88,-4,0,-2,27,0
'[10:48:01.112 21/01/2026]',-100661.6,-182584.8,-123859.2,-5894.11,-375000,-375000,-146231.1,-117504.6,0.03,0.00,0.88,-4,0,-2,27,0
'[10:48:01.116 21/01/2026]',-100719.6,-182723.2,-123852.4,-5862.013,-375000,-375000,-146121.9,-117441.2,0.03,0.00,0.88,-4,0,-2,27,0
'[10:48:01.120 21/01/2026]',-100622.9,-182553.4,-123784,-5764.604,-375000,-375000,-146097.7,-117485.8,0.03,0.00,0.88,-4,0,-2,27,0
'[10:48:01.124 21/01/2026]',-100530.6,-182329.4,-123782.2,-5747.795,-375000,-375000,-146219.5,-117572.5,0.03,0.00,0.88,-4,0,-2,27,0
'[10:48:01.128 21/01/2026]',-100624.7,-182450.1,-123838.6,-5855.754,-375000,-375000,-146245.4,-117519.6,0.03,0.00,0.88,-4,0,-2,27,0
'[10:48:01.132 21/01/2026]',-100684.5,-182624.1,-123836.1,-5840.019,-375000,-375000,-146131.3,-117436.9,0.03,0.00,0.88,-4,0,-2,27,0
'[10:48:01.136 21/01/2026]',-100594.8,-182501.7,-123767,-5741.09,-375000,-375000,-146082.2,-117465.5,0.03,0.00,0.88,-4,0,-2,27,0
'[10:48:01.140 21/01/2026]',-100466.1,-182250.2,-123725.2,-5689.1,-375000,-375000,-146168.5,-117542.7,0.03,0.00,0.88,-4,0,-2,27,0
'[10:48:01.144 21/01/2026]',-100522.3,-182291.7,-123773.1,-5783.246,-375000,-375000,-146230.3,-117510.9,0.03,0.00,0.88,-4,0,-2,27,0
'[10:48:01.148 21/01/2026]',-100620.4,-182490.5,-123787,-5793.304,-375000,-375000,-146115.9,-117422.8,0.03,0.00,0.88,-4,0,-2,27,0
'[10:48:01.152 21/01/2026]',-100534.2,-182390.7,-123731.5,-5689.1,-375000,-375000,-146053.5,-117429,0.02,-0.02,0.88,-4,0,-2,27,0
'[10:48:01.156 21/01/2026]',-100409.1,-182142.7,-123682.1,-5621.33,-375000,-375000,-146108.8,-117502.4,0.02,-0.02,0.88,-4,0,-2,27,0
'[10:48:01.160 21/01/2026]',-100426,-182127.5,-123723.9,-5711.362,-375000,-375000,-146226.8,-117514.3,0.02,-0.02,0.88,-4,0,-2,27,0
'[10:48:01.164 21/01/2026]',-100533,-182359.1,-123757.6,-5750.746,-375000,-375000,-146115,-117416.6,0.02,-0.02,0.88,-4,0,-2,27,0
'[10:48:01.168 21/01/2026]',-100466.8,-182312,-123698,-5653.024,-375000,-375000,-146037.1,-117402.7,0.02,-0.02,0.88,-4,0,-2,27,0
'[10:48:01.172 21/01/2026]',-100328.4,-182077.2,-123650.3,-5584.449,-375000,-375000,-146084,-117489.6,0.02,-0.02,0.88,-4,0,-2,27,0
'[10:48:01.176 21/01/2026]',-100307.7,-182013.8,-123680,-5652.935,-375000,-375000,-146217.2,-117527.5,0.02,-0.02,0.88,-4,0,-2,27,0
'[10:48:01.180 21/01/2026]',-100412.7,-182255.3,-123725.4,-5726.427,-375000,-375000,-146125.4,-117420.4,0.02,-0.02,0.88,-4,0,-2,27,0
'[10:48:01.184 21/01/2026]',-100387.7,-182254.2,-123674.6,-5632.147,-375000,-375000,-146029.3,-117386.7,0.02,-0.02,0.88,-4,0,-2,27,0
'[10:48:01.188 21/01/2026]',-100272,-182040.7,-123616.5,-5542.919,-375000,-375000,-146032.4,-117449.6,0.03,0.00,0.88,-4,0,-2,27,0
'[10:48:01.192 21/01/2026]',-100211,-181917.2,-123648.7,-5589.59,-375000,-375000,-146182.2,-117517.6,0.03,0.00,0.88,-4,0,-2,27,0
'[10:48:01.196 21/01/2026]',-100354.7,-182153.5,-123702.6,-5695.716,-375000,-375000,-146135.3,-117431.4,0.03,0.00,0.88,-4,0,-2,27,0
'[10:48:01.200 21/01/2026]',-100390.7,-182229.3,-123646.4,-5628.661,-375000,-375000,-146039.6,-117383.2,0.03,0.00,0.88,-4,0,-2,27,0
'[10:48:01.204 21/01/2026]',-100259.9,-182056.2,-123598.2,-5540.372,-375000,-375000,-146021.8,-117429,0.03,0.00,0.88,-4,0,-2,27,0
'[10:48:01.208 21/01/2026]',-100153.9,-181872.5,-123615.3,-5549.268,-375000,-375000,-146147.2,-117493.9,0.03,0.00,0.88,-4,0,-2,27,0
'[10:48:01.212 21/01/2026]',-100280.9,-182075.8,-123678.2,-5671.397,-375000,-375000,-146141.8,-117424.7,0.03,0.00,0.88,-4,0,-2,27,0
'[10:48:01.216 21/01/2026]',-100361.2,-182208.5,-123654.3,-5636.395,-375000,-375000,-146042.5,-117374.3,0.03,0.00,0.88,-4,0,-2,27,0
'[10:48:01.220 21/01/2026]',-100263.1,-182059.2,-123599.1,-5545.781,-375000,-375000,-146011.5,-117417.4,0.03,0.00,0.88,-4,0,-2,27,0
'[10:48:01.224 21/01/2026]',-100146,-181864.8,-123593.5,-5530.313,-375000,-375000,-146124.6,-117501.3,0.05,-0.02,0.88,-4,0,-2,27,0
'[10:48:01.228 21/01/2026]',-100230.4,-182015.7,-123656.5,-5646.9,-375000,-375000,-146164.4,-117460.7,0.05,-0.02,0.88,-4,0,-2,27,0
'[10:48:01.232 21/01/2026]',-100316.5,-182197.2,-123648.4,-5622.224,-375000,-375000,-146044.7,-117375.5,0.05,-0.02,0.88,-4,0,-2,27,0
'[10:48:01.236 21/01/2026]',-100261.4,-182101.2,-123601.6,-5543.858,-375000,-375000,-146014.9,-117419.7,0.05,-0.02,0.88,-4,0,-2,27,0
'[10:48:01.240 21/01/2026]',-100133.3,-181872.7,-123579.6,-5505.547,-375000,-375000,-146099.4,-117493.9,0.05,-0.02,0.88,-4,0,-2,27,0
'[10:48:01.244 21/01/2026]',-100173.7,-181938,-123634.7,-5609.796,-375000,-375000,-146162.3,-117464.6,0.05,-0.02,0.88,-4,0,-2,27,0
'[10:48:01.248 21/01/2026]',-100291.3,-182168.1,-123647.3,-5634.115,-375000,-375000,-146052.3,-117376.4,0.05,-0.02,0.88,-4,0,-2,27,0
'[10:48:01.252 21/01/2026]',-100231.3,-182098.3,-123603.8,-5549.67,-375000,-375000,-146001.8,-117387.6,0.05,-0.02,0.88,-4,0,-2,27,0
'[10:48:01.256 21/01/2026]',-100118.4,-181881.8,-123573.1,-5499.691,-375000,-375000,-146076,-117479.7,0.05,-0.02,0.88,-4,0,-2,27,0
'[10:48:01.260 21/01/2026]',-100136.5,-181876.6,-123610.3,-5579.264,-375000,-375000,-146171.5,-117477.2,0.03,-0.02,0.86,-4,0,-2,27,0
'[10:48:01.264 21/01/2026]',-100276.5,-182133.1,-123640.9,-5635.053,-375000,-375000,-146069.2,-117382.8,0.03,-0.02,0.86,-4,0,-2,27,0
'[10:48:01.268 21/01/2026]',-100251.4,-182112.7,-123593.9,-5551.458,-375000,-375000,-146007.8,-117389.8,0.03,-0.02,0.86,-4,0,-2,27,0
'[10:48:01.272 21/01/2026]',-100133.6,-181902.4,-123558.1,-5486.683,-375000,-375000,-146050,-117468.9,0.03,-0.02,0.86,-4,0,-2,27,0
'[10:48:01.276 21/01/2026]',-100096.3,-181833.3,-123594.1,-5549.58,-375000,-375000,-146171.1,-117500.7,0.03,-0.02,0.86,-4,0,-2,27,0
'[10:48:01.280 21/01/2026]',-100241.4,-182091.7,-123648.2,-5631.03,-375000,-375000,-146078.4,-117399.2,0.03,-0.02,0.86,-4,0,-2,27,0
'[10:48:01.284 21/01/2026]',-100242.9,-182126.1,-123599.1,-5552.263,-375000,-375000,-145990.6,-117371.7,0.03,-0.02,0.86,-4,0,-2,27,0
'[10:48:01.288 21/01/2026]',-100120.8,-181930.1,-123550.8,-5476.535,-375000,-375000,-146005.8,-117444.4,0.03,-0.02,0.86,-4,0,-2,27,0
'[10:48:01.292 21/01/2026]',-100081,-181807.6,-123583.3,-5528.301,-375000,-375000,-146150.1,-117505.4,0.03,-0.02,0.86,-4,0,-2,27,0
'[10:48:01.296 21/01/2026]',-100213.6,-182048.9,-123645.6,-5636.037,-375000,-375000,-146098.5,-117411.3,0.05,-0.02,0.88,-4,0,-2,27,0
'[10:48:01.300 21/01/2026]',-100247.3,-182135.8,-123607.5,-5573.631,-375000,-375000,-146005.8,-117372.2,0.05,-0.02,0.88,-4,0,-2,27,0
'[10:48:01.304 21/01/2026]',-100168.2,-181976.3,-123565.9,-5501.926,-375000,-375000,-146009,-117444.6,0.05,-0.02,0.88,-4,0,-2,27,0
'[10:48:01.308 21/01/2026]',-100090.4,-181801.1,-123569.2,-5509.794,-375000,-375000,-146135,-117509.7,0.05,-0.02,0.88,-4,0,-2,27,0
'[10:48:01.312 21/01/2026]',-100190.6,-181992.7,-123625.9,-5620.972,-375000,-375000,-146117.5,-117433.3,0.05,-0.02,0.88,-4,0,-2,27,0
'[10:48:01.316 21/01/2026]',-100240,-182131.5,-123611.8,-5579.576,-375000,-375000,-146009,-117371.7,0.05,-0.02,0.88,-4,0,-2,27,0
'[10:48:01.320 21/01/2026]',-100139.3,-181987.5,-123558.7,-5495.802,-375000,-375000,-145985.7,-117412.2,0.05,-0.02,0.88,-4,0,-2,27,0
'[10:48:01.324 21/01/2026]',-100046.1,-181776.4,-123553.1,-5482.48,-375000,-375000,-146111,-117498.6,0.05,-0.02,0.88,-4,0,-2,27,0
'[10:48:01.328 21/01/2026]',-100145.6,-181939.1,-123628.7,-5609.885,-375000,-375000,-146151.3,-117459.8,0.05,-0.02,0.88,-4,0,-2,27,0
'[10:48:01.332 21/01/2026]',-100239.6,-182132,-123637.3,-5600.363,-375000,-375000,-146041.9,-117386.6,0.03,-0.02,0.88,-4,0,-2,27,0
'[10:48:01.336 21/01/2026]',-100153.3,-182022.4,-123572.7,-5505.995,-375000,-375000,-145988.9,-117399.7,0.03,-0.02,0.88,-4,0,-2,27,0
'[10:48:01.340 21/01/2026]',-100066.4,-181818.3,-123541.4,-5475.149,-375000,-375000,-146088.1,-117487.5,0.03,-0.02,0.88,-4,0,-2,27,0
'[10:48:01.344 21/01/2026]',-100150.5,-181898.4,-123606.1,-5584.896,-375000,-375000,-146163.4,-117472.8,0.03,-0.02,0.88,-4,0,-2,27,0
'[10:48:01.348 21/01/2026]',-100259.7,-182127.4,-123608.5,-5595.357,-375000,-375000,-146042.2,-117372,0.03,-0.02,0.88,-4,0,-2,27,0
'[10:48:01.352 21/01/2026]',-100199.2,-182050,-123552.8,-5501.971,-375000,-375000,-145988.8,-117383.3,0.03,-0.02,0.88,-4,0,-2,27,0
'[10:48:01.356 21/01/2026]',-100090,-181842.7,-123541.7,-5464.286,-375000,-375000,-146068.2,-117483.9,0.03,-0.02,0.88,-4,0,-2,27,0
'[10:48:01.360 21/01/2026]',-100098.1,-181839.5,-123590,-5558.164,-375000,-375000,-146174.8,-117494.1,0.03,-0.02,0.88,-4,0,-2,27,0
'[10:48:01.364 21/01/2026]',-100227.7,-182093,-123616.8,-5608.008,-375000,-375000,-146063.7,-117385.5,0.03,-0.02,0.88,-4,0,-2,27,0
'[10:48:01.368 21/01/2026]',-100196.1,-182073.9,-123575.4,-5525.172,-375000,-375000,-145998.6,-117374.4,0.03,-0.02,0.88,-4,0,-2,27,0
'[10:48:01.372 21/01/2026]',-100056.8,-181858.2,-123533.9,-5452.529,-375000,-375000,-146034.3,-117453.1,0.03,-0.02,0.88,-4,0,-2,27,0
'[10:48:01.376 21/01/2026]',-100033.6,-181801.5,-123579.2,-5530.358,-375000,-375000,-146172,-117498.1,0.03,-0.02,0.88,-4,0,-2,27,0
'[10:48:01.380 21/01/2026]',-100213.3,-182070.9,-123636.5,-5622.894,-375000,-375000,-146101.2,-117412.6,0.03,-0.02,0.88,-4,0,-2,27,0
'[10:48:01.384 21/01/2026]',-100223.5,-182105.7,-123581.1,-5541.086,-375000,-375000,-146018.2,-117387,0.03,-0.02,0.88,-4,0,-2,27,0
'[10:48:01.388 21/01/2026]',-100113.4,-181899.6,-123529.4,-5458.832,-375000,-375000,-146024,-117449.2,0.03,-0.02,0.88,-4,0,-2,27,0
'[10:48:01.392 21/01/2026]',-100060.8,-181770.4,-123553,-5499.289,-375000,-375000,-146161.8,-117506.2,0.03,-0.02,0.88,-4,0,-2,27,0
'[10:48:01.396 21/01/2026]',-100181.1,-182001.8,-123618.8,-5605.415,-375000,-375000,-146111.4,-117416.6,0.03,-0.02,0.88,-4,0,-2,27,0
'[10:48:01.400 21/01/2026]',-100211.4,-182094.7,-123590.7,-5548.15,-375000,-375000,-146017.6,-117373,0.03,-0.02,0.88,-4,0,-2,27,0
'[10:48:01.404 21/01/2026]',-100119.6,-181931.3,-123551.5,-5480.647,-375000,-375000,-146017,-117437.3,0.05,0.00,0.88,-4,0,-2,27,0
'[10:48:01.408 21/01/2026]',-100036.6,-181768.5,-123550.9,-5490.706,-375000,-375000,-146151.8,-117518.1,0.05,0.00,0.88,-4,0,-2,27,0
'[10:48:01.412 21/01/2026]',-100171.6,-181981.5,-123613.7,-5601.75,-375000,-375000,-146131.2,-117441.3,0.05,0.00,0.88,-4,0,-2,27,0
'[10:48:01.416 21/01/2026]',-100241.6,-182131.1,-123598.8,-5568.356,-375000,-375000,-146026,-117382,0.05,0.00,0.88,-4,0,-2,27,0
'[10:48:01.420 21/01/2026]',-100142.1,-181980.6,-123535.9,-5476.222,-375000,-375000,-145994.2,-117421.2,0.05,0.00,0.88,-4,0,-2,27,0
'[10:48:01.424 21/01/2026]',-100059.4,-181789.2,-123550.5,-5481.363,-375000,-375000,-146128.9,-117519.7,0.05,0.00,0.88,-4,0,-2,27,0
'[10:48:01.428 21/01/2026]',-100143.3,-181930.9,-123625.7,-5605.907,-375000,-375000,-146156.6,-117467.1,0.05,0.00,0.88,-4,0,-2,27,0
'[10:48:01.432 21/01/2026]',-100227.5,-182111.2,-123601.3,-5581.812,-375000,-375000,-146027.8,-117372.2,0.05,0.00,0.88,-4,0,-2,27,0
'[10:48:01.436 21/01/2026]',-100151,-182003.8,-123544.4,-5488.828,-375000,-375000,-145982,-117398.9,0.05,0.00,0.88,-4,0,-2,27,0
'[10:48:01.440 21/01/2026]',-100042.9,-181796.3,-123522.5,-5452.797,-375000,-375000,-146079.4,-117488.9,0.03,0.00,0.88,-4,0,-2,27,0
'[10:48:01.444 21/01/2026]',-100104,-181881.9,-123597.3,-5570.725,-375000,-375000,-146155.5,-117469.7,0.03,0.00,0.88,-4,0,-2,27,0
'[10:48:01.448 21/01/2026]',-100217.6,-182111.6,-123621.5,-5593.077,-375000,-375000,-146038.7,-117375.1,0.03,0.00,0.88,-4,0,-2,27,0
'[10:48:01.452 21/01/2026]',-100186.4,-182062.6,-123576.8,-5516.947,-375000,-375000,-145998.2,-117405.8,0.03,0.00,0.88,-4,0,-2,27,0
'[10:48:01.456 21/01/2026]',-100078.7,-181839.7,-123530.4,-5458.43,-375000,-375000,-146064.8,-117493.6,0.03,0.00,0.88,-4,0,-2,27,0
'[10:48:01.460 21/01/2026]',-100093.1,-181840.9,-123584.9,-5553.872,-375000,-375000,-146169.9,-117498.6,0.03,0.00,0.88,-4,0,-2,27,0
'[10:48:01.464 21/01/2026]',-100232.8,-182097.8,-123620.4,-5611.718,-375000,-375000,-146061,-117397.7,0.03,0.00,0.88,-4,0,-2,27,0
'[10:48:01.468 21/01/2026]',-100201.9,-182067.7,-123567.5,-5519.137,-375000,-375000,-145980,-117382.9,0.03,0.00,0.88,-4,0,-2,27,0
'[10:48:01.472 21/01/2026]',-100073,-181856.7,-123528.7,-5448.953,-375000,-375000,-146023.8,-117462.8,0.03,0.00,0.88,-4,0,-2,27,0
'[10:48:01.476 21/01/2026]',-100039.9,-181791.3,-123563,-5516.544,-375000,-375000,-146155,-117501.5,0.03,0.00,0.88,-4,0,-2,27,0
'[10:48:01.480 21/01/2026]',-100181.1,-182049.1,-123614.2,-5599.067,-375000,-375000,-146062.4,-117397.4,0.03,0.00,0.88,-4,0,-2,27,0
'[10:48:01.484 21/01/2026]',-100183.1,-182090.5,-123573.9,-5531.699,-375000,-375000,-145989.2,-117384.1,0.03,0.00,0.88,-4,0,-2,27,0
'[10:48:01.488 21/01/2026]',-100078.9,-181888.2,-123525.3,-5454.228,-375000,-375000,-146004.8,-117454.4,0.03,0.00,0.88,-4,0,-2,27,0
'[10:48:01.492 21/01/2026]',-100048.4,-181759.5,-123544.4,-5501.524,-375000,-375000,-146147.7,-117512.2,0.03,0.00,0.88,-4,0,-2,27,0
'[10:48:01.496 21/01/2026]',-100193.5,-182021.8,-123620.6,-5619.184,-375000,-375000,-146100.9,-117434.1,0.03,0.00,0.88,-4,0,-2,27,0
'[10:48:01.500 21/01/2026]',-100229.4,-182128.8,-123596.9,-5558.297,-375000,-375000,-146001.6,-117390.3,0.03,0.00,0.88,-4,0,-2,27,0
'[10:48:01.504 21/01/2026]',-100124.5,-181954.8,-123544.2,-5470.634,-375000,-375000,-145986.4,-117432.7,0.03,0.00,0.88,-4,0,-2,27,0
'[10:48:01.508 21/01/2026]',-100028.8,-181769.3,-123531.9,-5467.818,-375000,-375000,-146111.2,-117501.1,0.03,0.00,0.88,-4,0,-2,27,0
'[10:48:01.512 21/01/2026]',-100156,-181965.2,-123602.8,-5585.566,-375000,-375000,-146095,-117421.5,0.03,-0.02,0.88,-4,0,-2,27,0
'[10:48:01.516 21/01/2026]',-100228.3,-182117.7,-123591.3,-5554.095,-375000,-375000,-145991.8,-117367.8,0.03,-0.02,0.88,-4,0,-2,27,0
'[10:48:01.520 21/01/2026]',-100137.7,-181976.5,-123536.9,-5466.477,-375000,-375000,-145964,-117410.3,0.03,-0.02,0.88,-4,0,-2,27,0
'[10:48:01.524 21/01/2026]',-100040.5,-181769.6,-123536.2,-5457.894,-375000,-375000,-146089.1,-117495.7,0.03,-0.02,0.88,-4,0,-2,27,0
'[10:48:01.528 21/01/2026]',-100116.6,-181893.5,-123599.8,-5582.393,-375000,-375000,-146133.3,-117460.2,0.03,-0.02,0.88,-4,0,-2,27,0
'[10:48:01.532 21/01/2026]',-100216.1,-182098,-123603.8,-5577.922,-375000,-375000,-146025.1,-117392.6,0.03,-0.02,0.88,-4,0,-2,27,0
'[10:48:01.536 21/01/2026]',-100154.2,-182022.4,-123541.9,-5479.217,-375000,-375000,-145963.6,-117403.8,0.03,-0.02,0.88,-4,0,-2,27,0
'[10:48:01.540 21/01/2026]',-100037.2,-181811.4,-123521.5,-5444.348,-375000,-375000,-146057.1,-117488.2,0.03,-0.02,0.88,-4,0,-2,27,0
'[10:48:01.544 21/01/2026]',-100085.2,-181881,-123585,-5555.034,-375000,-375000,-146127.6,-117461.5,0.03,-0.02,0.88,-4,0,-2,27,0
'[10:48:01.548 21/01/2026]',-100173.2,-182096.8,-123582.3,-5565.405,-375000,-375000,-146003.4,-117364.9,0.03,0.00,0.88,-4,0,-2,27,0
'[10:48:01.552 21/01/2026]',-100125.3,-182048.2,-123536.9,-5479.843,-375000,-375000,-145955,-117391.4,0.03,0.00,0.88,-4,0,-2,27,0
'[10:48:01.556 21/01/2026]',-100005.3,-181841.4,-123495.7,-5427.361,-375000,-375000,-146025.2,-117475.7,0.03,0.00,0.88,-4,0,-2,27,0
'[10:48:01.560 21/01/2026]',-100021.3,-181830.5,-123546.3,-5517.886,-375000,-375000,-146136.7,-117489.3,0.03,0.00,0.88,-4,0,-2,27,0
'[10:48:01.564 21/01/2026]',-100149,-182080.8,-123580.2,-5571.887,-375000,-375000,-146029.7,-117391.6,0.03,0.00,0.88,-4,0,-2,27,0
'[10:48:01.568 21/01/2026]',-100125.1,-182063.1,-123527.5,-5482.614,-375000,-375000,-145957.6,-117381.3,0.03,0.00,0.88,-4,0,-2,27,0
'[10:48:01.572 21/01/2026]',-100008.3,-181849.3,-123483.4,-5412.43,-375000,-375000,-145993.9,-117454.8,0.03,0.00,0.88,-4,0,-2,27,0
'[10:48:01.576 21/01/2026]',-99977.07,-181786.3,-123519.4,-5480.96,-375000,-375000,-146121,-117493.2,0.03,0.00,0.88,-4,0,-2,27,0
'[10:48:01.580 21/01/2026]',-100117.5,-182044.7,-123574.8,-5565.54,-375000,-375000,-146032.3,-117398.8,0.03,0.00,0.88,-4,0,-2,27,0
'[10:48:01.584 21/01/2026]',-100128.8,-182079.4,-123541.8,-5493.165,-375000,-375000,-145944.5,-117373.6,0.03,-0.02,0.86,-4,0,-2,27,0
'[10:48:01.588 21/01/2026]',-100000.6,-181888,-123492,-5419.493,-375000,-375000,-145970.8,-117443.6,0.03,-0.02,0.86,-4,0,-2,27,0
'[10:48:01.592 21/01/2026]',-99971.21,-181770.6,-123522.1,-5468.399,-375000,-375000,-146124.3,-117519.7,0.03,-0.02,0.86,-4,0,-2,27,0
'[10:48:01.596 21/01/2026]',-100107.6,-182015.8,-123579.4,-5576,-375000,-375000,-146075.5,-117431.5,0.03,-0.02,0.86,-4,0,-2,27,0
'[10:48:01.600 21/01/2026]',-100142.9,-182101.3,-123550.2,-5518.422,-375000,-375000,-145983,-117385.4,0.03,-0.02,0.86,-4,0,-2,27,0
'[10:48:01.604 21/01/2026]',-100045.7,-181919,-123496.6,-5432.457,-375000,-375000,-145970.3,-117435.7,0.03,-0.02,0.86,-4,0,-2,27,0
'[10:48:01.608 21/01/2026]',-99967.41,-181749.6,-123509,-5442.739,-375000,-375000,-146102.1,-117504.1,0.03,-0.02,0.86,-4,0,-2,27,0
'[10:48:01.612 21/01/2026]',-100057.2,-181955.8,-123576.9,-5560.622,-375000,-375000,-146088.9,-117435.7,0.03,-0.02,0.86,-4,0,-2,27,0
'[10:48:01.616 21/01/2026]',-100113.5,-182085.7,-123543.6,-5511.225,-375000,-375000,-145969.5,-117361,0.03,-0.02,0.86,-4,0,-2,27,0
'[10:48:01.620 21/01/2026]',-100053.6,-181942.6,-123481.3,-5425.349,-375000,-375000,-145940,-117406.6,0.05,-0.02,0.86,-4,0,-2,27,0
'[10:48:01.624 21/01/2026]',-99967.05,-181752.9,-123480,-5418.242,-375000,-375000,-146071.1,-117496.7,0.05,-0.02,0.86,-4,0,-2,27,0
'[10:48:01.628 21/01/2026]',-100061.9,-181906.4,-123558.1,-5542.16,-375000,-375000,-146102.7,-117456,0.05,-0.02,0.86,-4,0,-2,27,0
'[10:48:01.632 21/01/2026]',-100147.6,-182095,-123551.8,-5533.442,-375000,-375000,-145983.8,-117374.3,0.05,-0.02,0.86,-4,0,-2,27,0
'[10:48:01.636 21/01/2026]',-100068.2,-181983.7,-123492.4,-5439.163,-375000,-375000,-145936.9,-117394.8,0.05,-0.02,0.86,-4,0,-2,27,0
'[10:48:01.640 21/01/2026]',-99977.3,-181781.7,-123500.6,-5422.667,-375000,-375000,-146053.2,-117501.4,0.05,-0.02,0.86,-4,0,-2,27,0
'[10:48:01.644 21/01/2026]',-100025,-181856.2,-123560.2,-5533.308,-375000,-375000,-146129,-117487.6,0.05,-0.02,0.86,-4,0,-2,27,0
'[10:48:01.648 21/01/2026]',-100122.6,-182071,-123561.9,-5543.232,-375000,-375000,-145999.2,-117386.4,0.05,-0.02,0.86,-4,0,-2,27,0
'[10:48:01.652 21/01/2026]',-100083.5,-182015.2,-123508.1,-5457.804,-375000,-375000,-145952.1,-117399.4,0.05,-0.02,0.86,-4,0,-2,27,0
'[10:48:01.656 21/01/2026]',-99990.88,-181810.6,-123489.3,-5415.872,-375000,-375000,-146028.9,-117498,0.03,-0.02,0.88,-4,0,-2,27,0
'[10:48:01.660 21/01/2026]',-99999.42,-181808,-123536.3,-5506.486,-375000,-375000,-146128.1,-117495.4,0.03,-0.02,0.88,-4,0,-2,27,0
'[10:48:01.664 21/01/2026]',-100122.9,-182061,-123567.6,-5554.051,-375000,-375000,-146015,-117388.9,0.03,-0.02,0.88,-4,0,-2,27,0
'[10:48:01.668 21/01/2026]',-100098.8,-182047.7,-123523.3,-5474.166,-375000,-375000,-145952.8,-117393.5,0.03,-0.02,0.88,-4,0,-2,27,0
'[10:48:01.672 21/01/2026]',-99998.21,-181838.8,-123490.7,-5413.19,-375000,-375000,-145998,-117471.3,0.03,-0.02,0.88,-4,0,-2,27,0
'[10:48:01.676 21/01/2026]',-99969.7,-181762.4,-123531.5,-5479.396,-375000,-375000,-146124.3,-117498,0.03,-0.02,0.88,-4,0,-2,27,0
'[10:48:01.680 21/01/2026]',-100093.9,-182015.2,-123577.1,-5558.253,-375000,-375000,-146026.6,-117394.4,0.03,-0.02,0.88,-4,0,-2,27,0
'[10:48:01.684 21/01/2026]',-100106,-182058.3,-123529.9,-5486.146,-375000,-375000,-145951.4,-117376.4,0.03,-0.02,0.88,-4,0,-2,27,0
'[10:48:01.688 21/01/2026]',-100003.1,-181866.1,-123484.1,-5411.178,-375000,-375000,-145971.7,-117447.4,0.03,-0.02,0.88,-4,0,-2,27,0
'[10:48:01.692 21/01/2026]',-99968.62,-181744.9,-123518.2,-5460.308,-375000,-375000,-146117,-117513,0.03,-0.02,0.88,-4,0,-2,27,0
'[10:48:01.696 21/01/2026]',-100094.7,-181989.1,-123566.6,-5562.634,-375000,-375000,-146060.4,-117415.5,0.03,-0.02,0.88,-4,0,-2,27,0
'[10:48:01.700 21/01/2026]',-100124.4,-182084.6,-123532,-5499.959,-375000,-375000,-145962.8,-117375.8,0.03,-0.02,0.88,-4,0,-2,27,0
'[10:48:01.704 21/01/2026]',-100032.6,-181919.3,-123496.6,-5427.093,-375000,-375000,-145961.8,-117443.5,0.03,-0.02,0.88,-4,0,-2,27,0
'[10:48:01.708 21/01/2026]',-99953.33,-181748.1,-123511.4,-5446.896,-375000,-375000,-146100.3,-117516.9,0.03,-0.02,0.88,-4,0,-2,27,0
'[10:48:01.712 21/01/2026]',-100068.8,-181939.7,-123576.8,-5559.907,-375000,-375000,-146077,-117436.3,0.03,-0.02,0.88,-4,0,-2,27,0
'[10:48:01.716 21/01/2026]',-100127,-182094.5,-123565.7,-5530.09,-375000,-375000,-145976.2,-117381.1,0.03,-0.02,0.88,-4,0,-2,27,0
'[10:48:01.720 21/01/2026]',-100046.3,-181956.7,-123511.4,-5440.861,-375000,-375000,-145950.2,-117429.1,0.03,-0.02,0.88,-4,0,-2,27,0
'[10:48:01.724 21/01/2026]',-99951.68,-181745.3,-123511.4,-5430.893,-375000,-375000,-146071.6,-117511.7,0.03,-0.02,0.88,-4,0,-2,27,0
'[10:48:01.728 21/01/2026]',-100047.6,-181897.3,-123580.6,-5556.196,-375000,-375000,-146108.7,-117473.9,0.05,-0.02,0.88,-4,0,-2,27,0
'[10:48:01.732 21/01/2026]',-100139.2,-182091.7,-123545.6,-5531.118,-375000,-375000,-145978.7,-117372.1,0.05,-0.02,0.88,-4,0,-2,27,0
'[10:48:01.736 21/01/2026]',-100077.8,-181990.2,-123499.1,-5443.275,-375000,-375000,-145939.9,-117402,0.05,-0.02,0.88,-4,0,-2,27,0
'[10:48:01.740 21/01/2026]',-99967.68,-181774.4,-123495.4,-5417.794,-375000,-375000,-146043,-117501,0.05,-0.02,0.88,-4,0,-2,27,0
'[10:48:01.744 21/01/2026]',-100017.2,-181847.4,-123558,-5533.264,-375000,-375000,-146116.1,-117478.9,0.05,-0.02,0.88,-4,0,-2,27,0
'[10:48:01.748 21/01/2026]',-100137.8,-182076.5,-123567,-5552.263,-375000,-375000,-145991.8,-117380.9,0.05,-0.02,0.88,-4,0,-2,27,0
'[10:48:01.752 21/01/2026]',-100091.9,-182018.8,-123512.7,-5465.851,-375000,-375000,-145943.3,-117405.3,0.05,-0.02,0.88,-4,0,-2,27,0
'[10:48:01.756 21/01/2026]',-99995.76,-181804.3,-123496.2,-5421.147,-375000,-375000,-146017.1,-117494.2,0.05,-0.02,0.88,-4,0,-2,27,0
'[10:48:01.760 21/01/2026]',-100013.1,-181812.4,-123544.8,-5515.829,-375000,-375000,-146117.4,-117496.9,0.05,-0.02,0.88,-4,0,-2,27,0
'[10:48:01.764 21/01/2026]',-100148.5,-182078.2,-123576.6,-5571.44,-375000,-375000,-146002.8,-117391.4,0.03,0.00,0.88,-4,0,-2,27,0
'[10:48:01.768 21/01/2026]',-100134,-182068.3,-123537.7,-5489.767,-375000,-375000,-145931,-117387,0.03,0.00,0.88,-4,0,-2,27,0
'[10:48:01.772 21/01/2026]',-100034.3,-181872.2,-123510.5,-5432.949,-375000,-375000,-145974.2,-117471,0.03,0.00,0.88,-4,0,-2,27,0
'[10:48:01.776 21/01/2026]',-100040.4,-181832.2,-123560.8,-5517.215,-375000,-375000,-146116.9,-117519.7,0.03,0.00,0.88,-4,0,-2,27,0
'[10:48:01.780 21/01/2026]',-100187.8,-182100.1,-123609.9,-5600.721,-375000,-375000,-146025.1,-117417.1,0.03,0.00,0.88,-4,0,-2,27,0
'[10:48:01.784 21/01/2026]',-100212.3,-182150.9,-123574.7,-5529.911,-375000,-375000,-145938,-117386.6,0.03,0.00,0.88,-4,0,-2,27,0
'[10:48:01.788 21/01/2026]',-100127.5,-181972.6,-123536.1,-5461.559,-375000,-375000,-145955.6,-117456.7,0.03,0.00,0.88,-4,0,-2,27,0
'[10:48:01.792 21/01/2026]',-100108.9,-181874.4,-123577.5,-5519.942,-375000,-375000,-146104.7,-117523.2,0.03,0.00,0.88,-4,0,-2,27,0
'[10:48:01.796 21/01/2026]',-100262.5,-182144.1,-123644.4,-5637.467,-375000,-375000,-146054.7,-117438.2,0.03,0.00,0.88,-4,0,-2,27,0
'[10:48:01.800 21/01/2026]',-100336.8,-182269.3,-123632.2,-5598.754,-375000,-375000,-145971,-117403.7,0.03,-0.02,0.88,-4,0,-2,27,0
'[10:48:01.804 21/01/2026]',-100281.5,-182138.4,-123601.7,-5535.499,-375000,-375000,-145963.1,-117457.1,0.03,-0.02,0.88,-4,0,-2,27,0
'[10:48:01.808 21/01/2026]',-100238.8,-181997.8,-123627.4,-5563.751,-375000,-375000,-146096.9,-117534.9,0.03,-0.02,0.88,-4,0,-2,27,0
'[10:48:01.812 21/01/2026]',-100372.6,-182211.8,-123698,-5683.602,-375000,-375000,-146074.4,-117456,0.03,-0.02,0.88,-4,0,-2,27,0
'[10:48:01.816 21/01/2026]',-100466.4,-182387.5,-123681.6,-5653.739,-375000,-375000,-145961.8,-117390.8,0.03,-0.02,0.88,-4,0,-2,27,0
'[10:48:01.820 21/01/2026]',-100416.8,-182276.2,-123641.4,-5582.035,-375000,-375000,-145943.1,-117445,0.03,-0.02,0.88,-4,0,-2,27,0
'[10:48:01.824 21/01/2026]',-100346.2,-182099.8,-123656.6,-5583.287,-375000,-375000,-146063.7,-117532,0.03,-0.02,0.88,-4,0,-2,27,0
'[10:48:01.828 21/01/2026]',-100448.8,-182265.5,-123729.2,-5711.139,-375000,-375000,-146092.3,-117481,0.03,-0.02,0.88,-4,0,-2,27,0
'[10:48:01.832 21/01/2026]',-100564.1,-182487.4,-123745.6,-5716.548,-375000,-375000,-145990.5,-117408.6,0.03,-0.02,0.88,-4,0,-2,27,0
'[10:48:01.836 21/01/2026]',-100516.7,-182406.2,-123701.7,-5636.752,-375000,-375000,-145958,-117452.2,0.03,0.00,0.88,-4,0,-2,27,0
'[10:48:01.840 21/01/2026]',-100403.7,-182186.5,-123689.7,-5603.18,-375000,-375000,-146040.6,-117527.9,0.03,0.00,0.88,-4,0,-2,27,0
'[10:48:01.844 21/01/2026]',-100466.2,-182269.3,-123760,-5721.868,-375000,-375000,-146116.2,-117506.9,0.03,0.00,0.88,-4,0,-2,27,0
'[10:48:01.848 21/01/2026]',-100595.9,-182542.4,-123791.6,-5762.816,-375000,-375000,-146024.5,-117432.6,0.03,0.00,0.88,-4,0,-2,27,0
'[10:48:01.852 21/01/2026]',-100559.2,-182477.4,-123732.5,-5670.816,-375000,-375000,-145959.4,-117438.5,0.03,0.00,0.88,-4,0,-2,27,0
'[10:48:01.856 21/01/2026]',-100434.5,-182233.3,-123679,-5599.604,-375000,-375000,-145998.1,-117509.3,0.03,0.00,0.88,-4,0,-2,27,0
'[10:48:01.860 21/01/2026]',-100446.1,-182235.8,-123735,-5697.415,-375000,-375000,-146114.2,-117529.8,0.03,0.00,0.88,-4,0,-2,27,0
'[10:48:01.864 21/01/2026]',-100581.5,-182507.7,-123759.9,-5756.378,-375000,-375000,-146029.5,-117432.8,0.03,0.00,0.88,-4,0,-2,27,0
'[10:48:01.868 21/01/2026]',-100572.7,-182508.8,-123717.6,-5674.884,-375000,-375000,-145963.9,-117424.4,0.03,0.00,0.88,-4,0,-2,27,0
'[10:48:01.872 21/01/2026]',-100458.3,-182302.3,-123690.8,-5617.843,-375000,-375000,-146002.3,-117517.1,0.03,0.00,0.88,-4,0,-2,27,0
'[10:48:01.876 21/01/2026]',-100431.9,-182228,-123732.7,-5687.043,-375000,-375000,-146130.1,-117553.3,0.03,0.00,0.88,-4,0,-2,27,0
'[10:48:01.880 21/01/2026]',-100577.7,-182498,-123790.8,-5783.559,-375000,-375000,-146070.5,-117463.9,0.03,0.00,0.88,-4,0,-2,27,0
'[10:48:01.884 21/01/2026]',-100548.9,-182533.1,-123743,-5699.292,-375000,-375000,-145983.6,-117434.8,0.03,0.00,0.88,-4,0,-2,27,0
'[10:48:01.888 21/01/2026]',-100434.3,-182339.1,-123704.9,-5630.404,-375000,-375000,-145991.2,-117509.6,0.03,0.00,0.88,-4,0,-2,27,0
'[10:48:01.892 21/01/2026]',-100359,-182179.6,-123698,-5653.203,-375000,-375000,-146116.1,-117561.8,0.03,0.00,0.88,-4,0,-2,27,0
'[10:48:01.896 21/01/2026]',-100488.3,-182398.1,-123738.5,-5740.464,-375000,-375000,-146073.3,-117459.3,0.03,0.00,0.88,-4,0,-2,27,0
'[10:48:01.900 21/01/2026]',-100528.2,-182490.3,-123704.3,-5677.119,-375000,-375000,-145981.5,-117414,0.03,0.00,0.88,-4,0,-2,27,0
'[10:48:01.904 21/01/2026]',-100422.3,-182321.4,-123662.8,-5601.168,-375000,-375000,-145972.7,-117485.5,0.03,0.00,0.88,-4,0,-2,27,0
'[10:48:01.908 21/01/2026]',-100321.6,-182137.8,-123666.8,-5610.69,-375000,-375000,-146098,-117568,0.03,-0.02,0.88,-4,0,-2,27,0
'[10:48:01.912 21/01/2026]',-100425.8,-182323.4,-123735,-5727.813,-375000,-375000,-146102.2,-117491.9,0.03,-0.02,0.88,-4,0,-2,27,0
'[10:48:01.916 21/01/2026]',-100448.2,-182460,-123704.1,-5674.706,-375000,-375000,-145993.8,-117423.5,0.03,-0.02,0.88,-4,0,-2,27,0
'[10:48:01.920 21/01/2026]',-100359.6,-182317.1,-123645.8,-5582.08,-375000,-375000,-145944.9,-117445.9,0.03,-0.02,0.88,-4,0,-2,27,0
'[10:48:01.924 21/01/2026]',-100279.1,-182097.7,-123650,-5577.922,-375000,-375000,-146058,-117553.7,0.03,-0.02,0.88,-4,0,-2,27,0
'[10:48:01.928 21/01/2026]',-100354.9,-182218.3,-123702.6,-5695.403,-375000,-375000,-146098.3,-117502.5,0.03,-0.02,0.88,-4,0,-2,27,0
'[10:48:01.932 21/01/2026]',-100437.9,-182400.7,-123683,-5667.285,-375000,-375000,-145985.4,-117405.8,0.03,-0.02,0.88,-4,0,-2,27,0
'[10:48:01.936 21/01/2026]',-100359.1,-182288.9,-123625.8,-5574.525,-375000,-375000,-145937.5,-117440.4,0.03,-0.02,0.88,-4,0,-2,27,0
'[10:48:01.940 21/01/2026]',-100237.1,-182064.8,-123617.4,-5543.68,-375000,-375000,-146026,-117540.2,0.03,-0.02,0.88,-4,0,-2,27,0
'[10:48:01.944 21/01/2026]',-100275,-182127.2,-123681.9,-5657.271,-375000,-375000,-146106.5,-117517.4,0.02,0.00,0.88,-4,0,-2,27,0
'[10:48:01.948 21/01/2026]',-100392.6,-182360.4,-123692.1,-5678.147,-375000,-375000,-146019.9,-117436.9,0.02,0.00,0.88,-4,0,-2,27,0
'[10:48:01.952 21/01/2026]',-100334.5,-182279.5,-123625.4,-5573.81,-375000,-375000,-145952.5,-117439.5,0.02,0.00,0.88,-4,0,-2,27,0
'[10:48:01.956 21/01/2026]',-100201,-182036,-123588.8,-5513.236,-375000,-375000,-145996.1,-117517.7,0.02,0.00,0.88,-4,0,-2,27,0
'[10:48:01.960 21/01/2026]',-100194.7,-182024.4,-123638.5,-5609.215,-375000,-375000,-146107.3,-117528.8,0.02,0.00,0.88,-4,0,-2,27,0
'[10:48:01.964 21/01/2026]',-100323.9,-182278.3,-123666.9,-5660.042,-375000,-375000,-146022.8,-117425,0.02,0.00,0.88,-4,0,-2,27,0
'[10:48:01.968 21/01/2026]',-100304.5,-182257.4,-123612.6,-5568.981,-375000,-375000,-145951,-117420.2,0.02,0.00,0.88,-4,0,-2,27,0
'[10:48:01.972 21/01/2026]',-100181.4,-182037.7,-123580.3,-5503.044,-375000,-375000,-145977.3,-117501.6,0.02,0.00,0.88,-4,0,-2,27,0
'[10:48:01.976 21/01/2026]',-100145.6,-181960.8,-123612.7,-5566.747,-375000,-375000,-146097.5,-117535.3,0.02,0.00,0.88,-4,0,-2,27,0
'[10:48:01.980 21/01/2026]',-100282.3,-182238.5,-123661.2,-5657.45,-375000,-375000,-146044.3,-117444.4,0.03,-0.02,0.88,-4,0,-2,27,0
'[10:48:01.984 21/01/2026]',-100302.6,-182275,-123625.8,-5583.868,-375000,-375000,-145970.3,-117425.4,0.03,-0.02,0.88,-4,0,-2,27,0
'[10:48:01.988 21/01/2026]',-100180.8,-182046.7,-123566.3,-5493.165,-375000,-375000,-145958.3,-117483.8,0.03,-0.02,0.88,-4,0,-2,27,0
'[10:48:01.992 21/01/2026]',-100112.8,-181919.5,-123588.2,-5534.828,-375000,-375000,-146085.8,-117540,0.03,-0.02,0.88,-4,0,-2,27,0
'[10:48:01.996 21/01/2026]',-100221,-182150.5,-123629.2,-5629.957,-375000,-375000,-146050.9,-117445.2,0.03,-0.02,0.88,-4,0,-2,27,0
'[10:48:02.000 21/01/2026]',-100251.5,-182247.2,-123600.9,-5569.697,-375000,-375000,-145964.5,-117408.2,0.03,-0.02,0.88,-4,0,-2,27,0
'[10:48:02.004 21/01/2026]',-100157.2,-182068,-123551.5,-5484.895,-375000,-375000,-145940.7,-117462.9,0.03,-0.02,0.88,-4,0,-2,27,0
'[10:48:02.008 21/01/2026]',-100078.8,-181883.5,-123565.4,-5496.696,-375000,-375000,-146064.4,-117536.3,0.03,-0.02,0.88,-4,0,-2,27,0
'[10:48:02.012 21/01/2026]',-100177,-182075.7,-123617.3,-5608.544,-375000,-375000,-146065.3,-117462,0.03,-0.02,0.88,-4,0,-2,27,0
'[10:48:02.016 21/01/2026]',-100241.2,-182233.2,-123594.8,-5570.368,-375000,-375000,-145969.7,-117404.1,0.05,-0.02,0.86,-4,0,-2,27,0
'[10:48:02.020 21/01/2026]',-100154.8,-182091.2,-123550,-5483.464,-375000,-375000,-145934.7,-117449.9,0.05,-0.02,0.86,-4,0,-2,27,0
'[10:48:02.024 21/01/2026]',-100056.6,-181873.3,-123543,-5465.001,-375000,-375000,-146031.5,-117535,0.05,-0.02,0.86,-4,0,-2,27,0
'[10:48:02.028 21/01/2026]',-100139.8,-182009.7,-123606.7,-5589.769,-375000,-375000,-146085.8,-117509.5,0.05,-0.02,0.86,-4,0,-2,27,0
'[10:48:02.032 21/01/2026]',-100235.3,-182212.6,-123606.7,-5585.298,-375000,-375000,-145978.7,-117402.9,0.05,-0.02,0.86,-4,0,-2,27,0
'[10:48:02.036 21/01/2026]',-100156,-182096.5,-123546.7,-5483.777,-375000,-375000,-145912.5,-117415.5,0.05,-0.02,0.86,-4,0,-2,27,0
'[10:48:02.040 21/01/2026]',-100031.7,-181872.2,-123534.7,-5455.703,-375000,-375000,-145997.2,-117515.3,0.05,-0.02,0.86,-4,0,-2,27,0
'[10:48:02.044 21/01/2026]',-100065.8,-181944.4,-123597.7,-5572.245,-375000,-375000,-146086,-117506.1,0.05,-0.02,0.86,-4,0,-2,27,0
'[10:48:02.048 21/01/2026]',-100188.3,-182183.1,-123602.5,-5582.303,-375000,-375000,-145979.3,-117405.6,0.05,-0.02,0.86,-4,0,-2,27,0
'[10:48:02.052 21/01/2026]',-100159.9,-182132.6,-123551.6,-5498.216,-375000,-375000,-145923.8,-117424.2,0.03,-0.02,0.88,-4,0,-2,27,0
'[10:48:02.056 21/01/2026]',-100051.9,-181902.4,-123525.1,-5444.84,-375000,-375000,-145972.8,-117510.1,0.03,-0.02,0.88,-4,0,-2,27,0
'[10:48:02.060 21/01/2026]',-100055.6,-181893.9,-123569.8,-5535.812,-375000,-375000,-146082.8,-117525.2,0.03,-0.02,0.88,-4,0,-2,27,0
'[10:48:02.064 21/01/2026]',-100195.7,-182164.3,-123618.1,-5602.867,-375000,-375000,-146007.6,-117432.2,0.03,-0.02,0.88,-4,0,-2,27,0
'[10:48:02.068 21/01/2026]',-100164.6,-182130.3,-123566.7,-5512.208,-375000,-375000,-145923.3,-117406.2,0.03,-0.02,0.88,-4,0,-2,27,0
'[10:48:02.072 21/01/2026]',-100036.1,-181901.1,-123522.5,-5443.499,-375000,-375000,-145942.8,-117484.9,0.03,-0.02,0.88,-4,0,-2,27,0
'[10:48:02.076 21/01/2026]',-100005,-181848.1,-123559.6,-5512.745,-375000,-375000,-146072.8,-117526.2,0.03,-0.02,0.88,-4,0,-2,27,0
'[10:48:02.080 21/01/2026]',-100161.8,-182125.1,-123614.9,-5597.234,-375000,-375000,-146012.3,-117430.4,0.03,-0.02,0.88,-4,0,-2,27,0
'[10:48:02.084 21/01/2026]',-100172.6,-182161.6,-123583.4,-5532.101,-375000,-375000,-145939.2,-117405,0.03,-0.02,0.88,-4,0,-2,27,0
'[10:48:02.088 21/01/2026]',-100059.4,-181958.9,-123519.1,-5447.925,-375000,-375000,-145933.5,-117470.7,0.03,-0.02,0.88,-4,0,-2,27,0
'[10:48:02.092 21/01/2026]',-100018.4,-181821,-123540.5,-5482.927,-375000,-375000,-146061.9,-117529.8,0.03,-0.02,0.88,-4,0,-2,27,0
'[10:48:02.096 21/01/2026]',-100148.6,-182067,-123606.7,-5589.679,-375000,-375000,-146028,-117441.2,0.03,-0.02,0.88,-4,0,-2,27,0
'[10:48:02.100 21/01/2026]',-100176.5,-182171.7,-123562.3,-5522.848,-375000,-375000,-145932.1,-117392.4,0.03,-0.02,0.88,-4,0,-2,27,0
'[10:48:02.104 21/01/2026]',-100071.9,-181993.9,-123508.7,-5439.967,-375000,-375000,-145910.3,-117447.6,0.03,-0.02,0.88,-4,0,-2,27,0
'[10:48:02.108 21/01/2026]',-99977.65,-181803.5,-123540.1,-5466.164,-375000,-375000,-146048.6,-117535.2,0.03,-0.02,0.88,-4,0,-2,27,0
'[10:48:02.112 21/01/2026]',-100090.6,-182031.2,-123615.2,-5592.585,-375000,-375000,-146060.1,-117475.8,0.03,-0.02,0.88,-4,0,-2,27,0
'[10:48:02.116 21/01/2026]',-100169.9,-182183.8,-123582.1,-5548.105,-375000,-375000,-145955.3,-117410.9,0.03,-0.02,0.88,-4,0,-2,27,0
'[10:48:02.120 21/01/2026]',-100089,-182017.5,-123519.4,-5447.656,-375000,-375000,-145912.7,-117442.3,0.03,-0.02,0.88,-4,0,-2,27,0
'[10:48:02.124 21/01/2026]',-99989.45,-181801.2,-123513.8,-5431.787,-375000,-375000,-146017.8,-117525.8,0.03,0.00,0.88,-4,0,-2,27,0
'[10:48:02.128 21/01/2026]',-100062.8,-181945.9,-123578.7,-5558.745,-375000,-375000,-146061.5,-117489.8,0.03,0.00,0.88,-4,0,-2,27,0
'[10:48:02.132 21/01/2026]',-100167.3,-182160.8,-123574.3,-5548.105,-375000,-375000,-145953.9,-117393.6,0.03,0.00,0.88,-4,0,-2,27,0
'[10:48:02.136 21/01/2026]',-100109.2,-182049.5,-123531,-5463.168,-375000,-375000,-145914.4,-117433.2,0.03,0.00,0.88,-4,0,-2,27,0
'[10:48:02.140 21/01/2026]',-99977.47,-181820.4,-123509.7,-5424.232,-375000,-375000,-145994.7,-117513.5,0.03,0.00,0.88,-4,0,-2,27,0
'[10:48:02.144 21/01/2026]',-100037.8,-181889,-123572.6,-5531.878,-375000,-375000,-146069.3,-117489.3,0.03,0.00,0.88,-4,0,-2,27,0
'[10:48:02.148 21/01/2026]',-100162.7,-182131.7,-123579.7,-5548.329,-375000,-375000,-145954.8,-117387.7,0.03,0.00,0.88,-4,0,-2,27,0
'[10:48:02.152 21/01/2026]',-100106,-182069,-123531.8,-5461.291,-375000,-375000,-145898.1,-117409.7,0.03,0.00,0.88,-4,0,-2,27,0
'[10:48:02.156 21/01/2026]',-99981.95,-181848.2,-123517.5,-5427.853,-375000,-375000,-145971.1,-117508.7,0.03,0.00,0.88,-4,0,-2,27,0
'[10:48:02.160 21/01/2026]',-99994.64,-181854.8,-123575.2,-5525.172,-375000,-375000,-146079,-117515.2,0.03,-0.02,0.88,-4,0,-2,27,0
'[10:48:02.164 21/01/2026]',-100143.6,-182121.5,-123591.2,-5570.368,-375000,-375000,-145980.8,-117417,0.03,-0.02,0.88,-4,0,-2,27,0
'[10:48:02.168 21/01/2026]',-100131.5,-182098.4,-123548.2,-5494.148,-375000,-375000,-145913,-117410.7,0.03,-0.02,0.88,-4,0,-2,27,0
'[10:48:02.172 21/01/2026]',-99999.47,-181877.7,-123515.4,-5432.189,-375000,-375000,-145953,-117491.3,0.03,-0.02,0.88,-4,0,-2,27,0
'[10:48:02.176 21/01/2026]',-99976.89,-181813.6,-123545.9,-5484.492,-375000,-375000,-146076.7,-117522.6,0.03,-0.02,0.88,-4,0,-2,27,0
'[10:48:02.180 21/01/2026]',-100159.5,-182099.2,-123598.8,-5570.144,-375000,-375000,-145987.2,-117413.1,0.03,-0.02,0.88,-4,0,-2,27,0
'[10:48:02.184 21/01/2026]',-100188,-182150.7,-123564.8,-5510.018,-375000,-375000,-145916,-117406.1,0.03,-0.02,0.88,-4,0,-2,27,0
'[10:48:02.188 21/01/2026]',-100086.6,-181951.5,-123551.8,-5456.597,-375000,-375000,-145938.1,-117488.8,0.03,-0.02,0.88,-4,0,-2,27,0
'[10:48:02.192 21/01/2026]',-100062.5,-181838.2,-123579.5,-5503.625,-375000,-375000,-146068,-117521.3,0.03,-0.02,0.88,-4,0,-2,27,0
'[10:48:02.196 21/01/2026]',-100200,-182094.2,-123635.6,-5609.438,-375000,-375000,-146016.4,-117434.5,0.03,-0.02,0.86,-4,0,-2,27,0
'[10:48:02.200 21/01/2026]',-100260,-182178.8,-123617.8,-5555.258,-375000,-375000,-145917.5,-117383.9,0.03,-0.02,0.86,-4,0,-2,27,0
'[10:48:02.204 21/01/2026]',-100179.8,-182009.5,-123573.9,-5480.29,-375000,-375000,-145902.8,-117442.9,0.03,-0.02,0.86,-4,0,-2,27,0
'[10:48:02.208 21/01/2026]',-100109.8,-181864.7,-123601.1,-5515.561,-375000,-375000,-146053,-117539.1,0.03,-0.02,0.86,-4,0,-2,27,0
'[10:48:02.212 21/01/2026]',-100203.4,-182076.7,-123664.4,-5636.484,-375000,-375000,-146035.7,-117456.6,0.03,-0.02,0.86,-4,0,-2,27,0
'[10:48:02.216 21/01/2026]',-100305.9,-182247.9,-123653.7,-5597.413,-375000,-375000,-145930.5,-117395.3,0.03,-0.02,0.86,-4,0,-2,27,0
'[10:48:02.220 21/01/2026]',-100257,-182109.2,-123602.9,-5511.627,-375000,-375000,-145915.7,-117450.7,0.03,-0.02,0.86,-4,0,-2,27,0
'[10:48:02.224 21/01/2026]',-100153.4,-181900.2,-123582.1,-5488.426,-375000,-375000,-146032.5,-117535,0.03,-0.02,0.86,-4,0,-2,27,0
'[10:48:02.228 21/01/2026]',-100197.1,-182036.6,-123630.7,-5588.919,-375000,-375000,-146048.8,-117472,0.03,-0.02,0.86,-4,0,-2,27,0
'[10:48:02.232 21/01/2026]',-100302.1,-182221.3,-123630,-5586.327,-375000,-375000,-145933.8,-117399.8,0.03,-0.02,0.86,-4,0,-2,27,0
'[10:48:02.236 21/01/2026]',-100223.9,-182104.8,-123571.1,-5493.701,-375000,-375000,-145895.5,-117431.2,0.03,-0.02,0.86,-4,0,-2,27,0
'[10:48:02.240 21/01/2026]',-100117.9,-181908.7,-123578.6,-5474.925,-375000,-375000,-146001.8,-117524.1,0.03,-0.02,0.86,-4,0,-2,27,0
'[10:48:02.244 21/01/2026]',-100168.8,-181960.9,-123645.9,-5587.98,-375000,-375000,-146075.2,-117507.1,0.03,-0.02,0.86,-4,0,-2,27,0
'[10:48:02.248 21/01/2026]',-100248.7,-182183.3,-123631.4,-5591.378,-375000,-375000,-145939.6,-117397.9,0.03,-0.02,0.86,-4,0,-2,27,0
'[10:48:02.252 21/01/2026]',-100214.3,-182120.8,-123579.7,-5502.91,-375000,-375000,-145887.1,-117413.5,0.03,-0.02,0.86,-4,0,-2,27,0
'[10:48:02.256 21/01/2026]',-100099.2,-181894.5,-123562.3,-5455.837,-375000,-375000,-145963.2,-117498.6,0.03,-0.02,0.86,-4,0,-2,27,0
'[10:48:02.260 21/01/2026]',-100110.7,-181879.5,-123608.1,-5545.333,-375000,-375000,-146074.7,-117511.3,0.03,-0.02,0.86,-4,0,-2,27,0
'[10:48:02.264 21/01/2026]',-100234.1,-182129.5,-123636.8,-5597.681,-375000,-375000,-145963.1,-117412.7,0.03,-0.02,0.86,-4,0,-2,27,0
'[10:48:02.268 21/01/2026]',-100197.7,-182121.3,-123592.1,-5516.455,-375000,-375000,-145908.7,-117408.1,0.03,0.00,0.88,-4,0,-2,27,0
'[10:48:02.272 21/01/2026]',-100108.6,-181911.7,-123560.4,-5454.407,-375000,-375000,-145956.8,-117488.5,0.03,0.00,0.88,-4,0,-2,27,0
'[10:48:02.276 21/01/2026]',-100099.2,-181859.5,-123599.5,-5523.205,-375000,-375000,-146085.4,-117526.2,0.03,0.00,0.88,-4,0,-2,27,0
'[10:48:02.280 21/01/2026]',-100238.7,-182123.9,-123646,-5610.02,-375000,-375000,-146003.9,-117438.2,0.03,0.00,0.88,-4,0,-2,27,0
'[10:48:02.284 21/01/2026]',-100230.9,-182162.2,-123606.8,-5536.885,-375000,-375000,-145931.8,-117431.3,0.03,0.00,0.88,-4,0,-2,27,0
'[10:48:02.288 21/01/2026]',-100106.7,-181958.5,-123568.2,-5459.279,-375000,-375000,-145943.1,-117490.2,0.03,0.00,0.88,-4,0,-2,27,0
'[10:48:02.292 21/01/2026]',-100055,-181817.3,-123583.6,-5494.372,-375000,-375000,-146075.4,-117537.8,0.03,0.00,0.88,-4,0,-2,27,0
'[10:48:02.296 21/01/2026]',-100190.8,-182046.9,-123629.9,-5597.1,-375000,-375000,-146014.4,-117449,0.03,0.00,0.88,-4,0,-2,27,0
'[10:48:02.300 21/01/2026]',-100212.8,-182139.8,-123591.3,-5534.426,-375000,-375000,-145919.1,-117404.2,0.03,0.00,0.88,-4,0,-2,27,0
'[10:48:02.304 21/01/2026]',-100122.5,-181977.3,-123542.4,-5446.896,-375000,-375000,-145911.8,-117463.9,0.03,0.00,0.88,-4,0,-2,27,0
'[10:48:02.308 21/01/2026]',-100070.2,-181827,-123576.8,-5477.116,-375000,-375000,-146064.8,-117558.2,0.03,0.00,0.88,-4,0,-2,27,0
'[10:48:02.312 21/01/2026]',-100164.9,-182005.9,-123626.8,-5588.249,-375000,-375000,-146035.2,-117471.4,0.03,0.00,0.88,-4,0,-2,27,0
'[10:48:02.316 21/01/2026]',-100220.9,-182146.7,-123602.1,-5546.675,-375000,-375000,-145917,-117400.6,0.03,0.00,0.88,-4,0,-2,27,0
'[10:48:02.320 21/01/2026]',-100137.3,-182027.2,-123558.1,-5463.616,-375000,-375000,-145895,-117445.6,0.03,0.00,0.88,-4,0,-2,27,0
'[10:48:02.324 21/01/2026]',-100045.2,-181825.5,-123555.9,-5457.044,-375000,-375000,-146020,-117535.6,0.03,0.00,0.88,-4,0,-2,27,0
'[10:48:02.328 21/01/2026]',-100123.5,-181958.3,-123610.2,-5567.864,-375000,-375000,-146040.3,-117475.1,0.03,0.00,0.88,-4,0,-2,27,0
'[10:48:02.332 21/01/2026]',-100216.1,-182158.2,-123616.5,-5568.892,-375000,-375000,-145930,-117401.6,0.03,0.00,0.88,-4,0,-2,27,0
'[10:48:02.336 21/01/2026]',-100145,-182051.7,-123580.6,-5486.325,-375000,-375000,-145895.2,-117435.5,0.03,0.00,0.88,-4,0,-2,27,0
'[10:48:02.340 21/01/2026]',-100050.5,-181846.2,-123566,-5463.392,-375000,-375000,-146003.4,-117535,0.05,-0.02,0.86,-4,0,-2,27,0
'[10:48:02.344 21/01/2026]',-100108.9,-181906.2,-123615.7,-5571.217,-375000,-375000,-146068.4,-117510.8,0.05,-0.02,0.86,-4,0,-2,27,0
'[10:48:02.348 21/01/2026]',-100206.3,-182130.9,-123616.2,-5576.85,-375000,-375000,-145940.2,-117408.1,0.05,-0.02,0.86,-4,0,-2,27,0
'[10:48:02.352 21/01/2026]',-100167.8,-182094.4,-123574.6,-5493.433,-375000,-375000,-145893.8,-117426,0.05,-0.02,0.86,-4,0,-2,27,0
'[10:48:02.356 21/01/2026]',-100030,-181870.2,-123557.4,-5436.704,-375000,-375000,-145955.3,-117500.2,0.05,-0.02,0.86,-4,0,-2,27,0
'[10:48:02.360 21/01/2026]',-100069.3,-181872.3,-123603.8,-5528.883,-375000,-375000,-146060.2,-117510.3,0.05,-0.02,0.86,-4,0,-2,27,0
'[10:48:02.364 21/01/2026]',-100208.2,-182141.8,-123608.7,-5574.838,-375000,-375000,-145945.1,-117398.9,0.05,-0.02,0.86,-4,0,-2,27,0
'[10:48:02.368 21/01/2026]',-100201.1,-182120.6,-123577.8,-5501.167,-375000,-375000,-145894.3,-117411.3,0.05,-0.02,0.86,-4,0,-2,27,0
'[10:48:02.372 21/01/2026]',-100099,-181912.1,-123569.2,-5453.11,-375000,-375000,-145954.3,-117509.1,0.05,-0.02,0.86,-4,0,-2,27,0
'[10:48:02.376 21/01/2026]',-100056.8,-181836.5,-123577,-5505.771,-375000,-375000,-146064.8,-117525.8,0.03,-0.02,0.88,-4,0,-2,27,0
'[10:48:02.380 21/01/2026]',-100187.2,-182081.7,-123622.3,-5588.83,-375000,-375000,-145972,-117423.4,0.03,-0.02,0.88,-4,0,-2,27,0
'[10:48:02.384 21/01/2026]',-100205.9,-182130.4,-123582.4,-5515.963,-375000,-375000,-145901.1,-117410.3,0.03,-0.02,0.88,-4,0,-2,27,0
'[10:48:02.388 21/01/2026]',-100110.6,-181953.1,-123540.9,-5444.08,-375000,-375000,-145919.3,-117479.5,0.03,-0.02,0.88,-4,0,-2,27,0
'[10:48:02.392 21/01/2026]',-100039,-181819.6,-123568.4,-5481.497,-375000,-375000,-146054.2,-117536.5,0.03,-0.02,0.88,-4,0,-2,27,0
'[10:48:02.396 21/01/2026]',-100165.4,-182054.5,-123623.3,-5587.623,-375000,-375000,-145998,-117451.4,0.03,-0.02,0.88,-4,0,-2,27,0
'[10:48:02.400 21/01/2026]',-100217.7,-182158.9,-123599.1,-5534.917,-375000,-375000,-145903.2,-117398.8,0.03,-0.02,0.88,-4,0,-2,27,0
'[10:48:02.404 21/01/2026]',-100099.3,-181973,-123543.1,-5445.6,-375000,-375000,-145889.4,-117450.5,0.03,-0.02,0.88,-4,0,-2,27,0
'[10:48:02.408 21/01/2026]',-100016.9,-181777.2,-123565.4,-5467.505,-375000,-375000,-146034.4,-117532.8,0.03,-0.02,0.88,-4,0,-2,27,0
'[10:48:02.412 21/01/2026]',-100130.6,-181980.8,-123630.3,-5584.091,-375000,-375000,-146010.2,-117462.1,0.02,-0.02,0.88,-4,0,-2,27,0
'[10:48:02.416 21/01/2026]',-100199.2,-182162,-123606.3,-5545.87,-375000,-375000,-145902.6,-117403,0.02,-0.02,0.88,-4,0,-2,27,0
'[10:48:02.420 21/01/2026]',-100122.1,-182027.6,-123546,-5461.47,-375000,-375000,-145883.3,-117447.2,0.02,-0.02,0.88,-4,0,-2,27,0
'[10:48:02.424 21/01/2026]',-100030.9,-181808.6,-123540.1,-5447.031,-375000,-375000,-146010.8,-117536.6,0.02,-0.02,0.88,-4,0,-2,27,0
'[10:48:02.428 21/01/2026]',-100108.7,-181940.6,-123602.1,-5560.711,-375000,-375000,-146040.3,-117490.6,0.02,-0.02,0.88,-4,0,-2,27,0
'[10:48:02.432 21/01/2026]',-100208.1,-182142.8,-123604.8,-5551.189,-375000,-375000,-145915.9,-117405.9,0.02,-0.02,0.88,-4,0,-2,27,0
'[10:48:02.436 21/01/2026]',-100153.2,-182042.8,-123554.9,-5458.788,-375000,-375000,-145857.9,-117412.3,0.02,-0.02,0.88,-4,0,-2,27,0
'[10:48:02.440 21/01/2026]',-100052.4,-181817.7,-123558.4,-5436.659,-375000,-375000,-145965.7,-117507,0.02,-0.02,0.88,-4,0,-2,27,0
'[10:48:02.444 21/01/2026]',-100098.9,-181888,-123598.9,-5540.059,-375000,-375000,-146034.4,-117488.5,0.02,-0.02,0.88,-4,0,-2,27,0
'[10:48:02.448 21/01/2026]',-100234.6,-182120.2,-123628.7,-5571.485,-375000,-375000,-145917.4,-117394.2,0.03,-0.02,0.88,-4,0,-2,27,0
'[10:48:02.452 21/01/2026]',-100198.7,-182052.4,-123577.9,-5486.325,-375000,-375000,-145868.7,-117409.5,0.03,-0.02,0.88,-4,0,-2,27,0
'[10:48:02.456 21/01/2026]',-100081.9,-181828.9,-123548.7,-5425.305,-375000,-375000,-145929.4,-117480.4,0.03,-0.02,0.88,-4,0,-2,27,0
'[10:48:02.460 21/01/2026]',-100080.2,-181806.3,-123602.9,-5511.27,-375000,-375000,-146029.1,-117488.8,0.03,-0.02,0.88,-4,0,-2,27,0
'[10:48:02.464 21/01/2026]',-100194,-182048.6,-123631.4,-5558.208,-375000,-375000,-145910.3,-117379.6,0.03,-0.02,0.88,-4,0,-2,27,0
'[10:48:02.468 21/01/2026]',-100183.3,-182018.3,-123570.8,-5471.751,-375000,-375000,-145849.2,-117380,0.03,-0.02,0.88,-4,0,-2,27,0
'[10:48:02.472 21/01/2026]',-100097.3,-181807.5,-123531.2,-5406.842,-375000,-375000,-145893.1,-117459.2,0.03,-0.02,0.88,-4,0,-2,27,0
'[10:48:02.476 21/01/2026]',-100071.1,-181756.8,-123568.8,-5478.502,-375000,-375000,-146022.4,-117497.3,0.03,-0.02,0.88,-4,0,-2,27,0
'[10:48:02.480 21/01/2026]',-100194.4,-182008.7,-123629,-5559.415,-375000,-375000,-145926.9,-117391.8,0.03,-0.02,0.88,-4,0,-2,27,0
'[10:48:02.484 21/01/2026]',-100189.1,-182039.9,-123591.3,-5484.447,-375000,-375000,-145840.8,-117363.6,0.03,0.00,0.88,-4,0,-2,27,0
'[10:48:02.488 21/01/2026]',-100082.5,-181835.3,-123538.1,-5412.743,-375000,-375000,-145862.3,-117436.3,0.03,0.00,0.88,-4,0,-2,27,0
'[10:48:02.492 21/01/2026]',-100046.9,-181708.1,-123560.3,-5458.698,-375000,-375000,-146008.7,-117506.7,0.03,0.00,0.88,-4,0,-2,27,0
'[10:48:02.496 21/01/2026]',-100154.1,-181944.6,-123613.1,-5555.213,-375000,-375000,-145943.6,-117407.2,0.03,0.00,0.88,-4,0,-2,27,0
'[10:48:02.500 21/01/2026]',-100196.9,-182056.8,-123599.4,-5499.378,-375000,-375000,-145853.2,-117363.9,0.03,0.00,0.88,-4,0,-2,27,0
'[10:48:02.504 21/01/2026]',-100105.3,-181897.9,-123535.6,-5413.101,-375000,-375000,-145849.1,-117422.7,0.03,0.00,0.88,-4,0,-2,27,0
'[10:48:02.508 21/01/2026]',-100039.1,-181715.3,-123547.9,-5429.999,-375000,-375000,-145987.7,-117502.2,0.03,0.00,0.88,-4,0,-2,27,0
'[10:48:02.512 21/01/2026]',-100141,-181907.8,-123603.3,-5549.223,-375000,-375000,-145970.6,-117423.5,0.03,0.00,0.88,-4,0,-2,27,0
'[10:48:02.516 21/01/2026]',-100198.5,-182053.5,-123595.4,-5518.109,-375000,-375000,-145870.5,-117367.6,0.03,0.00,0.88,-4,0,-2,27,0
'[10:48:02.520 21/01/2026]',-100139.4,-181943.5,-123557.7,-5450.92,-375000,-375000,-145866.7,-117431.1,0.03,-0.02,0.88,-4,0,-2,27,0
'[10:48:02.524 21/01/2026]',-100043.6,-181738,-123540.1,-5417.616,-375000,-375000,-145972.1,-117500.7,0.03,-0.02,0.88,-4,0,-2,27,0
'[10:48:02.528 21/01/2026]',-100122.2,-181848.3,-123591.3,-5518.288,-375000,-375000,-145985.3,-117445.3,0.03,-0.02,0.88,-4,0,-2,27,0
'[10:48:02.532 21/01/2026]',-100198.2,-182027.1,-123589.2,-5510.867,-375000,-375000,-145872.7,-117373.4,0.03,-0.02,0.88,-4,0,-2,27,0
'[10:48:02.536 21/01/2026]',-100116.1,-181928.4,-123533.7,-5416.319,-375000,-375000,-145827.3,-117380.7,0.03,-0.02,0.88,-4,0,-2,27,0
'[10:48:02.540 21/01/2026]',-100035.5,-181725.1,-123531.6,-5394.325,-375000,-375000,-145934,-117487.9,0.03,-0.02,0.88,-4,0,-2,27,0
'[10:48:02.544 21/01/2026]',-100080.2,-181782.5,-123599.9,-5511.896,-375000,-375000,-146006.6,-117475.8,0.03,-0.02,0.88,-4,0,-2,27,0
'[10:48:02.548 21/01/2026]',-100185.7,-182027.8,-123608.7,-5525.977,-375000,-375000,-145884,-117380.8,0.03,-0.02,0.88,-4,0,-2,27,0
'[10:48:02.552 21/01/2026]',-100151.1,-181990,-123544.8,-5438,-375000,-375000,-145833.1,-117394.8,0.03,-0.02,0.88,-4,0,-2,27,0
'[10:48:02.556 21/01/2026]',-100033.5,-181775.4,-123523.8,-5390.347,-375000,-375000,-145899.1,-117485,0.03,0.00,0.88,-4,0,-2,27,0
'[10:48:02.560 21/01/2026]',-100056.6,-181782.9,-123590.3,-5496.249,-375000,-375000,-146009.8,-117496.4,0.03,0.00,0.88,-4,0,-2,27,0
'[10:48:02.564 21/01/2026]',-100181.6,-182014.9,-123591.2,-5530,-375000,-375000,-145891.1,-117379.8,0.03,0.00,0.88,-4,0,-2,27,0
'[10:48:02.568 21/01/2026]',-100171.4,-182000.9,-123547.5,-5447.165,-375000,-375000,-145822.7,-117367.3,0.03,0.00,0.88,-4,0,-2,27,0
'[10:48:02.572 21/01/2026]',-100065,-181801.7,-123528.9,-5396.56,-375000,-375000,-145866,-117452.8,0.03,0.00,0.88,-4,0,-2,27,0
'[10:48:02.576 21/01/2026]',-100052.6,-181743.6,-123576.2,-5473.54,-375000,-375000,-145999.6,-117496.1,0.03,0.00,0.88,-4,0,-2,27,0
'[10:48:02.580 21/01/2026]',-100201.5,-182001.5,-123628.3,-5559.728,-375000,-375000,-145918.4,-117389.7,0.03,0.00,0.88,-4,0,-2,27,0
'[10:48:02.584 21/01/2026]',-100208.3,-182036,-123582,-5482.346,-375000,-375000,-145833.3,-117363.5,0.03,0.00,0.88,-4,0,-2,27,0
'[10:48:02.588 21/01/2026]',-100110.1,-181876,-123549.7,-5418.197,-375000,-375000,-145845.8,-117435,0.03,0.00,0.88,-4,0,-2,27,0
'[10:48:02.592 21/01/2026]',-100070.2,-181744.8,-123569.3,-5460.665,-375000,-375000,-145979.5,-117492.7,0.02,-0.02,0.86,-4,0,-2,27,0
'[10:48:02.596 21/01/2026]',-100227.3,-181995.7,-123637.6,-5574.659,-375000,-375000,-145941,-117412.5,0.02,-0.02,0.86,-4,0,-2,27,0
'[10:48:02.600 21/01/2026]',-100285,-182098.1,-123617.5,-5522.893,-375000,-375000,-145853.9,-117373.2,0.02,-0.02,0.86,-4,0,-2,27,0
'[10:48:02.604 21/01/2026]',-100216.3,-181953.6,-123586.3,-5455.032,-375000,-375000,-145843.2,-117427.8,0.02,-0.02,0.86,-4,0,-2,27,0
'[10:48:02.608 21/01/2026]',-100170.5,-181804.7,-123624.1,-5489.186,-375000,-375000,-145979.2,-117513.4,0.02,-0.02,0.86,-4,0,-2,27,0
'[10:48:02.612 21/01/2026]',-100309.4,-182028,-123687.4,-5618.692,-375000,-375000,-145976.6,-117447.6,0.02,-0.02,0.86,-4,0,-2,27,0
'[10:48:02.616 21/01/2026]',-100408.9,-182191.6,-123682.8,-5592.406,-375000,-375000,-145869.9,-117364.6,0.02,-0.02,0.86,-4,0,-2,27,0
'[10:48:02.620 21/01/2026]',-100379.9,-182092.7,-123666.7,-5535.186,-375000,-375000,-145861,-117434.4,0.02,-0.02,0.86,-4,0,-2,27,0
'[10:48:02.624 21/01/2026]',-100306.4,-181907.8,-123674.8,-5537.242,-375000,-375000,-145969.5,-117518.9,0.02,-0.02,0.86,-4,0,-2,27,0
'[10:48:02.628 21/01/2026]',-100437.7,-182076.4,-123752.1,-5674.75,-375000,-375000,-146016.3,-117476.6,0.03,-0.02,0.88,-4,0,-2,27,0
'[10:48:02.632 21/01/2026]',-100585.8,-182321.2,-123769.2,-5679.31,-375000,-375000,-145913.4,-117402.5,0.03,-0.02,0.88,-4,0,-2,27,0
'[10:48:02.636 21/01/2026]',-100542.4,-182253.4,-123730.6,-5594.686,-375000,-375000,-145860.1,-117423,0.03,-0.02,0.88,-4,0,-2,27,0
'[10:48:02.640 21/01/2026]',-100457.1,-182075,-123719.4,-5579.487,-375000,-375000,-145953.6,-117520,0.03,-0.02,0.88,-4,0,-2,27,0
'[10:48:02.644 21/01/2026]',-100516.1,-182146.2,-123783.1,-5691.827,-375000,-375000,-146024.5,-117498.5,0.03,-0.02,0.88,-4,0,-2,27,0
'[10:48:02.648 21/01/2026]',-100653.9,-182399.3,-123808.9,-5721.42,-375000,-375000,-145915.8,-117400,0.03,-0.02,0.88,-4,0,-2,27,0
'[10:48:02.652 21/01/2026]',-100624.1,-182356.9,-123755.6,-5640.105,-375000,-375000,-145865.2,-117426.1,0.03,-0.02,0.88,-4,0,-2,27,0
'[10:48:02.656 21/01/2026]',-100507.3,-182140.7,-123727.9,-5590.842,-375000,-375000,-145919.6,-117509.5,0.03,-0.02,0.88,-4,0,-2,27,0
'[10:48:02.660 21/01/2026]',-100525.4,-182160.6,-123795.7,-5697.906,-375000,-375000,-146033.5,-117523.4,0.03,-0.02,0.88,-4,0,-2,27,0
'[10:48:02.664 21/01/2026]',-100703.4,-182446.8,-123861.1,-5780.116,-375000,-375000,-145957.6,-117445.3,0.03,0.00,0.86,-4,0,-2,27,0
'[10:48:02.668 21/01/2026]',-100670.6,-182431.2,-123784.4,-5680.875,-375000,-375000,-145881.3,-117437.9,0.03,0.00,0.86,-4,0,-2,27,0
'[10:48:02.672 21/01/2026]',-100559.7,-182213.6,-123727.9,-5597.458,-375000,-375000,-145898.8,-117501.9,0.03,0.00,0.86,-4,0,-2,27,0
'[10:48:02.676 21/01/2026]',-100545.9,-182146.5,-123769.1,-5670.19,-375000,-375000,-146022.6,-117533.5,0.03,0.00,0.86,-4,0,-2,27,0
'[10:48:02.680 21/01/2026]',-100664.7,-182406.3,-123808.3,-5748.689,-375000,-375000,-145948.2,-117437.9,0.03,0.00,0.86,-4,0,-2,27,0
'[10:48:02.684 21/01/2026]',-100657.8,-182458.9,-123774.7,-5675.018,-375000,-375000,-145866.5,-117400.4,0.03,0.00,0.86,-4,0,-2,27,0
'[10:48:02.688 21/01/2026]',-100544.6,-182267.4,-123727.6,-5604.387,-375000,-375000,-145877.8,-117479.6,0.03,0.00,0.86,-4,0,-2,27,0
'[10:48:02.692 21/01/2026]',-100475.4,-182127.4,-123739.3,-5639.881,-375000,-375000,-146010,-117544.1,0.03,0.00,0.86,-4,0,-2,27,0
'[10:48:02.696 21/01/2026]',-100599.6,-182361.5,-123796,-5741.537,-375000,-375000,-145972.8,-117458.7,0.03,0.00,0.86,-4,0,-2,27,0
'[10:48:02.700 21/01/2026]',-100627.7,-182462.3,-123760.8,-5676.091,-375000,-375000,-145883.6,-117418.4,0.03,0.00,0.88,-4,0,-2,27,0
'[10:48:02.704 21/01/2026]',-100507.3,-182274.4,-123697.3,-5588.428,-375000,-375000,-145869.8,-117478.1,0.03,0.00,0.88,-4,0,-2,27,0
'[10:48:02.708 21/01/2026]',-100400.7,-182091.2,-123703.5,-5602.107,-375000,-375000,-146007.7,-117567.2,0.03,0.00,0.88,-4,0,-2,27,0
'[10:48:02.712 21/01/2026]',-100458.1,-182251.5,-123744.7,-5693.347,-375000,-375000,-145987.5,-117484,0.03,0.00,0.88,-4,0,-2,27,0
'[10:48:02.716 21/01/2026]',-100482.6,-182373.9,-123697.4,-5628.125,-375000,-375000,-145865.1,-117399,0.03,0.00,0.88,-4,0,-2,27,0
'[10:48:02.720 21/01/2026]',-100380.1,-182216.2,-123640.5,-5536.482,-375000,-375000,-145830.2,-117436.5,0.03,0.00,0.88,-4,0,-2,27,0
'[10:48:02.724 21/01/2026]',-100264.7,-181992.5,-123627.2,-5519.718,-375000,-375000,-145941.2,-117521.9,0.03,0.00,0.88,-4,0,-2,27,0
'[10:48:02.728 21/01/2026]',-100328.4,-182110.1,-123681.7,-5627.364,-375000,-375000,-145975,-117478.9,0.03,0.00,0.88,-4,0,-2,27,0
'[10:48:02.732 21/01/2026]',-100407.4,-182304.3,-123665.7,-5609.796,-375000,-375000,-145868.8,-117404.9,0.03,0.00,0.88,-4,0,-2,27,0
'[10:48:02.736 21/01/2026]',-100318,-182181.1,-123600.9,-5512.029,-375000,-375000,-145822.5,-117435.8,0.03,-0.02,0.88,-4,0,-2,27,0
'[10:48:02.740 21/01/2026]',-100194.3,-181960.3,-123586.4,-5478.01,-375000,-375000,-145918.1,-117530.6,0.03,-0.02,0.88,-4,0,-2,27,0
'[10:48:02.744 21/01/2026]',-100237.8,-182038.2,-123652.5,-5591.512,-375000,-375000,-145994.7,-117509,0.03,-0.02,0.88,-4,0,-2,27,0
'[10:48:02.748 21/01/2026]',-100316.4,-182237.6,-123650.6,-5597.145,-375000,-375000,-145880.8,-117412.1,0.03,-0.02,0.88,-4,0,-2,27,0
'[10:48:02.752 21/01/2026]',-100261.4,-182159.8,-123594.9,-5500.809,-375000,-375000,-145819.3,-117423.7,0.03,-0.02,0.88,-4,0,-2,27,0
'[10:48:02.756 21/01/2026]',-100134.2,-181919.5,-123555.2,-5435.005,-375000,-375000,-145870.3,-117499.3,0.03,-0.02,0.88,-4,0,-2,27,0
'[10:48:02.760 21/01/2026]',-100135.3,-181904.2,-123604.3,-5521.194,-375000,-375000,-145978.4,-117515.5,0.03,-0.02,0.88,-4,0,-2,27,0
'[10:48:02.764 21/01/2026]',-100248,-182144.5,-123609,-5562.857,-375000,-375000,-145875.6,-117407.5,0.03,-0.02,0.88,-4,0,-2,27,0
'[10:48:02.768 21/01/2026]',-100227,-182124.9,-123566.5,-5483.464,-375000,-375000,-145811.6,-117395.6,0.03,-0.02,0.88,-4,0,-2,27,0
'[10:48:02.772 21/01/2026]',-100111.8,-181913.6,-123534.6,-5423.382,-375000,-375000,-145853.8,-117487.7,0.03,-0.02,0.88,-4,0,-2,27,0
'[10:48:02.776 21/01/2026]',-100080.7,-181844.2,-123571.4,-5489.543,-375000,-375000,-145983.1,-117525.1,0.03,-0.02,0.88,-4,0,-2,27,0
'[10:48:02.780 21/01/2026]',-100220.3,-182098.5,-123626.5,-5577.207,-375000,-375000,-145905.1,-117424.3,0.03,-0.02,0.88,-4,0,-2,27,0
'[10:48:02.784 21/01/2026]',-100222.4,-182139.3,-123571.4,-5495.131,-375000,-375000,-145826.1,-117400,0.03,-0.02,0.88,-4,0,-2,27,0
'[10:48:02.788 21/01/2026]',-100113.4,-181947.7,-123535.6,-5424.724,-375000,-375000,-145841.3,-117473.7,0.03,-0.02,0.88,-4,0,-2,27,0
'[10:48:02.792 21/01/2026]',-100045.3,-181821.3,-123568.8,-5475.596,-375000,-375000,-145976,-117532.2,0.03,-0.02,0.88,-4,0,-2,27,0
'[10:48:02.796 21/01/2026]',-100150.5,-182042.8,-123600.8,-5564.556,-375000,-375000,-145914.1,-117430,0.03,-0.02,0.88,-4,0,-2,27,0
'[10:48:02.800 21/01/2026]',-100203.2,-182136.1,-123563.8,-5506.084,-375000,-375000,-145825.1,-117387.5,0.03,-0.02,0.88,-4,0,-2,27,0
'[10:48:02.804 21/01/2026]',-100116.2,-181965.7,-123522.6,-5432.546,-375000,-375000,-145819.5,-117449.1,0.03,-0.02,0.88,-4,0,-2,27,0
'[10:48:02.808 21/01/2026]',-100037.5,-181798.7,-123537.5,-5449.444,-375000,-375000,-145960.4,-117529,0.03,-0.02,0.88,-4,0,-2,27,0
'[10:48:02.812 21/01/2026]',-100136.6,-182007.3,-123599.7,-5562.276,-375000,-375000,-145943.5,-117453.9,0.03,-0.02,0.88,-4,0,-2,27,0
'[10:48:02.816 21/01/2026]',-100189.4,-182145.1,-123584.4,-5523.652,-375000,-375000,-145837,-117389.6,0.03,-0.02,0.88,-4,0,-2,27,0
'[10:48:02.820 21/01/2026]',-100109.4,-181988.7,-123528.7,-5438.939,-375000,-375000,-145813,-117437.8,0.03,-0.02,0.88,-4,0,-2,27,0
'[10:48:02.824 21/01/2026]',-100025.6,-181793.3,-123521.4,-5427.584,-375000,-375000,-145931.1,-117530.4,0.03,-0.02,0.88,-4,0,-2,27,0
'[10:48:02.828 21/01/2026]',-100106.8,-181930.7,-123585.3,-5546.317,-375000,-375000,-145959.4,-117478.1,0.03,-0.02,0.88,-4,0,-2,27,0
'[10:48:02.832 21/01/2026]',-100200.2,-182137.9,-123596.1,-5544.484,-375000,-375000,-145847.7,-117390.3,0.03,-0.02,0.88,-4,0,-2,27,0
'[10:48:02.836 21/01/2026]',-100122.9,-182014.7,-123525.1,-5443.41,-375000,-375000,-145799.1,-117420.9,0.03,-0.02,0.88,-4,0,-2,27,0
'[10:48:02.840 21/01/2026]',-99999.16,-181784,-123498.2,-5397.365,-375000,-375000,-145879.2,-117497.4,0.03,-0.02,0.88,-4,0,-2,27,0
'[10:48:02.844 21/01/2026]',-100052.5,-181862,-123557.6,-5513.371,-375000,-375000,-145950.9,-117481.7,0.03,0.00,0.88,-4,0,-2,27,0
'[10:48:02.848 21/01/2026]',-100164.3,-182094.1,-123578.6,-5538.091,-375000,-375000,-145844.8,-117391.2,0.03,0.00,0.88,-4,0,-2,27,0
'[10:48:02.852 21/01/2026]',-100123.7,-182035.4,-123535.8,-5452.261,-375000,-375000,-145792.4,-117406.2,0.03,0.00,0.88,-4,0,-2,27,0
'[10:48:02.856 21/01/2026]',-100007.5,-181819.8,-123515.8,-5403.624,-375000,-375000,-145858.7,-117482.5,0.03,0.00,0.88,-4,0,-2,27,0
'[10:48:02.860 21/01/2026]',-100032.2,-181833.8,-123572.1,-5506.665,-375000,-375000,-145970.3,-117491.4,0.03,0.00,0.88,-4,0,-2,27,0
'[10:48:02.864 21/01/2026]',-100161.2,-182078.3,-123577.2,-5546.362,-375000,-375000,-145851.7,-117382.1,0.03,0.00,0.88,-4,0,-2,27,0
'[10:48:02.868 21/01/2026]',-100128.6,-182037.8,-123532.3,-5460.128,-375000,-375000,-145786.3,-117375.8,0.03,0.00,0.88,-4,0,-2,27,0
'[10:48:02.872 21/01/2026]',-100025.9,-181848.5,-123510.2,-5407.826,-375000,-375000,-145839.5,-117467.4,0.03,0.00,0.88,-4,0,-2,27,0
'[10:48:02.876 21/01/2026]',-100007.1,-181786.5,-123540.4,-5469.427,-375000,-375000,-145967.8,-117503.9,0.03,0.00,0.88,-4,0,-2,27,0
'[10:48:02.880 21/01/2026]',-100139.8,-182045,-123579.6,-5546.272,-375000,-375000,-145884,-117401.5,0.03,-0.02,0.88,-4,0,-2,27,0
'[10:48:02.884 21/01/2026]',-100144.2,-182077.7,-123533.2,-5468.98,-375000,-375000,-145798.2,-117377.9,0.03,-0.02,0.88,-4,0,-2,27,0
'[10:48:02.888 21/01/2026]',-100051,-181893.2,-123508.2,-5406.752,-375000,-375000,-145819.2,-117454.5,0.03,-0.02,0.88,-4,0,-2,27,0
'[10:48:02.892 21/01/2026]',-100002.3,-181778.3,-123536.6,-5456.463,-375000,-375000,-145965.6,-117523.2,0.03,-0.02,0.88,-4,0,-2,27,0
'[10:48:02.896 21/01/2026]',-100119.9,-182010.4,-123588.1,-5560.801,-375000,-375000,-145913.3,-117444.6,0.03,-0.02,0.88,-4,0,-2,27,0
'[10:48:02.900 21/01/2026]',-100148.7,-182091.9,-123548.5,-5495.623,-375000,-375000,-145810.4,-117378.4,0.03,-0.02,0.88,-4,0,-2,27,0
'[10:48:02.904 21/01/2026]',-100067.9,-181949.9,-123525.9,-5433.977,-375000,-375000,-145822.9,-117458.1,0.03,-0.02,0.88,-4,0,-2,27,0
'[10:48:02.908 21/01/2026]',-99970.23,-181767.5,-123539.6,-5446.941,-375000,-375000,-145958,-117538,0.03,-0.02,0.88,-4,0,-2,27,0
'[10:48:02.912 21/01/2026]',-100064.1,-181938.3,-123572.1,-5541.623,-375000,-375000,-145915.6,-117431.9,0.03,-0.02,0.88,-4,0,-2,27,0
'[10:48:02.916 21/01/2026]',-100144.4,-182083,-123546.7,-5505.145,-375000,-375000,-145809.5,-117370.1,0.05,0.00,0.86,-4,0,-2,27,0
'[10:48:02.920 21/01/2026]',-100087.6,-181944.9,-123499.8,-5417.347,-375000,-375000,-145790.4,-117420.8,0.05,0.00,0.86,-4,0,-2,27,0
'[10:48:02.924 21/01/2026]',-99997.9,-181748.7,-123501.3,-5409.479,-375000,-375000,-145912.9,-117509.4,0.05,0.00,0.86,-4,0,-2,27,0
'[10:48:02.928 21/01/2026]',-100073.7,-181893.7,-123567,-5530.447,-375000,-375000,-145939.2,-117461.8,0.05,0.00,0.86,-4,0,-2,27,0
'[10:48:02.932 21/01/2026]',-100164.4,-182089.2,-123567.9,-5525.44,-375000,-375000,-145830.7,-117389.5,0.05,0.00,0.86,-4,0,-2,27,0
'[10:48:02.936 21/01/2026]',-100085.4,-181980.9,-123514,-5433.351,-375000,-375000,-145788.9,-117420.7,0.05,0.00,0.86,-4,0,-2,27,0
'[10:48:02.940 21/01/2026]',-99978.01,-181775.6,-123508,-5407.065,-375000,-375000,-145888.2,-117511.7,0.05,0.00,0.86,-4,0,-2,27,0
'[10:48:02.944 21/01/2026]',-100029.7,-181842.7,-123543.8,-5502.597,-375000,-375000,-145951.3,-117489.2,0.05,0.00,0.86,-4,0,-2,27,0
'[10:48:02.948 21/01/2026]',-100155.7,-182080.4,-123575.5,-5535.365,-375000,-375000,-145843,-117402.4,0.05,0.00,0.86,-4,0,-2,27,0
'[10:48:02.952 21/01/2026]',-100110.4,-182015.4,-123526.1,-5452.887,-375000,-375000,-145794,-117413,0.05,-0.02,0.88,-4,0,-2,27,0
'[10:48:02.956 21/01/2026]',-99992.13,-181783,-123487.3,-5391.464,-375000,-375000,-145846.2,-117483.8,0.05,-0.02,0.88,-4,0,-2,27,0
'[10:48:02.960 21/01/2026]',-99998.84,-181782.9,-123534.1,-5477.339,-375000,-375000,-145943.5,-117486.8,0.05,-0.02,0.88,-4,0,-2,27,0
'[10:48:02.964 21/01/2026]',-100130,-182051.2,-123563.4,-5528.57,-375000,-375000,-145832.7,-117380.8,0.05,-0.02,0.88,-4,0,-2,27,0
'[10:48:02.968 21/01/2026]',-100118.6,-182048.5,-123523.6,-5457.67,-375000,-375000,-145772.2,-117386.4,0.05,-0.02,0.88,-4,0,-2,27,0
'[10:48:02.972 21/01/2026]',-100012.5,-181834.4,-123500.3,-5399.153,-375000,-375000,-145815,-117469.5,0.05,-0.02,0.88,-4,0,-2,27,0
'[10:48:02.976 21/01/2026]',-99982.7,-181761.7,-123532.5,-5465.627,-375000,-375000,-145939,-117497.8,0.05,-0.02,0.88,-4,0,-2,27,0
'[10:48:02.980 21/01/2026]',-100108.4,-182015.3,-123573.3,-5544.439,-375000,-375000,-145850.7,-117392.3,0.05,-0.02,0.88,-4,0,-2,27,0
'[10:48:02.984 21/01/2026]',-100099.1,-182051.4,-123532.1,-5467.728,-375000,-375000,-145767.4,-117373.7,0.05,-0.02,0.88,-4,0,-2,27,0
'[10:48:02.988 21/01/2026]',-100020.4,-181867.5,-123495.3,-5401.969,-375000,-375000,-145791.5,-117459.4,0.03,-0.02,0.88,-4,0,-2,27,0
'[10:48:02.992 21/01/2026]',-99985.12,-181749.9,-123525.4,-5449.355,-375000,-375000,-145936.2,-117530.9,0.03,-0.02,0.88,-4,0,-2,27,0
'[10:48:02.996 21/01/2026]',-100095.9,-181976.2,-123564.8,-5539.611,-375000,-375000,-145867.8,-117426.4,0.03,-0.02,0.88,-4,0,-2,27,0
'[10:48:03.000 21/01/2026]',-100136.4,-182060.6,-123531.8,-5477.026,-375000,-375000,-145765.6,-117369.5,0.03,-0.02,0.88,-4,0,-2,27,0
'[10:48:03.004 21/01/2026]',-100049.3,-181905.4,-123496.3,-5405.054,-375000,-375000,-145765,-117442.3,0.03,-0.02,0.88,-4,0,-2,27,0
'[10:48:03.008 21/01/2026]',-99963.08,-181733.6,-123502.1,-5417.75,-375000,-375000,-145896.7,-117518.1,0.03,-0.02,0.88,-4,0,-2,27,0
'[10:48:03.012 21/01/2026]',-100059.1,-181927.2,-123558.9,-5530.134,-375000,-375000,-145879.6,-117441.3,0.03,-0.02,0.88,-4,0,-2,27,0
'[10:48:03.016 21/01/2026]',-100120.3,-182070.8,-123536.3,-5489.678,-375000,-375000,-145770.2,-117371.4,0.03,-0.02,0.88,-4,0,-2,27,0
'[10:48:03.020 21/01/2026]',-100051.9,-181929.6,-123482.3,-5400.047,-375000,-375000,-145735.7,-117415.7,0.03,-0.02,0.88,-4,0,-2,27,0
'[10:48:03.024 21/01/2026]',-99959.73,-181732.5,-123487.8,-5389.005,-375000,-375000,-145862.2,-117506.3,0.03,0.00,0.88,-4,0,-2,27,0
'[10:48:03.028 21/01/2026]',-100047.6,-181880,-123561.3,-5513.281,-375000,-375000,-145900,-117459.1,0.03,0.00,0.88,-4,0,-2,27,0
'[10:48:03.032 21/01/2026]',-100122,-182069.1,-123537.9,-5493.656,-375000,-375000,-145775.9,-117367.8,0.03,0.00,0.88,-4,0,-2,27,0
'[10:48:03.036 21/01/2026]',-100069.5,-181967.3,-123492.1,-5412.43,-375000,-375000,-145739.7,-117410.3,0.03,0.00,0.88,-4,0,-2,27,0
'[10:48:03.040 21/01/2026]',-99970.09,-181743.8,-123486.3,-5386.502,-375000,-375000,-145839.2,-117509.6,0.03,0.00,0.88,-4,0,-2,27,0
'[10:48:03.044 21/01/2026]',-100018,-181831.1,-123549.4,-5497.59,-375000,-375000,-145912.6,-117482.6,0.03,0.00,0.88,-4,0,-2,27,0
'[10:48:03.048 21/01/2026]',-100114.3,-182052.2,-123547,-5506.084,-375000,-375000,-145786.1,-117369.7,0.03,0.00,0.88,-4,0,-2,27,0
'[10:48:03.052 21/01/2026]',-100058.9,-181980.3,-123487.6,-5409.882,-375000,-375000,-145720.5,-117376.2,0.03,0.00,0.88,-4,0,-2,27,0
'[10:48:03.056 21/01/2026]',-99962.98,-181762.7,-123481.1,-5377.606,-375000,-375000,-145806.8,-117480.3,0.03,0.00,0.88,-4,0,-2,27,0
'[10:48:03.060 21/01/2026]',-99973.85,-181766,-123522.3,-5474.657,-375000,-375000,-145917.3,-117501.3,0.03,-0.02,0.88,-4,0,-2,27,0
'[10:48:03.064 21/01/2026]',-100109.5,-182028.5,-123564.5,-5529.866,-375000,-375000,-145811.2,-117397.9,0.03,-0.02,0.88,-4,0,-2,27,0
'[10:48:03.068 21/01/2026]',-100088.7,-182011.8,-123518.3,-5440.37,-375000,-375000,-145733.9,-117389.3,0.03,-0.02,0.88,-4,0,-2,27,0
'[10:48:03.072 21/01/2026]',-99976.04,-181809.6,-123471.3,-5371.616,-375000,-375000,-145769.8,-117461.6,0.03,-0.02,0.88,-4,0,-2,27,0
'[10:48:03.076 21/01/2026]',-99965.89,-181745.7,-123518.2,-5447.612,-375000,-375000,-145901.3,-117502.3,0.03,-0.02,0.88,-4,0,-2,27,0
'[10:48:03.080 21/01/2026]',-100085.6,-181988.7,-123541.8,-5517.796,-375000,-375000,-145809.6,-117392.5,0.03,-0.02,0.88,-4,0,-2,27,0
'[10:48:03.084 21/01/2026]',-100096.3,-182031.6,-123513.5,-5451.099,-375000,-375000,-145733.5,-117375,0.03,-0.02,0.88,-4,0,-2,27,0
'[10:48:03.088 21/01/2026]',-100012.9,-181847.2,-123484.7,-5386.636,-375000,-375000,-145749.1,-117450.7,0.03,-0.02,0.88,-4,0,-2,27,0
'[10:48:03.092 21/01/2026]',-99963.44,-181739.3,-123509,-5435.854,-375000,-375000,-145891.2,-117513.1,0.03,-0.02,0.88,-4,0,-2,27,0
'[10:48:03.096 21/01/2026]',-100078.9,-181969.7,-123554.7,-5524.368,-375000,-375000,-145834.7,-117413,0.03,0.00,0.86,-4,0,-2,27,0
'[10:48:03.100 21/01/2026]',-100118.1,-182063,-123531.3,-5468.667,-375000,-375000,-145745.8,-117376.6,0.03,0.00,0.86,-4,0,-2,27,0
'[10:48:03.104 21/01/2026]',-100025.4,-181887.4,-123498.5,-5399.645,-375000,-375000,-145748.4,-117450.4,0.03,0.00,0.86,-4,0,-2,27,0
'[10:48:03.108 21/01/2026]',-99941.17,-181720.4,-123503.2,-5416.006,-375000,-375000,-145878.4,-117523.9,0.03,0.00,0.86,-4,0,-2,27,0
'[10:48:03.112 21/01/2026]',-100051.7,-181908.2,-123551.1,-5518.824,-375000,-375000,-145844.3,-117421.6,0.03,0.00,0.86,-4,0,-2,27,0
'[10:48:03.116 21/01/2026]',-100121.1,-182051.5,-123538,-5483.688,-375000,-375000,-145746.3,-117355.5,0.03,0.00,0.86,-4,0,-2,27,0
'[10:48:03.120 21/01/2026]',-100044.9,-181925.8,-123491.7,-5407.915,-375000,-375000,-145723.3,-117415.1,0.03,0.00,0.86,-4,0,-2,27,0
'[10:48:03.124 21/01/2026]',-99950.02,-181726.3,-123490.3,-5398.259,-375000,-375000,-145839.9,-117509.2,0.03,0.00,0.86,-4,0,-2,27,0
'[10:48:03.128 21/01/2026]',-100030.6,-181873.3,-123556,-5516.053,-375000,-375000,-145873.6,-117463.8,0.03,0.00,0.86,-4,0,-2,27,0
'[10:48:03.132 21/01/2026]',-100121.8,-182074.7,-123561,-5513.147,-375000,-375000,-145766.3,-117378.7,0.03,-0.02,0.86,-4,0,-2,27,0
'[10:48:03.136 21/01/2026]',-100075.7,-181986.3,-123518.6,-5437.643,-375000,-375000,-145732.1,-117411.4,0.03,-0.02,0.86,-4,0,-2,27,0
'[10:48:03.140 21/01/2026]',-99973.27,-181757.5,-123498.8,-5403.579,-375000,-375000,-145831.5,-117503.2,0.03,-0.02,0.86,-4,0,-2,27,0
'[10:48:03.144 21/01/2026]',-100011.6,-181827,-123561.6,-5509.258,-375000,-375000,-145899.3,-117487.1,0.03,-0.02,0.86,-4,0,-2,27,0
'[10:48:03.148 21/01/2026]',-100118.9,-182066.3,-123576.4,-5535.052,-375000,-375000,-145791.8,-117395.4,0.03,-0.02,0.86,-4,0,-2,27,0
'[10:48:03.152 21/01/2026]',-100095.1,-182009.2,-123527.2,-5448.908,-375000,-375000,-145743.7,-117407.2,0.03,-0.02,0.86,-4,0,-2,27,0
'[10:48:03.156 21/01/2026]',-99990.16,-181781.4,-123501.5,-5398.661,-375000,-375000,-145808.6,-117497.2,0.03,-0.02,0.86,-4,0,-2,27,0
'[10:48:03.160 21/01/2026]',-99992.8,-181763.5,-123539.9,-5483.598,-375000,-375000,-145908.7,-117500.3,0.03,-0.02,0.86,-4,0,-2,27,0
'[10:48:03.164 21/01/2026]',-100127.7,-182032.2,-123573.4,-5535.454,-375000,-375000,-145800.6,-117396.5,0.03,-0.02,0.86,-4,0,-2,27,0
'[10:48:03.168 21/01/2026]',-100129.4,-182058.5,-123540.2,-5462.319,-375000,-375000,-145731.4,-117393.6,0.03,-0.02,0.88,-4,0,-2,27,0
'[10:48:03.172 21/01/2026]',-100033.2,-181859.9,-123515.8,-5409.971,-375000,-375000,-145773.8,-117477.7,0.03,-0.02,0.88,-4,0,-2,27,0
'[10:48:03.176 21/01/2026]',-100018.3,-181805,-123556,-5492.941,-375000,-375000,-145915.7,-117529.1,0.03,-0.02,0.88,-4,0,-2,27,0
'[10:48:03.180 21/01/2026]',-100163.9,-182082.7,-123610.4,-5584.181,-375000,-375000,-145837,-117425.8,0.03,-0.02,0.88,-4,0,-2,27,0
'[10:48:03.184 21/01/2026]',-100174.4,-182127.8,-123572.4,-5513.46,-375000,-375000,-145748.8,-117391.4,0.03,-0.02,0.88,-4,0,-2,27,0
'[10:48:03.188 21/01/2026]',-100061.2,-181935.7,-123529.1,-5440.459,-375000,-375000,-145766.4,-117465.8,0.03,-0.02,0.88,-4,0,-2,27,0
'[10:48:03.192 21/01/2026]',-100021.3,-181829.5,-123560.7,-5487.621,-375000,-375000,-145907.9,-117528.8,0.03,-0.02,0.88,-4,0,-2,27,0
'[10:48:03.196 21/01/2026]',-100151.7,-182065.5,-123603.5,-5575.598,-375000,-375000,-145842.3,-117423.2,0.03,-0.02,0.88,-4,0,-2,27,0
'[10:48:03.200 21/01/2026]',-100171.6,-182139.2,-123566.9,-5510.957,-375000,-375000,-145752.2,-117377,0.03,-0.02,0.88,-4,0,-2,27,0
'[10:48:03.204 21/01/2026]',-100089.1,-181976.7,-123535.9,-5445.689,-375000,-375000,-145758.6,-117450.4,0.03,0.00,0.88,-4,0,-2,27,0
'[10:48:03.208 21/01/2026]',-100024.1,-181820.4,-123557.2,-5475.149,-375000,-375000,-145906.9,-117547.4,0.03,0.00,0.88,-4,0,-2,27,0
'[10:48:03.212 21/01/2026]',-100123.9,-182010.7,-123621.1,-5591.557,-375000,-375000,-145893.1,-117480.5,0.03,0.00,0.88,-4,0,-2,27,0
'[10:48:03.216 21/01/2026]',-100177.9,-182139.9,-123579.6,-5530.402,-375000,-375000,-145767.6,-117387,0.03,0.00,0.88,-4,0,-2,27,0
'[10:48:03.220 21/01/2026]',-100101.5,-182001.1,-123527,-5445.824,-375000,-375000,-145742.4,-117443.8,0.03,0.00,0.88,-4,0,-2,27,0
'[10:48:03.224 21/01/2026]',-100000.7,-181813.9,-123526.1,-5438.492,-375000,-375000,-145857.3,-117532.9,0.03,0.00,0.88,-4,0,-2,27,0
'[10:48:03.228 21/01/2026]',-100082.7,-181958.5,-123593.4,-5560.175,-375000,-375000,-145886.1,-117476.7,0.03,0.00,0.88,-4,0,-2,27,0
'[10:48:03.232 21/01/2026]',-100185.2,-182133.5,-123594,-5555.258,-375000,-375000,-145779.8,-117402.8,0.03,0.00,0.88,-4,0,-2,27,0
'[10:48:03.236 21/01/2026]',-100117.1,-182031.8,-123539.9,-5464.51,-375000,-375000,-145729.5,-117426.9,0.03,0.00,0.88,-4,0,-2,27,0
'[10:48:03.240 21/01/2026]',-100007.6,-181817.7,-123524.7,-5429.641,-375000,-375000,-145824.2,-117521.3,0.05,0.00,0.88,-4,0,-2,27,0
'[10:48:03.244 21/01/2026]',-100046.2,-181891.7,-123568.4,-5528.346,-375000,-375000,-145888.7,-117491.2,0.05,0.00,0.88,-4,0,-2,27,0
'[10:48:03.248 21/01/2026]',-100164.7,-182123.3,-123584.6,-5552.576,-375000,-375000,-145785.8,-117401.5,0.05,0.00,0.88,-4,0,-2,27,0
'[10:48:03.252 21/01/2026]',-100130.1,-182060.4,-123541.4,-5471.618,-375000,-375000,-145741.6,-117427.2,0.05,0.00,0.88,-4,0,-2,27,0
'[10:48:03.256 21/01/2026]',-100014.5,-181843.6,-123515.1,-5420.611,-375000,-375000,-145801.8,-117505.4,0.05,0.00,0.88,-4,0,-2,27,0
'[10:48:03.260 21/01/2026]',-100025.4,-181851.2,-123569.5,-5514.354,-375000,-375000,-145905.3,-117513.4,0.05,0.00,0.88,-4,0,-2,27,0
'[10:48:03.264 21/01/2026]',-100159.5,-182104.3,-123596.7,-5560.443,-375000,-375000,-145799.9,-117410.4,0.05,0.00,0.88,-4,0,-2,27,0
'[10:48:03.268 21/01/2026]',-100137.3,-182074.8,-123542.9,-5475.373,-375000,-375000,-145730.8,-117403.2,0.05,0.00,0.88,-4,0,-2,27,0
'[10:48:03.272 21/01/2026]',-100021.2,-181863,-123526.7,-5422.399,-375000,-375000,-145774.3,-117494.2,0.05,0.00,0.88,-4,0,-2,27,0
'[10:48:03.276 21/01/2026]',-99989.85,-181800,-123562.9,-5494.998,-375000,-375000,-145902.8,-117532,0.02,-0.02,0.88,-4,0,-2,27,0
'[10:48:03.280 21/01/2026]',-100143.9,-182074.8,-123594.8,-5570.546,-375000,-375000,-145818.3,-117432.8,0.02,-0.02,0.88,-4,0,-2,27,0
'[10:48:03.284 21/01/2026]',-100153.1,-182114.4,-123549.6,-5491.108,-375000,-375000,-145730.8,-117405.5,0.02,-0.02,0.88,-4,0,-2,27,0
'[10:48:03.288 21/01/2026]',-100055.8,-181918.7,-123510.5,-5417.124,-375000,-375000,-145742.7,-117481.3,0.02,-0.02,0.88,-4,0,-2,27,0
'[10:48:03.292 21/01/2026]',-100002.9,-181801,-123539.2,-5462.498,-375000,-375000,-145876.2,-117527.8,0.02,-0.02,0.88,-4,0,-2,27,0
'[10:48:03.296 21/01/2026]',-100118,-182030,-123582.3,-5551.592,-375000,-375000,-145810.6,-117425.2,0.02,-0.02,0.88,-4,0,-2,27,0
'[10:48:03.300 21/01/2026]',-100156,-182132.5,-123548.3,-5494.818,-375000,-375000,-145718.6,-117387.3,0.02,-0.02,0.88,-4,0,-2,27,0
'[10:48:03.304 21/01/2026]',-100070.1,-181965.7,-123514.7,-5425.17,-375000,-375000,-145720.8,-117459.7,0.02,-0.02,0.88,-4,0,-2,27,0
'[10:48:03.308 21/01/2026]',-100005.5,-181803.5,-123535.6,-5445.511,-375000,-375000,-145856.7,-117527.5,0.02,-0.02,0.88,-4,0,-2,27,0
'[10:48:03.312 21/01/2026]',-100122.7,-182024.6,-123598.6,-5567.328,-375000,-375000,-145846.4,-117457.6,0.03,0.00,0.86,-4,0,-2,27,0
'[10:48:03.316 21/01/2026]',-100203.1,-182174.3,-123583.8,-5534.604,-375000,-375000,-145743.7,-117397.9,0.03,0.00,0.86,-4,0,-2,27,0
'[10:48:03.320 21/01/2026]',-100148.7,-182052.2,-123550.1,-5460.352,-375000,-375000,-145721.8,-117442.6,0.03,0.00,0.86,-4,0,-2,27,0
'[10:48:03.324 21/01/2026]',-100068,-181855.6,-123554.4,-5454.317,-375000,-375000,-145841,-117525,0.03,0.00,0.86,-4,0,-2,27,0
'[10:48:03.328 21/01/2026]',-100175.6,-182020.2,-123624.5,-5585.388,-375000,-375000,-145873.7,-117475.4,0.03,0.00,0.86,-4,0,-2,27,0
'[10:48:03.332 21/01/2026]',-100294.3,-182255.7,-123627,-5586.059,-375000,-375000,-145762.8,-117401.6,0.03,0.00,0.86,-4,0,-2,27,0
'[10:48:03.336 21/01/2026]',-100266.4,-182163.3,-123599.6,-5515.65,-375000,-375000,-145726.9,-117436.7,0.03,0.00,0.86,-4,0,-2,27,0
'[10:48:03.340 21/01/2026]',-100210.1,-181975.8,-123616.8,-5503.759,-375000,-375000,-145828.5,-117536.3,0.03,0.00,0.86,-4,0,-2,27,0
'[10:48:03.344 21/01/2026]',-100297.7,-182078.7,-123688.5,-5626.739,-375000,-375000,-145899,-117514.1,0.03,0.00,0.86,-4,0,-2,27,0
'[10:48:03.348 21/01/2026]',-100445.6,-182351.7,-123713.8,-5668.983,-375000,-375000,-145793.9,-117423.8,0.03,0.00,0.88,-4,0,-2,27,0
'[10:48:03.352 21/01/2026]',-100444.5,-182325.8,-123683.9,-5602.42,-375000,-375000,-145750.9,-117452.7,0.03,0.00,0.88,-4,0,-2,27,0
'[10:48:03.356 21/01/2026]',-100374.3,-182137.8,-123675.3,-5566.344,-375000,-375000,-145814.1,-117535.8,0.03,0.00,0.88,-4,0,-2,27,0
'[10:48:03.360 21/01/2026]',-100420.8,-182163,-123737.4,-5669.833,-375000,-375000,-145916.4,-117540.3,0.03,0.00,0.88,-4,0,-2,27,0
'[10:48:03.364 21/01/2026]',-100549.4,-182431.5,-123764.1,-5721.42,-375000,-375000,-145810.8,-117439.8,0.03,0.00,0.88,-4,0,-2,27,0
'[10:48:03.368 21/01/2026]',-100549.7,-182440.3,-123733.5,-5648.688,-375000,-375000,-145744.6,-117439.2,0.03,0.00,0.88,-4,0,-2,27,0
'[10:48:03.372 21/01/2026]',-100471.3,-182249.4,-123723.4,-5607.203,-375000,-375000,-145793,-117519.1,0.03,0.00,0.88,-4,0,-2,27,0
'[10:48:03.376 21/01/2026]',-100456.5,-182195.3,-123764,-5688.474,-375000,-375000,-145931.5,-117571.6,0.03,0.00,0.88,-4,0,-2,27,0
'[10:48:03.380 21/01/2026]',-100561.8,-182452.8,-123785.3,-5759.418,-375000,-375000,-145835.3,-117463.4,0.03,0.00,0.88,-4,0,-2,27,0
'[10:48:03.384 21/01/2026]',-100574.2,-182483.4,-123742.4,-5678.416,-375000,-375000,-145749.6,-117436.4,0.05,0.00,0.88,-4,0,-2,27,0
'[10:48:03.388 21/01/2026]',-100496.5,-182300.8,-123726.7,-5616.859,-375000,-375000,-145773.9,-117529.4,0.05,0.00,0.88,-4,0,-2,27,0
'[10:48:03.392 21/01/2026]',-100451.7,-182164.3,-123754.9,-5662.68,-375000,-375000,-145920.7,-117588,0.05,0.00,0.88,-4,0,-2,27,0
'[10:48:03.396 21/01/2026]',-100541,-182389.3,-123763.1,-5739.793,-375000,-375000,-145849.6,-117473.2,0.05,0.00,0.88,-4,0,-2,27,0
'[10:48:03.400 21/01/2026]',-100576.9,-182475.5,-123732.4,-5681.679,-375000,-375000,-145756.2,-117436.9,0.05,0.00,0.88,-4,0,-2,27,0
'[10:48:03.404 21/01/2026]',-100460,-182291.8,-123707.8,-5604.968,-375000,-375000,-145750.6,-117494.9,0.05,0.00,0.88,-4,0,-2,27,0
'[10:48:03.408 21/01/2026]',-100383,-182102.9,-123724.4,-5617.664,-375000,-375000,-145881.4,-117565.4,0.05,0.00,0.88,-4,0,-2,27,0
'[10:48:03.412 21/01/2026]',-100488.6,-182277.4,-123744.5,-5711.765,-375000,-375000,-145852.2,-117482.5,0.05,0.00,0.88,-4,0,-2,27,0
'[10:48:03.416 21/01/2026]',-100533.6,-182405.4,-123703.8,-5662.904,-375000,-375000,-145746.1,-117419.9,0.05,0.00,0.88,-4,0,-2,27,0
'[10:48:03.420 21/01/2026]',-100433.5,-182253.7,-123665.5,-5575.464,-375000,-375000,-145725,-117471.8,0.03,0.00,0.88,-4,0,-2,27,0
'[10:48:03.424 21/01/2026]',-100352.7,-182058.8,-123691.4,-5579.71,-375000,-375000,-145864.1,-117573.6,0.03,0.00,0.88,-4,0,-2,27,0
'[10:48:03.428 21/01/2026]',-100418.2,-182170.4,-123735.9,-5685.479,-375000,-375000,-145889.3,-117516.9,0.03,0.00,0.88,-4,0,-2,27,0
'[10:48:03.432 21/01/2026]',-100469,-182321.6,-123688.5,-5639.345,-375000,-375000,-145748.5,-117417.9,0.03,0.00,0.88,-4,0,-2,27,0
'[10:48:03.436 21/01/2026]',-100373.1,-182204.5,-123629.6,-5541.042,-375000,-375000,-145701.8,-117445.7,0.03,0.00,0.88,-4,0,-2,27,0
'[10:48:03.440 21/01/2026]',-100275.2,-181995.9,-123647.1,-5527.452,-375000,-375000,-145821.8,-117551.8,0.03,0.00,0.88,-4,0,-2,27,0
'[10:48:03.444 21/01/2026]',-100299,-182069.1,-123693.2,-5623.654,-375000,-375000,-145885,-117513.8,0.03,0.00,0.88,-4,0,-2,27,0
'[10:48:03.448 21/01/2026]',-100359.3,-182263,-123678.4,-5629.734,-375000,-375000,-145760.3,-117417.1,0.03,0.00,0.88,-4,0,-2,27,0
'[10:48:03.452 21/01/2026]',-100312,-182188.7,-123624,-5540.818,-375000,-375000,-145704.1,-117428.6,0.03,0.00,0.88,-4,0,-2,27,0
'[10:48:03.456 21/01/2026]',-100215.9,-181952.4,-123609.9,-5495.892,-375000,-375000,-145780.2,-117522.6,0.03,-0.02,0.88,-4,0,-2,27,0
'[10:48:03.460 21/01/2026]',-100221.7,-181940.5,-123643.3,-5578.861,-375000,-375000,-145879.8,-117521.4,0.03,-0.02,0.88,-4,0,-2,27,0
'[10:48:03.464 21/01/2026]',-100325.1,-182194.6,-123650.6,-5623.877,-375000,-375000,-145769.1,-117426.9,0.03,-0.02,0.88,-4,0,-2,27,0
'[10:48:03.468 21/01/2026]',-100309.4,-182179.1,-123616.2,-5544.529,-375000,-375000,-145707.6,-117431.8,0.03,-0.02,0.88,-4,0,-2,27,0
'[10:48:03.472 21/01/2026]',-100197.5,-181958.9,-123590.7,-5480.469,-375000,-375000,-145749.6,-117507.6,0.03,-0.02,0.88,-4,0,-2,27,0
'[10:48:03.476 21/01/2026]',-100162.7,-181884.5,-123632.9,-5547.971,-375000,-375000,-145877.9,-117542.1,0.03,-0.02,0.88,-4,0,-2,27,0
'[10:48:03.480 21/01/2026]',-100266.8,-182127,-123646.2,-5616.904,-375000,-375000,-145780,-117438.8,0.03,-0.02,0.88,-4,0,-2,27,0
'[10:48:03.484 21/01/2026]',-100290.4,-182174.5,-123613.9,-5554.766,-375000,-375000,-145709.4,-117427.4,0.03,-0.02,0.88,-4,0,-2,27,0
'[10:48:03.488 21/01/2026]',-100180.2,-181978.6,-123586,-5483.375,-375000,-375000,-145725.6,-117484.3,0.03,-0.02,0.88,-4,0,-2,27,0
'[10:48:03.492 21/01/2026]',-100119,-181840.8,-123605.9,-5514.13,-375000,-375000,-145863.4,-117538.1,0.03,-0.02,0.88,-4,0,-2,27,0
'[10:48:03.496 21/01/2026]',-100227.8,-182069,-123635,-5601.124,-375000,-375000,-145798.6,-117443.3,0.03,-0.02,0.88,-4,0,-2,27,0
'[10:48:03.500 21/01/2026]',-100255,-182162.6,-123601.4,-5545.289,-375000,-375000,-145709.4,-117410.9,0.03,-0.02,0.88,-4,0,-2,27,0
'[10:48:03.504 21/01/2026]',-100174.6,-182003.5,-123590.1,-5483.509,-375000,-375000,-145728.2,-117479.7,0.03,-0.02,0.88,-4,0,-2,27,0
'[10:48:03.508 21/01/2026]',-100100.6,-181832,-123598.6,-5495.042,-375000,-375000,-145870.7,-117551.5,0.03,-0.02,0.88,-4,0,-2,27,0
'[10:48:03.512 21/01/2026]',-100177.9,-182008.2,-123614.9,-5581.767,-375000,-375000,-145837.2,-117467.3,0.03,-0.02,0.88,-4,0,-2,27,0
'[10:48:03.516 21/01/2026]',-100230.4,-182144.7,-123604.9,-5545.333,-375000,-375000,-145731.9,-117406.2,0.03,-0.02,0.88,-4,0,-2,27,0
'[10:48:03.520 21/01/2026]',-100133.3,-182001.8,-123563.3,-5460.397,-375000,-375000,-145707,-117443.4,0.03,-0.02,0.88,-4,0,-2,27,0
'[10:48:03.524 21/01/2026]',-100058.8,-181809.3,-123586.5,-5462.498,-375000,-375000,-145839.6,-117535.5,0.03,-0.02,0.88,-4,0,-2,27,0
'[10:48:03.528 21/01/2026]',-100125.1,-181944.5,-123614.4,-5564.467,-375000,-375000,-145856.5,-117480,0.03,0.00,0.88,-4,0,-2,27,0
'[10:48:03.532 21/01/2026]',-100209.8,-182140.2,-123603.7,-5560.265,-375000,-375000,-145745.1,-117418,0.03,0.00,0.88,-4,0,-2,27,0
'[10:48:03.536 21/01/2026]',-100182.6,-182040.6,-123569.2,-5482.927,-375000,-375000,-145718.4,-117462.3,0.03,0.00,0.88,-4,0,-2,27,0
'[10:48:03.540 21/01/2026]',-100097.7,-181815.2,-123568.8,-5453.333,-375000,-375000,-145816.2,-117540.9,0.03,0.00,0.88,-4,0,-2,27,0
'[10:48:03.544 21/01/2026]',-100121.8,-181878.1,-123605.5,-5547.122,-375000,-375000,-145867.5,-117502,0.03,0.00,0.88,-4,0,-2,27,0
'[10:48:03.548 21/01/2026]',-100208.1,-182107.4,-123598.3,-5558.387,-375000,-375000,-145733.9,-117407,0.03,0.00,0.88,-4,0,-2,27,0
'[10:48:03.552 21/01/2026]',-100142.2,-182056.6,-123547.2,-5474.166,-375000,-375000,-145680.2,-117420.1,0.03,0.00,0.88,-4,0,-2,27,0
'[10:48:03.556 21/01/2026]',-100039.6,-181847.1,-123565,-5446.762,-375000,-375000,-145772.5,-117517,0.03,0.00,0.88,-4,0,-2,27,0
'[10:48:03.560 21/01/2026]',-100074.3,-181848.2,-123604.3,-5535.365,-375000,-375000,-145882.9,-117538.4,0.03,0.00,0.88,-4,0,-2,27,0
'[10:48:03.564 21/01/2026]',-100165.9,-182081.1,-123579.5,-5553.335,-375000,-375000,-145732.1,-117398.9,0.03,0.00,0.88,-4,0,-2,27,0
'[10:48:03.568 21/01/2026]',-100160,-182067.4,-123558.8,-5485.789,-375000,-375000,-145681.3,-117408.9,0.03,0.00,0.88,-4,0,-2,27,0
'[10:48:03.572 21/01/2026]',-100082.9,-181881.1,-123558.4,-5448.237,-375000,-375000,-145754,-117511.2,0.03,0.00,0.88,-4,0,-2,27,0
'[10:48:03.576 21/01/2026]',-100067.7,-181834.2,-123615.5,-5529.017,-375000,-375000,-145901.8,-117562.4,0.03,0.00,0.88,-4,0,-2,27,0
'[10:48:03.580 21/01/2026]',-100156.6,-182059.5,-123605.5,-5573.631,-375000,-375000,-145771.7,-117427.8,0.03,0.00,0.88,-4,0,-2,27,0
'[10:48:03.584 21/01/2026]',-100181.1,-182078.6,-123551.1,-5492.092,-375000,-375000,-145681.8,-117398.6,0.03,0.00,0.88,-4,0,-2,27,0
'[10:48:03.588 21/01/2026]',-100101.9,-181899.1,-123546.6,-5444.125,-375000,-375000,-145719.4,-117478.8,0.03,0.00,0.88,-4,0,-2,27,0
'[10:48:03.592 21/01/2026]',-100039.7,-181784.4,-123581,-5485.208,-375000,-375000,-145865.4,-117523.5,0.03,0.00,0.88,-4,0,-2,27,0
'[10:48:03.596 21/01/2026]',-100144.9,-182017.2,-123598.5,-5567.193,-375000,-375000,-145793.7,-117429.4,0.03,0.00,0.88,-4,0,-2,27,0
'[10:48:03.600 21/01/2026]',-100189.5,-182104.7,-123572.1,-5513.102,-375000,-375000,-145698.4,-117392.7,0.03,0.00,0.88,-4,0,-2,27,0
'[10:48:03.604 21/01/2026]',-100091.1,-181941,-123565.2,-5453.378,-375000,-375000,-145710.9,-117460.4,0.03,0.00,0.88,-4,0,-2,27,0
'[10:48:03.608 21/01/2026]',-100022.3,-181783.6,-123594.6,-5480.916,-375000,-375000,-145869.5,-117543.2,0.03,0.00,0.88,-4,0,-2,27,0
'[10:48:03.612 21/01/2026]',-100151.9,-181974.4,-123622.2,-5577.833,-375000,-375000,-145834.8,-117464,0.03,0.00,0.88,-4,0,-2,27,0
'[10:48:03.616 21/01/2026]',-100202.4,-182104.1,-123575.5,-5521.954,-375000,-375000,-145710.8,-117392.1,0.03,0.00,0.88,-4,0,-2,27,0
'[10:48:03.620 21/01/2026]',-100119.6,-181969.3,-123543.3,-5449.668,-375000,-375000,-145699.5,-117437.2,0.03,0.00,0.88,-4,0,-2,27,0
'[10:48:03.624 21/01/2026]',-100037.5,-181776.2,-123572.8,-5455.077,-375000,-375000,-145843.6,-117532.8,0.03,0.00,0.88,-4,0,-2,27,0
'[10:48:03.628 21/01/2026]',-100090.2,-181909.1,-123594.5,-5544.886,-375000,-375000,-145851.4,-117472.2,0.03,0.00,0.88,-4,0,-2,27,0
'[10:48:03.632 21/01/2026]',-100172.5,-182094.5,-123569.6,-5522.937,-375000,-375000,-145722.9,-117387.2,0.03,0.00,0.88,-4,0,-2,27,0
'[10:48:03.636 21/01/2026]',-100108,-181994.3,-123538,-5445.063,-375000,-375000,-145690.7,-117417.6,0.05,0.00,0.88,-4,0,-2,27,0
'[10:48:03.640 21/01/2026]',-100021.5,-181792.2,-123559.9,-5433.083,-375000,-375000,-145812.7,-117518.2,0.05,0.00,0.88,-4,0,-2,27,0
