'Time and date','Fp1','Fp2','F3','Fz','F4','P3','Pz','P4','AccX','AccY','AccZ','GyroX','GyroY','GyroZ','Battery','Event'
'[hh:mm:ss.mmm dd/mm/yyyy]','uV','uV','uV','uV','uV','uV','uV','uV','G','G','G','Deg/s','Deg/s','Deg/s','%','Button'
'[11:23:00.000 21/01/2026]',-101138.6,-169765.6,-113348.6,21656.16,-375000,-375000,-142842.9,-123247.7,0.02,0.00,0.88,-4,0,-2,4,0
'[11:23:00.004 21/01/2026]',-99364.54,-166928,-111656.6,23202.41,-375000,-375000,-141249.1,-122011.9,0.02,0.00,0.88,-4,0,-2,4,0
'[11:23:00.008 21/01/2026]',-100873.5,-168334.9,-113222.4,21405.95,-375000,-375000,-142587.9,-123588.3,0.02,0.00,0.88,-4,0,-2,4,0
'[11:23:00.012 21/01/2026]',-102788.6,-171331,-115050.6,19698.95,-375000,-375000,-144333.4,-124980.9,0.02,0.00,0.88,-4,0,-2,4,0
'[11:23:00.016 21/01/2026]',-101548.3,-170303.7,-113749.4,21248.64,-375000,-375000,-143207.8,-123589.6,0.02,0.00,0.88,-4,0,-2,4,0
'[11:23:00.020 21/01/2026]',-99479.43,-167198.5,-111755,23158.82,-375000,-375000,-141344.9,-122026.9,0.02,0.00,0.88,-4,0,-2,4,0
'[11:23:00.024 21/01/2026]',-100454.7,-167812.9,-112806.6,21827.64,-375000,-375000,-142221.9,-123230.7,0.02,0.00,0.88,-4,0,-2,4,0
'[11:23:00.028 21/01/2026]',-102628.1,-170997.2,-114901.7,19797.43,-375000,-375000,-144179.9,-124902.5,0.02,0.00,0.88,-4,0,-2,4,0
'[11:23:00.032 21/01/2026]',-101926.1,-170760.3,-114125,20845.86,-375000,-375000,-143549.1,-123930.6,0.02,0.00,0.88,-4,0,-2,4,0
'[11:23:00.036 21/01/2026]',-99681.22,-167601.7,-111939,23002.31,-375000,-375000,-141531.4,-122144,0.02,-0.02,0.88,-4,0,-2,4,0
'[11:23:00.040 21/01/2026]',-100086.8,-167378.3,-112433.1,22226.53,-375000,-375000,-141887.8,-122891.5,0.02,-0.02,0.88,-4,0,-2,4,0
'[11:23:00.044 21/01/2026]',-102380.9,-170555.2,-114672.9,19998.06,-375000,-375000,-143945.8,-124739.4,0.02,-0.02,0.88,-4,0,-2,4,0
'[11:23:00.048 21/01/2026]',-102284.7,-171155.7,-114481.4,20456.85,-375000,-375000,-143866.5,-124266.8,0.02,-0.02,0.88,-4,0,-2,4,0
'[11:23:00.052 21/01/2026]',-99987.13,-168098.3,-112221.6,22747.55,-375000,-375000,-141799.5,-122342,0.02,-0.02,0.88,-4,0,-2,4,0
'[11:23:00.056 21/01/2026]',-99765.84,-167034.1,-112100,22598.87,-375000,-375000,-141599.1,-122570.8,0.02,-0.02,0.88,-4,0,-2,4,0
'[11:23:00.060 21/01/2026]',-102060.8,-170039.7,-114366.9,20277.01,-375000,-375000,-143653.5,-124512.7,0.02,-0.02,0.88,-4,0,-2,4,0
'[11:23:00.064 21/01/2026]',-102562.5,-171426,-114771.3,20129.22,-375000,-375000,-144112.5,-124544.4,0.02,-0.02,0.88,-4,0,-2,4,0
'[11:23:00.068 21/01/2026]',-100331,-168635.8,-112559,22430.91,-375000,-375000,-142115.3,-122596.9,0.02,-0.02,0.88,-4,0,-2,4,0
'[11:23:00.072 21/01/2026]',-99505.36,-166820.8,-111839.6,22912.5,-375000,-375000,-141377.3,-122291.2,0.03,-0.02,0.88,-4,0,-2,4,0
'[11:23:00.076 21/01/2026]',-101690.1,-169489.1,-114011.7,20616.98,-375000,-375000,-143320.5,-124239.7,0.03,-0.02,0.88,-4,0,-2,4,0
'[11:23:00.080 21/01/2026]',-102774,-171590,-114989.6,19864.89,-375000,-375000,-144300.6,-124793,0.03,-0.02,0.88,-4,0,-2,4,0
'[11:23:00.084 21/01/2026]',-100717,-169191.9,-112930.8,22073.06,-375000,-375000,-142457.6,-122892.7,0.03,-0.02,0.88,-4,0,-2,4,0
'[11:23:00.088 21/01/2026]',-99383.54,-166769.7,-111691.9,23119.04,-375000,-375000,-141248.8,-122098,0.03,-0.02,0.88,-4,0,-2,4,0
'[11:23:00.092 21/01/2026]',-101295.6,-168920.8,-113624.4,20985.34,-375000,-375000,-142967.1,-123936.4,0.03,-0.02,0.88,-4,0,-2,4,0
'[11:23:00.096 21/01/2026]',-102869.6,-171563.7,-115097,19703.64,-375000,-375000,-144377.7,-124942.4,0.03,-0.02,0.88,-4,0,-2,4,0
'[11:23:00.100 21/01/2026]',-101123.7,-169733.1,-113319.8,21687.85,-375000,-375000,-142806.5,-123207.5,0.03,-0.02,0.88,-4,0,-2,4,0
'[11:23:00.104 21/01/2026]',-99354.71,-166873.8,-111639.9,23214.97,-375000,-375000,-141221,-121993.5,0.03,-0.02,0.88,-4,0,-2,4,0
'[11:23:00.108 21/01/2026]',-100889.1,-168365.6,-113232.5,21381.5,-375000,-375000,-142598.1,-123597.2,0.05,-0.02,0.88,-4,0,-2,4,0
'[11:23:00.112 21/01/2026]',-102824.2,-171384.2,-115078.4,19676.29,-375000,-375000,-144342.9,-124982.1,0.05,-0.02,0.88,-4,0,-2,4,0
'[11:23:00.116 21/01/2026]',-101514.2,-170267.9,-113707.4,21290.35,-375000,-375000,-143172,-123552.5,0.05,-0.02,0.88,-4,0,-2,4,0
'[11:23:00.120 21/01/2026]',-99447.6,-167159,-111718.2,23181.22,-375000,-375000,-141317.8,-122010.2,0.05,-0.02,0.88,-4,0,-2,4,0
'[11:23:00.124 21/01/2026]',-100499.7,-167863.9,-112846.3,21786.15,-375000,-375000,-142249.4,-123263.2,0.05,-0.02,0.88,-4,0,-2,4,0
'[11:23:00.128 21/01/2026]',-102664.1,-171051.6,-114934.3,19774.9,-375000,-375000,-144199.7,-124915.4,0.05,-0.02,0.88,-4,0,-2,4,0
'[11:23:00.132 21/01/2026]',-101910.3,-170745.3,-114098.6,20879.57,-375000,-375000,-143523.9,-123900.5,0.05,-0.02,0.88,-4,0,-2,4,0
'[11:23:00.136 21/01/2026]',-99664.15,-167559.7,-111917.1,23025.07,-375000,-375000,-141508.2,-122124.7,0.05,-0.02,0.88,-4,0,-2,4,0
'[11:23:00.140 21/01/2026]',-100110.8,-167394.2,-112455.2,22201.81,-375000,-375000,-141905.3,-122907.9,0.05,-0.02,0.88,-4,0,-2,4,0
'[11:23:00.144 21/01/2026]',-102426,-170614.3,-114713.4,19959.88,-375000,-375000,-143984.2,-124773.4,0.03,-0.02,0.88,-4,0,-2,4,0
'[11:23:00.148 21/01/2026]',-102287.2,-171152.5,-114478,20477.24,-375000,-375000,-143851.4,-124244.1,0.03,-0.02,0.88,-4,0,-2,4,0
'[11:23:00.152 21/01/2026]',-99954.27,-168049,-112186.8,22779.02,-375000,-375000,-141769.6,-122318.7,0.03,-0.02,0.88,-4,0,-2,4,0
'[11:23:00.156 21/01/2026]',-99780.15,-167060,-112120.3,22569.23,-375000,-375000,-141617.8,-122594.9,0.03,-0.02,0.88,-4,0,-2,4,0
'[11:23:00.160 21/01/2026]',-102095.9,-170091.3,-114414.2,20235.17,-375000,-375000,-143690.3,-124545.2,0.03,-0.02,0.88,-4,0,-2,4,0
'[11:23:00.164 21/01/2026]',-102562.5,-171429.2,-114764.6,20140.57,-375000,-375000,-144112.4,-124538.4,0.03,-0.02,0.88,-4,0,-2,4,0
'[11:23:00.168 21/01/2026]',-100305.4,-168579.7,-112521.7,22464.8,-375000,-375000,-142082.9,-122568.5,0.03,-0.02,0.88,-4,0,-2,4,0
'[11:23:00.172 21/01/2026]',-99532.13,-166823.2,-111850.4,22888.37,-375000,-375000,-141390.4,-122313.2,0.03,-0.02,0.88,-4,0,-2,4,0
'[11:23:00.176 21/01/2026]',-101727.4,-169525,-114044.5,20580.55,-375000,-375000,-143356.2,-124271.6,0.03,-0.02,0.88,-4,0,-2,4,0
'[11:23:00.180 21/01/2026]',-102762.4,-171568.4,-114977.6,19876.47,-375000,-375000,-144293.7,-124777.5,0.03,-0.02,0.88,-4,0,-2,4,0
'[11:23:00.184 21/01/2026]',-100700,-169153,-112906,22091.53,-375000,-375000,-142440,-122875.5,0.03,-0.02,0.88,-4,0,-2,4,0
'[11:23:00.188 21/01/2026]',-99382.73,-166768.8,-111690.9,23102.72,-375000,-375000,-141265,-122117.1,0.03,-0.02,0.88,-4,0,-2,4,0
'[11:23:00.192 21/01/2026]',-101333.2,-168961,-113670.3,20947.34,-375000,-375000,-143005.2,-123966.7,0.03,-0.02,0.88,-4,0,-2,4,0
'[11:23:00.196 21/01/2026]',-102864.3,-171574.5,-115097.8,19703.42,-375000,-375000,-144383.6,-124935.8,0.03,-0.02,0.88,-4,0,-2,4,0
'[11:23:00.200 21/01/2026]',-101090.7,-169699.6,-113289.4,21712.35,-375000,-375000,-142790.6,-123189.6,0.03,-0.02,0.88,-4,0,-2,4,0
'[11:23:00.204 21/01/2026]',-99366.64,-166901.4,-111649.1,23182.24,-375000,-375000,-141244.5,-122022.4,0.03,-0.02,0.88,-4,0,-2,4,0
'[11:23:00.208 21/01/2026]',-100977.3,-168499.6,-113301.4,21299.02,-375000,-375000,-142664,-123655.1,0.03,-0.02,0.88,-4,0,-2,4,0
'[11:23:00.212 21/01/2026]',-102828.8,-171408.7,-115071.6,19689.61,-375000,-375000,-144349,-124972.9,0.03,-0.02,0.88,-4,0,-2,4,0
'[11:23:00.216 21/01/2026]',-101484.9,-170207.2,-113684.3,21322.31,-375000,-375000,-143144.4,-123525,0.05,-0.02,0.88,-4,0,-2,4,0
'[11:23:00.220 21/01/2026]',-99473.17,-167197.9,-111730.5,23133.52,-375000,-375000,-141337,-122038.9,0.05,-0.02,0.88,-4,0,-2,4,0
'[11:23:00.224 21/01/2026]',-100560.9,-168001.2,-112886.1,21713.78,-375000,-375000,-142303.8,-123310.8,0.05,-0.02,0.88,-4,0,-2,4,0
'[11:23:00.228 21/01/2026]',-102676.8,-171076.5,-114944.9,19787.82,-375000,-375000,-144202.2,-124904.6,0.05,-0.02,0.88,-4,0,-2,4,0
'[11:23:00.232 21/01/2026]',-101884.3,-170654,-114081.2,20921.72,-375000,-375000,-143481.8,-123859.8,0.05,-0.02,0.88,-4,0,-2,4,0
'[11:23:00.236 21/01/2026]',-99651.31,-167527,-111893.2,23023.68,-375000,-375000,-141486.3,-122111.3,0.05,-0.02,0.88,-4,0,-2,4,0
'[11:23:00.240 21/01/2026]',-100168.9,-167487.7,-112503.3,22129.03,-375000,-375000,-141949.5,-122954.5,0.05,-0.02,0.88,-4,0,-2,4,0
'[11:23:00.244 21/01/2026]',-102446.5,-170664.1,-114731.4,19940.04,-375000,-375000,-143996.7,-124777.1,0.05,-0.02,0.88,-4,0,-2,4,0
'[11:23:00.248 21/01/2026]',-102222.8,-171093.4,-114425,20529.58,-375000,-375000,-143804.5,-124193.1,0.05,-0.02,0.88,-4,0,-2,4,0
'[11:23:00.252 21/01/2026]',-99933.93,-168010.3,-112168.3,22792.16,-375000,-375000,-141740.9,-122296.3,0.03,-0.02,0.88,-4,0,-2,4,0
'[11:23:00.256 21/01/2026]',-99825.48,-167109.9,-112149.2,22527.65,-375000,-375000,-141638.2,-122619.3,0.03,-0.02,0.88,-4,0,-2,4,0
'[11:23:00.260 21/01/2026]',-102136.7,-170153.1,-114429.9,20214.65,-375000,-375000,-143710,-124562,0.03,-0.02,0.88,-4,0,-2,4,0
'[11:23:00.264 21/01/2026]',-102542.6,-171396.9,-114739.6,20176.29,-375000,-375000,-144084.6,-124510.8,0.03,-0.02,0.88,-4,0,-2,4,0
'[11:23:00.268 21/01/2026]',-100293.8,-168542.3,-112527.3,22469.98,-375000,-375000,-142067.1,-122560.7,0.03,-0.02,0.88,-4,0,-2,4,0
'[11:23:00.272 21/01/2026]',-99572.05,-166885.7,-111887.1,22833.6,-375000,-375000,-141421.2,-122349.3,0.03,-0.02,0.88,-4,0,-2,4,0
'[11:23:00.276 21/01/2026]',-101792.8,-169615.8,-114101.1,20534.73,-375000,-375000,-143388.1,-124298.6,0.03,-0.02,0.88,-4,0,-2,4,0
'[11:23:00.280 21/01/2026]',-102763.8,-171582.8,-114968.4,19892.29,-375000,-375000,-144281.6,-124764.5,0.03,-0.02,0.88,-4,0,-2,4,0
'[11:23:00.284 21/01/2026]',-100671.2,-169112.8,-112868.9,22125.68,-375000,-375000,-142400,-122849.4,0.03,-0.02,0.88,-4,0,-2,4,0
'[11:23:00.288 21/01/2026]',-99400.53,-166777.5,-111695.7,23089.48,-375000,-375000,-141256.3,-122120.2,0.03,0.00,0.88,-4,0,-2,4,0
'[11:23:00.292 21/01/2026]',-101373.3,-169025.7,-113696.4,20918.15,-375000,-375000,-143015.3,-123977.9,0.03,0.00,0.88,-4,0,-2,4,0
'[11:23:00.296 21/01/2026]',-102866.4,-171582.4,-115095,19717.1,-375000,-375000,-144368.8,-124926.2,0.03,0.00,0.88,-4,0,-2,4,0
'[11:23:00.300 21/01/2026]',-101084.4,-169670.4,-113284.9,21732.06,-375000,-375000,-142763,-123178.4,0.03,0.00,0.88,-4,0,-2,4,0
'[11:23:00.304 21/01/2026]',-99347.51,-166867.3,-111638.5,23203.26,-375000,-375000,-141221.3,-122011.3,0.03,0.00,0.88,-4,0,-2,4,0
'[11:23:00.308 21/01/2026]',-100960.5,-168458.6,-113295.9,21317.62,-375000,-375000,-142652.6,-123649,0.03,0.00,0.88,-4,0,-2,4,0
'[11:23:00.312 21/01/2026]',-102846,-171416,-115087.8,19670.38,-375000,-375000,-144350.4,-124980.9,0.03,0.00,0.88,-4,0,-2,4,0
'[11:23:00.316 21/01/2026]',-101485.5,-170215.5,-113673.4,21321.02,-375000,-375000,-143133.1,-123521.1,0.03,0.00,0.88,-4,0,-2,4,0
'[11:23:00.320 21/01/2026]',-99456.81,-167137.7,-111729.1,23167.58,-375000,-375000,-141313,-122019.1,0.03,0.00,0.88,-4,0,-2,4,0
'[11:23:00.324 21/01/2026]',-100564,-167965.4,-112907.9,21704.08,-375000,-375000,-142309.6,-123324.7,0.03,0.00,0.88,-4,0,-2,4,0
'[11:23:00.328 21/01/2026]',-102698.3,-171118.2,-114963.1,19747.14,-375000,-375000,-144229,-124936.4,0.03,0.00,0.88,-4,0,-2,4,0
'[11:23:00.332 21/01/2026]',-101858.6,-170677.6,-114048.9,20929.1,-375000,-375000,-143479.7,-123862.4,0.03,0.00,0.88,-4,0,-2,4,0
'[11:23:00.336 21/01/2026]',-99650.16,-167521.4,-111899.1,23029.13,-375000,-375000,-141490.7,-122121.6,0.03,0.00,0.88,-4,0,-2,4,0
'[11:23:00.340 21/01/2026]',-100187.4,-167494.7,-112530,22116.96,-375000,-375000,-141967.6,-122976.1,0.03,0.00,0.88,-4,0,-2,4,0
'[11:23:00.344 21/01/2026]',-102478.8,-170689.5,-114767.1,19919.52,-375000,-375000,-144020.2,-124802.1,0.03,0.00,0.88,-4,0,-2,4,0
'[11:23:00.348 21/01/2026]',-102227,-171095.3,-114415.2,20530.57,-375000,-375000,-143808.9,-124206.8,0.03,0.00,0.88,-4,0,-2,4,0
'[11:23:00.352 21/01/2026]',-99923.47,-167988.6,-112154.6,22805.75,-375000,-375000,-141734.5,-122293.6,0.03,0.00,0.88,-4,0,-2,4,0
'[11:23:00.356 21/01/2026]',-99848.23,-167120.2,-112177.5,22502.04,-375000,-375000,-141663,-122643,0.03,0.00,0.88,-4,0,-2,4,0
'[11:23:00.360 21/01/2026]',-102155,-170180.9,-114454.3,20195.74,-375000,-375000,-143728.2,-124574.2,0.03,-0.02,0.88,-4,0,-2,4,0
'[11:23:00.364 21/01/2026]',-102542.2,-171420.2,-114745.5,20169.9,-375000,-375000,-144080.9,-124507.2,0.03,-0.02,0.88,-4,0,-2,4,0
'[11:23:00.368 21/01/2026]',-100276,-168538.5,-112498.3,22483.13,-375000,-375000,-142052,-122550.9,0.03,-0.02,0.88,-4,0,-2,4,0
'[11:23:00.372 21/01/2026]',-99584.75,-166898.5,-111901.1,22820.41,-375000,-375000,-141428.3,-122361.6,0.03,-0.02,0.88,-4,0,-2,4,0
'[11:23:00.376 21/01/2026]',-101808.3,-169643.4,-114121,20513.04,-375000,-375000,-143399.9,-124309.8,0.03,-0.02,0.88,-4,0,-2,4,0
'[11:23:00.380 21/01/2026]',-102751.8,-171573.5,-114962.5,19898.01,-375000,-375000,-144268.2,-124751.3,0.03,-0.02,0.88,-4,0,-2,4,0
'[11:23:00.384 21/01/2026]',-100646.2,-169086,-112862.8,22135.74,-375000,-375000,-142380.6,-122832.9,0.03,-0.02,0.88,-4,0,-2,4,0
'[11:23:00.388 21/01/2026]',-99396.46,-166786.2,-111719,23068.16,-375000,-375000,-141265,-122130.7,0.03,-0.02,0.88,-4,0,-2,4,0
'[11:23:00.392 21/01/2026]',-101395.6,-169048.9,-113724.6,20894.32,-375000,-375000,-143036.8,-123991.7,0.03,-0.02,0.88,-4,0,-2,4,0
'[11:23:00.396 21/01/2026]',-102873.7,-171573.6,-115090.4,19726.31,-375000,-375000,-144357.9,-124906.4,0.03,-0.02,0.88,-4,0,-2,4,0
'[11:23:00.400 21/01/2026]',-101069.6,-169641,-113258.3,21751.11,-375000,-375000,-142738.6,-123150.1,0.03,-0.02,0.88,-4,0,-2,4,0
'[11:23:00.404 21/01/2026]',-99375.27,-166867.6,-111656.1,23190.52,-375000,-375000,-141228.7,-122015.8,0.03,-0.02,0.88,-4,0,-2,4,0
'[11:23:00.408 21/01/2026]',-100992,-168489.8,-113320.9,21293.97,-375000,-375000,-142671.4,-123663.8,0.03,-0.02,0.88,-4,0,-2,4,0
'[11:23:00.412 21/01/2026]',-102855.2,-171432.9,-115093,19669.22,-375000,-375000,-144346.1,-124971.5,0.03,-0.02,0.88,-4,0,-2,4,0
'[11:23:00.416 21/01/2026]',-101453.5,-170168.4,-113643.6,21353.78,-375000,-375000,-143093.8,-123483.9,0.03,-0.02,0.88,-4,0,-2,4,0
'[11:23:00.420 21/01/2026]',-99439.82,-167096.2,-111706.3,23185.06,-375000,-375000,-141286.8,-121999.8,0.03,-0.02,0.88,-4,0,-2,4,0
'[11:23:00.424 21/01/2026]',-100596.1,-167958.6,-112937.3,21696.88,-375000,-375000,-142311.9,-123324,0.03,-0.02,0.88,-4,0,-2,4,0
'[11:23:00.428 21/01/2026]',-102705.2,-171121.4,-114979.5,19742.31,-375000,-375000,-144227.4,-124929.8,0.03,-0.02,0.88,-4,0,-2,4,0
'[11:23:00.432 21/01/2026]',-101832.8,-170657.8,-114032.9,20946.71,-375000,-375000,-143453.8,-123838.2,0.03,-0.02,0.88,-4,0,-2,4,0
'[11:23:00.436 21/01/2026]',-99636.79,-167493.2,-111884.7,23049.56,-375000,-375000,-141464.1,-122098.9,0.03,-0.02,0.88,-4,0,-2,4,0
'[11:23:00.440 21/01/2026]',-100214.7,-167492.4,-112546.6,22107.13,-375000,-375000,-141970.5,-122979.6,0.03,-0.02,0.88,-4,0,-2,4,0
'[11:23:00.444 21/01/2026]',-102500.7,-170712.7,-114775.7,19907.4,-375000,-375000,-144025.9,-124807,0.03,-0.02,0.88,-4,0,-2,4,0
'[11:23:00.448 21/01/2026]',-102208.5,-171069.1,-114391.8,20558.37,-375000,-375000,-143772,-124167.8,0.03,-0.02,0.88,-4,0,-2,4,0
'[11:23:00.452 21/01/2026]',-99910.1,-167955,-112142,22825.38,-375000,-375000,-141704,-122268,0.03,-0.02,0.88,-4,0,-2,4,0
'[11:23:00.456 21/01/2026]',-99871.79,-167118,-112200.4,22495.2,-375000,-375000,-141666.1,-122649.6,0.03,-0.02,0.88,-4,0,-2,4,0
'[11:23:00.460 21/01/2026]',-102194.7,-170205,-114488.2,20175.13,-375000,-375000,-143744.8,-124591.8,0.03,-0.02,0.88,-4,0,-2,4,0
'[11:23:00.464 21/01/2026]',-102506.1,-171374,-114700.6,20215.77,-375000,-375000,-144046,-124471.3,0.03,-0.02,0.88,-4,0,-2,4,0
'[11:23:00.468 21/01/2026]',-100238.3,-168483.9,-112462.2,22528.68,-375000,-375000,-142011,-122512.3,0.03,-0.02,0.88,-4,0,-2,4,0
'[11:23:00.472 21/01/2026]',-99600.66,-166902.5,-111916.5,22810.76,-375000,-375000,-141438.6,-122372,0.03,-0.02,0.88,-4,0,-2,4,0
'[11:23:00.476 21/01/2026]',-101830.8,-169689.9,-114142.7,20490.96,-375000,-375000,-143434.4,-124331.2,0.03,-0.02,0.88,-4,0,-2,4,0
'[11:23:00.480 21/01/2026]',-102738.1,-171544,-114950.6,19927.07,-375000,-375000,-144260.9,-124735.4,0.03,-0.02,0.88,-4,0,-2,4,0
'[11:23:00.484 21/01/2026]',-100614.9,-169038,-112823.2,22172.21,-375000,-375000,-142357.7,-122812.4,0.03,-0.02,0.88,-4,0,-2,4,0
'[11:23:00.488 21/01/2026]',-99429.14,-166818.8,-111728.9,23052.43,-375000,-375000,-141278.1,-122150.5,0.03,-0.02,0.88,-4,0,-2,4,0
'[11:23:00.492 21/01/2026]',-101443,-169137.5,-113756,20855.03,-375000,-375000,-143072.3,-124029.9,0.03,-0.02,0.88,-4,0,-2,4,0
'[11:23:00.496 21/01/2026]',-102864.8,-171619.3,-115078.4,19733.37,-375000,-375000,-144358.4,-124906.5,0.03,-0.02,0.88,-4,0,-2,4,0
'[11:23:00.500 21/01/2026]',-101044.1,-169632.8,-113230.6,21774.04,-375000,-375000,-142714.2,-123131,0.03,-0.02,0.88,-4,0,-2,4,0
'[11:23:00.504 21/01/2026]',-99392.13,-166890,-111667.3,23173.8,-375000,-375000,-141229.5,-122027.2,0.03,-0.02,0.88,-4,0,-2,4,0
'[11:23:00.508 21/01/2026]',-101047.3,-168568.5,-113364.1,21248.78,-375000,-375000,-142706.9,-123701.3,0.03,-0.02,0.88,-4,0,-2,4,0
'[11:23:00.512 21/01/2026]',-102878,-171477,-115102.6,19661.89,-375000,-375000,-144359,-124980.4,0.03,-0.02,0.88,-4,0,-2,4,0
'[11:23:00.516 21/01/2026]',-101453.4,-170164.4,-113629.7,21373.59,-375000,-375000,-143075.9,-123466.1,0.03,-0.02,0.88,-4,0,-2,4,0
'[11:23:00.520 21/01/2026]',-99466.55,-167135.7,-111726.2,23159.76,-375000,-375000,-141296.7,-122013.7,0.03,-0.02,0.88,-4,0,-2,4,0
'[11:23:00.524 21/01/2026]',-100645.3,-168078.1,-112970,21636.85,-375000,-375000,-142358.8,-123368.8,0.03,-0.02,0.88,-4,0,-2,4,0
'[11:23:00.528 21/01/2026]',-102743.4,-171194.5,-114994.2,19724.88,-375000,-375000,-144243.8,-124938.1,0.03,-0.02,0.88,-4,0,-2,4,0
'[11:23:00.532 21/01/2026]',-101834.8,-170654.9,-114012.9,20969.51,-375000,-375000,-143427.7,-123809.2,0.03,-0.02,0.88,-4,0,-2,4,0
'[11:23:00.536 21/01/2026]',-99642.64,-167487.9,-111879.5,23054.62,-375000,-375000,-141451.9,-122095.5,0.03,-0.02,0.88,-4,0,-2,4,0
'[11:23:00.540 21/01/2026]',-100268.7,-167575.8,-112594.5,22058.89,-375000,-375000,-142005.6,-123019.2,0.03,0.00,0.88,-4,0,-2,4,0
'[11:23:00.544 21/01/2026]',-102555.3,-170787.6,-114829.3,19874.77,-375000,-375000,-144047,-124816.9,0.03,0.00,0.88,-4,0,-2,4,0
'[11:23:00.548 21/01/2026]',-102217.7,-171079.8,-114412.7,20561.77,-375000,-375000,-143764.1,-124154.1,0.03,0.00,0.88,-4,0,-2,4,0
'[11:23:00.552 21/01/2026]',-99898.88,-167947.3,-112116.5,22834.27,-375000,-375000,-141698.2,-122263.9,0.03,0.00,0.88,-4,0,-2,4,0
'[11:23:00.556 21/01/2026]',-99913.63,-167188.5,-112226.3,22447.28,-375000,-375000,-141703.9,-122688.2,0.03,0.00,0.88,-4,0,-2,4,0
'[11:23:00.560 21/01/2026]',-102241,-170296.1,-114525.2,20126.72,-375000,-375000,-143786.4,-124623.3,0.03,0.00,0.88,-4,0,-2,4,0
'[11:23:00.564 21/01/2026]',-102517.1,-171399,-114706.6,20208.26,-375000,-375000,-144049.4,-124471.8,0.03,0.00,0.88,-4,0,-2,4,0
'[11:23:00.568 21/01/2026]',-100244.3,-168491.2,-112459.3,22519.78,-375000,-375000,-142014.9,-122521.6,0.03,0.00,0.88,-4,0,-2,4,0
'[11:23:00.572 21/01/2026]',-99632.98,-166938.1,-111946.9,22775.04,-375000,-375000,-141470.8,-122409.9,0.03,0.00,0.88,-4,0,-2,4,0
'[11:23:00.576 21/01/2026]',-101866.8,-169739.2,-114172,20456.49,-375000,-375000,-143467.4,-124367.6,0.05,-0.02,0.88,-4,0,-2,4,0
'[11:23:00.580 21/01/2026]',-102751.5,-171596.8,-114952.2,19913.53,-375000,-375000,-144274.6,-124749,0.05,-0.02,0.88,-4,0,-2,4,0
'[11:23:00.584 21/01/2026]',-100617.9,-169052.3,-112822.7,22170.34,-375000,-375000,-142359.6,-122817.7,0.05,-0.02,0.88,-4,0,-2,4,0
'[11:23:00.588 21/01/2026]',-99441.08,-166809.5,-111752.4,23027.88,-375000,-375000,-141312.5,-122192.4,0.05,-0.02,0.88,-4,0,-2,4,0
'[11:23:00.592 21/01/2026]',-101494.3,-169163,-113813.5,20811.13,-375000,-375000,-143124.9,-124080.9,0.05,-0.02,0.88,-4,0,-2,4,0
'[11:23:00.596 21/01/2026]',-102877.3,-171631.7,-115092.8,19720.32,-375000,-375000,-144387.1,-124930.7,0.05,-0.02,0.88,-4,0,-2,4,0
'[11:23:00.600 21/01/2026]',-101011.1,-169593.9,-113208.5,21796.66,-375000,-375000,-142712.4,-123133,0.05,-0.02,0.88,-4,0,-2,4,0
'[11:23:00.604 21/01/2026]',-99399.77,-166896.7,-111682,23144.47,-375000,-375000,-141259.8,-122068.1,0.05,-0.02,0.88,-4,0,-2,4,0
'[11:23:00.608 21/01/2026]',-101105.7,-168675,-113429.4,21173.27,-375000,-375000,-142781.8,-123778,0.05,-0.02,0.88,-4,0,-2,4,0
'[11:23:00.612 21/01/2026]',-102873.8,-171513.7,-115108.8,19657.38,-375000,-375000,-144383.9,-124997.7,0.02,0.00,0.88,-4,0,-2,4,0
'[11:23:00.616 21/01/2026]',-101408,-170129.5,-113603.8,21396.97,-375000,-375000,-143067.3,-123457.9,0.02,0.00,0.88,-4,0,-2,4,0
'[11:23:00.620 21/01/2026]',-99455.83,-167133.3,-111729.6,23141.97,-375000,-375000,-141314.8,-122043.9,0.02,0.00,0.88,-4,0,-2,4,0
'[11:23:00.624 21/01/2026]',-100687.6,-168159.5,-113022.2,21579.31,-375000,-375000,-142419.9,-123434.5,0.02,0.00,0.88,-4,0,-2,4,0
'[11:23:00.628 21/01/2026]',-102767.9,-171240.8,-115022.1,19708.11,-375000,-375000,-144282.4,-124971.3,0.02,0.00,0.88,-4,0,-2,4,0
'[11:23:00.632 21/01/2026]',-101797.3,-170601.7,-113981.3,21009.12,-375000,-375000,-143415.5,-123795.4,0.02,0.00,0.88,-4,0,-2,4,0
'[11:23:00.636 21/01/2026]',-99626.59,-167466.1,-111871.3,23042.23,-375000,-375000,-141468.3,-122117.3,0.02,0.00,0.88,-4,0,-2,4,0
'[11:23:00.640 21/01/2026]',-100304.5,-167645.7,-112626.3,21999.12,-375000,-375000,-142070.7,-123083.9,0.02,0.00,0.88,-4,0,-2,4,0
'[11:23:00.644 21/01/2026]',-102554.4,-170828.8,-114827,19860.82,-375000,-375000,-144090.3,-124846.3,0.02,0.00,0.88,-4,0,-2,4,0
'[11:23:00.648 21/01/2026]',-102156.4,-171009.5,-114352,20618.5,-375000,-375000,-143742.6,-124119.5,0.03,0.00,0.88,-4,0,-2,4,0
'[11:23:00.652 21/01/2026]',-99911.71,-167951.2,-112136.1,22804.72,-375000,-375000,-141713.5,-122283.6,0.03,0.00,0.88,-4,0,-2,4,0
'[11:23:00.656 21/01/2026]',-99966.88,-167306.7,-112284,22372.22,-375000,-375000,-141772,-122750.7,0.03,0.00,0.88,-4,0,-2,4,0
'[11:23:00.660 21/01/2026]',-102244.9,-170343.1,-114542.5,20121.22,-375000,-375000,-143825.3,-124645.3,0.03,0.00,0.88,-4,0,-2,4,0
'[11:23:00.664 21/01/2026]',-102456,-171320.8,-114664.9,20276.07,-375000,-375000,-144024.8,-124429.5,0.03,0.00,0.88,-4,0,-2,4,0
'[11:23:00.668 21/01/2026]',-100194.6,-168418.8,-112418.3,22553.58,-375000,-375000,-141989.9,-122494.2,0.03,0.00,0.88,-4,0,-2,4,0
'[11:23:00.672 21/01/2026]',-99678,-167005.5,-111989,22704.32,-375000,-375000,-141520.3,-122462.3,0.03,0.00,0.88,-4,0,-2,4,0
'[11:23:00.676 21/01/2026]',-101895.2,-169816.3,-114204.2,20425.52,-375000,-375000,-143510.5,-124398.5,0.03,0.00,0.88,-4,0,-2,4,0
'[11:23:00.680 21/01/2026]',-102697.6,-171537.1,-114918.7,19974.23,-375000,-375000,-144241.7,-124700.4,0.03,0.00,0.88,-4,0,-2,4,0
'[11:23:00.684 21/01/2026]',-100571.4,-168958,-112787.3,22210.88,-375000,-375000,-142325,-122784.6,0.02,-0.02,0.88,-4,0,-2,4,0
'[11:23:00.688 21/01/2026]',-99502.72,-166899.3,-111803.9,22948.67,-375000,-375000,-141355.2,-122237.6,0.02,-0.02,0.88,-4,0,-2,4,0
'[11:23:00.692 21/01/2026]',-101510.1,-169276.3,-113835.9,20776.08,-375000,-375000,-143164.9,-124102.9,0.02,-0.02,0.88,-4,0,-2,4,0
'[11:23:00.696 21/01/2026]',-102841.2,-171584.1,-115080,19771.28,-375000,-375000,-144362,-124889.6,0.02,-0.02,0.88,-4,0,-2,4,0
'[11:23:00.700 21/01/2026]',-100969.4,-169514.8,-113179,21828.98,-375000,-375000,-142675.7,-123094.8,0.02,-0.02,0.88,-4,0,-2,4,0
'[11:23:00.704 21/01/2026]',-99411.44,-166940.9,-111683.7,23105.85,-375000,-375000,-141281.4,-122088.6,0.02,-0.02,0.88,-4,0,-2,4,0
'[11:23:00.708 21/01/2026]',-101112.6,-168701.2,-113445.1,21164.82,-375000,-375000,-142801.1,-123778,0.02,-0.02,0.88,-4,0,-2,4,0
'[11:23:00.712 21/01/2026]',-102862.1,-171500.9,-115111,19662.92,-375000,-375000,-144384.8,-124985.5,0.02,-0.02,0.88,-4,0,-2,4,0
'[11:23:00.716 21/01/2026]',-101375,-170083.8,-113573.6,21425.26,-375000,-375000,-143045.3,-123432.2,0.02,-0.02,0.88,-4,0,-2,4,0
'[11:23:00.720 21/01/2026]',-99418.81,-167071.9,-111699.6,23177.64,-375000,-375000,-141293.4,-122014.2,0.03,-0.03,0.88,-4,0,-2,4,0
'[11:23:00.724 21/01/2026]',-100700.2,-168120.5,-113037.6,21580.56,-375000,-375000,-142427,-123431.6,0.03,-0.03,0.88,-4,0,-2,4,0
'[11:23:00.728 21/01/2026]',-102791,-171246.5,-115046.9,19688.13,-375000,-375000,-144297.2,-124978.5,0.03,-0.03,0.88,-4,0,-2,4,0
'[11:23:00.732 21/01/2026]',-101770.5,-170591.6,-113961.7,21020.83,-375000,-375000,-143401,-123779.7,0.03,-0.03,0.88,-4,0,-2,4,0
'[11:23:00.736 21/01/2026]',-99596.51,-167440.7,-111846.8,23068.03,-375000,-375000,-141447.2,-122092.3,0.03,-0.03,0.88,-4,0,-2,4,0
'[11:23:00.740 21/01/2026]',-100307.9,-167644.2,-112641.8,21994.21,-375000,-375000,-142074.1,-123078.3,0.03,-0.03,0.88,-4,0,-2,4,0
'[11:23:00.744 21/01/2026]',-102560.8,-170835.7,-114834.5,19852.24,-375000,-375000,-144092.9,-124845.6,0.03,-0.03,0.88,-4,0,-2,4,0
'[11:23:00.748 21/01/2026]',-102134.3,-171002.7,-114328.9,20632.76,-375000,-375000,-143721.4,-124107,0.03,-0.03,0.88,-4,0,-2,4,0
'[11:23:00.752 21/01/2026]',-99854.13,-167899.5,-112101.2,22856.18,-375000,-375000,-141679.5,-122255.2,0.03,-0.03,0.88,-4,0,-2,4,0
'[11:23:00.756 21/01/2026]',-99950.34,-167258.2,-112285.1,22388.22,-375000,-375000,-141759.2,-122745,0.03,-0.02,0.88,-4,0,-2,4,0
'[11:23:00.760 21/01/2026]',-102277,-170359.8,-114571.1,20094.31,-375000,-375000,-143831.9,-124658.4,0.03,-0.02,0.88,-4,0,-2,4,0
'[11:23:00.764 21/01/2026]',-102461.6,-171347.9,-114655.6,20262.3,-375000,-375000,-144014.3,-124427.7,0.03,-0.02,0.88,-4,0,-2,4,0
'[11:23:00.768 21/01/2026]',-100192.5,-168404.8,-112415.5,22565.78,-375000,-375000,-141968.9,-122479.8,0.03,-0.02,0.88,-4,0,-2,4,0
'[11:23:00.772 21/01/2026]',-99663.34,-166966.1,-111993.6,22727.97,-375000,-375000,-141500.7,-122442.9,0.03,-0.02,0.88,-4,0,-2,4,0
'[11:23:00.776 21/01/2026]',-101912.1,-169817.7,-114223.1,20407.37,-375000,-375000,-143513,-124400.2,0.03,-0.02,0.88,-4,0,-2,4,0
'[11:23:00.780 21/01/2026]',-102714.7,-171557.9,-114913.3,19957.74,-375000,-375000,-144236.9,-124698.2,0.03,-0.02,0.88,-4,0,-2,4,0
'[11:23:00.784 21/01/2026]',-100576.9,-168966.1,-112783.9,22215.67,-375000,-375000,-142308.5,-122765.8,0.03,-0.02,0.88,-4,0,-2,4,0
'[11:23:00.788 21/01/2026]',-99453.23,-166836.4,-111765.2,23001.96,-375000,-375000,-141323.2,-122204.6,0.03,-0.02,0.88,-4,0,-2,4,0
'[11:23:00.792 21/01/2026]',-101525.7,-169251.1,-113845.7,20770.71,-375000,-375000,-143162.9,-124106,0.03,0.00,0.88,-4,0,-2,4,0
'[11:23:00.796 21/01/2026]',-102865.5,-171620.9,-115078.7,19747.9,-375000,-375000,-144360.3,-124884.6,0.03,0.00,0.88,-4,0,-2,4,0
'[11:23:00.800 21/01/2026]',-100964.5,-169521.3,-113158.7,21840.43,-375000,-375000,-142664.6,-123085.5,0.03,0.00,0.88,-4,0,-2,4,0
'[11:23:00.804 21/01/2026]',-99398.3,-166873.5,-111688.5,23141.97,-375000,-375000,-141257.9,-122065.2,0.03,0.00,0.88,-4,0,-2,4,0
'[11:23:00.808 21/01/2026]',-101125.1,-168693,-113464.9,21153.29,-375000,-375000,-142799.3,-123778.2,0.03,0.00,0.88,-4,0,-2,4,0
'[11:23:00.812 21/01/2026]',-102876.3,-171517.9,-115118.2,19658.94,-375000,-375000,-144377.9,-124977.5,0.03,0.00,0.88,-4,0,-2,4,0
'[11:23:00.816 21/01/2026]',-101363.1,-170059.3,-113548.8,21447.71,-375000,-375000,-143014.9,-123405.9,0.03,0.00,0.88,-4,0,-2,4,0
'[11:23:00.820 21/01/2026]',-99435.98,-167072,-111696.2,23175.58,-375000,-375000,-141288.1,-122018.1,0.03,0.00,0.88,-4,0,-2,4,0
'[11:23:00.824 21/01/2026]',-100741.1,-168171.6,-113064.4,21551.69,-375000,-375000,-142447.9,-123455.8,0.03,0.00,0.88,-4,0,-2,4,0
'[11:23:00.828 21/01/2026]',-102812.1,-171282,-115057.6,19680.89,-375000,-375000,-144300.1,-124983.2,0.02,-0.02,0.86,-4,0,-2,4,0
'[11:23:00.832 21/01/2026]',-101759.8,-170568.3,-113952.6,21040.54,-375000,-375000,-143378.4,-123765.3,0.02,-0.02,0.86,-4,0,-2,4,0
'[11:23:00.836 21/01/2026]',-99581.13,-167404.1,-111854.9,23072.32,-375000,-375000,-141440.1,-122092.4,0.02,-0.02,0.86,-4,0,-2,4,0
'[11:23:00.840 21/01/2026]',-100316.8,-167676.5,-112673,21960.14,-375000,-375000,-142105.9,-123111.2,0.02,-0.02,0.86,-4,0,-2,4,0
'[11:23:00.844 21/01/2026]',-102574.5,-170884.3,-114854.5,19828.72,-375000,-375000,-144111,-124866.2,0.02,-0.02,0.86,-4,0,-2,4,0
'[11:23:00.848 21/01/2026]',-102165.5,-171031.1,-114338.7,20623.33,-375000,-375000,-143712.3,-124095.5,0.02,-0.02,0.86,-4,0,-2,4,0
'[11:23:00.852 21/01/2026]',-99878.86,-167892.9,-112092.6,22864.63,-375000,-375000,-141649.5,-122223.1,0.02,-0.02,0.86,-4,0,-2,4,0
'[11:23:00.856 21/01/2026]',-100006.4,-167294.6,-112311.6,22357.06,-375000,-375000,-141762.5,-122750.1,0.02,-0.02,0.86,-4,0,-2,4,0
'[11:23:00.860 21/01/2026]',-102346.3,-170436.5,-114607.4,20047.01,-375000,-375000,-143848.5,-124668.8,0.02,-0.02,0.86,-4,0,-2,4,0
'[11:23:00.864 21/01/2026]',-102515.1,-171383.5,-114673.1,20243.21,-375000,-375000,-144000.8,-124408.1,0.03,0.00,0.88,-4,0,-2,4,0
'[11:23:00.868 21/01/2026]',-100238,-168432.2,-112417.3,22555.28,-375000,-375000,-141951.4,-122464,0.03,0.00,0.88,-4,0,-2,4,0
'[11:23:00.872 21/01/2026]',-99779.93,-167050.2,-112045.5,22669.45,-375000,-375000,-141526,-122469.8,0.03,0.00,0.88,-4,0,-2,4,0
'[11:23:00.876 21/01/2026]',-102049.7,-169951.8,-114299.5,20334.28,-375000,-375000,-143552.9,-124435.8,0.03,0.00,0.88,-4,0,-2,4,0
'[11:23:00.880 21/01/2026]',-102788.2,-171652.3,-114946.2,19928.19,-375000,-375000,-144239.4,-124695.5,0.03,0.00,0.88,-4,0,-2,4,0
'[11:23:00.884 21/01/2026]',-100625,-169023.1,-112794.1,22195.1,-375000,-375000,-142298.4,-122756.7,0.03,0.00,0.88,-4,0,-2,4,0
'[11:23:00.888 21/01/2026]',-99591.91,-166943.3,-111839.2,22921.8,-375000,-375000,-141350.5,-122234.4,0.03,0.00,0.88,-4,0,-2,4,0
'[11:23:00.892 21/01/2026]',-101681.6,-169391.5,-113946.1,20675.36,-375000,-375000,-143207.3,-124147.7,0.03,0.00,0.88,-4,0,-2,4,0
'[11:23:00.896 21/01/2026]',-102939.2,-171712.4,-115102.4,19714.42,-375000,-375000,-144367.3,-124891.3,0.03,0.00,0.88,-4,0,-2,4,0
'[11:23:00.900 21/01/2026]',-101015.9,-169563.8,-113165.4,21834.57,-375000,-375000,-142636.4,-123056.6,0.03,-0.02,0.88,-4,0,-2,4,0
'[11:23:00.904 21/01/2026]',-99483.86,-166955.5,-111728.9,23093.02,-375000,-375000,-141268.3,-122081.3,0.03,-0.02,0.88,-4,0,-2,4,0
'[11:23:00.908 21/01/2026]',-101253.5,-168868.6,-113535.2,21054.72,-375000,-375000,-142867.3,-123843.1,0.03,-0.02,0.88,-4,0,-2,4,0
'[11:23:00.912 21/01/2026]',-102971.8,-171631.3,-115165.3,19612.4,-375000,-375000,-144413.6,-124997.7,0.03,-0.02,0.88,-4,0,-2,4,0
'[11:23:00.916 21/01/2026]',-101399.2,-170077.6,-113549.2,21453.03,-375000,-375000,-143001.1,-123382.1,0.03,-0.02,0.88,-4,0,-2,4,0
'[11:23:00.920 21/01/2026]',-99483.63,-167108.4,-111717.9,23146.39,-375000,-375000,-141291,-122019.7,0.03,-0.02,0.88,-4,0,-2,4,0
'[11:23:00.924 21/01/2026]',-100846.6,-168299.5,-113132.4,21468.8,-375000,-375000,-142503.7,-123502,0.03,-0.02,0.88,-4,0,-2,4,0
'[11:23:00.928 21/01/2026]',-102893.6,-171392.9,-115099.1,19627.51,-375000,-375000,-144348.4,-125009.5,0.03,-0.02,0.88,-4,0,-2,4,0
'[11:23:00.932 21/01/2026]',-101805.9,-170600,-113952,21035.72,-375000,-375000,-143377.8,-123742.1,0.03,-0.02,0.88,-4,0,-2,4,0
'[11:23:00.936 21/01/2026]',-99657.13,-167454.5,-111868.2,23042.99,-375000,-375000,-141443.5,-122091.9,0.03,0.00,0.89,-4,0,-2,4,0
'[11:23:00.940 21/01/2026]',-100449.9,-167793.4,-112737,21883.25,-375000,-375000,-142151.8,-123154.3,0.03,0.00,0.89,-4,0,-2,4,0
'[11:23:00.944 21/01/2026]',-102694.9,-171005.4,-114921.4,19766.85,-375000,-375000,-144172,-124911,0.03,0.00,0.89,-4,0,-2,4,0
'[11:23:00.948 21/01/2026]',-102175.2,-171040.1,-114330.8,20638.08,-375000,-375000,-143714.7,-124084.4,0.03,0.00,0.89,-4,0,-2,4,0
'[11:23:00.952 21/01/2026]',-99900.54,-167889.2,-112100.8,22856.85,-375000,-375000,-141655.8,-122232.5,0.03,0.00,0.89,-4,0,-2,4,0
'[11:23:00.956 21/01/2026]',-100070.5,-167385.5,-112359,22290.01,-375000,-375000,-141824.9,-122812.2,0.03,0.00,0.89,-4,0,-2,4,0
'[11:23:00.960 21/01/2026]',-102406.7,-170531.6,-114661.6,19996.27,-375000,-375000,-143906.7,-124717.4,0.03,0.00,0.89,-4,0,-2,4,0
'[11:23:00.964 21/01/2026]',-102508.7,-171391.9,-114663.1,20263.91,-375000,-375000,-144007.6,-124406.3,0.03,0.00,0.89,-4,0,-2,4,0
'[11:23:00.968 21/01/2026]',-100196.4,-168379.9,-112373.7,22594.3,-375000,-375000,-141925,-122442.3,0.03,0.00,0.89,-4,0,-2,4,0
'[11:23:00.972 21/01/2026]',-99760.57,-167059,-112043.8,22655.1,-375000,-375000,-141536.3,-122491.9,0.03,-0.02,0.88,-4,0,-2,4,0
'[11:23:00.976 21/01/2026]',-102044.2,-169974.3,-114311.2,20318.09,-375000,-375000,-143577,-124460.9,0.03,-0.02,0.88,-4,0,-2,4,0
'[11:23:00.980 21/01/2026]',-102767.7,-171632.2,-114932.8,19950.67,-375000,-375000,-144233.8,-124687.3,0.03,-0.02,0.88,-4,0,-2,4,0
'[11:23:00.984 21/01/2026]',-100579.8,-168955,-112754.2,22242.8,-375000,-375000,-142266.3,-122733.9,0.03,-0.02,0.88,-4,0,-2,4,0
'[11:23:00.988 21/01/2026]',-99549.84,-166912.5,-111826.1,22929.54,-375000,-375000,-141350.3,-122248.2,0.03,-0.02,0.88,-4,0,-2,4,0
'[11:23:00.992 21/01/2026]',-101655.3,-169432.2,-113950.2,20661.33,-375000,-375000,-143240.1,-124175.2,0.03,-0.02,0.88,-4,0,-2,4,0
'[11:23:00.996 21/01/2026]',-102920,-171709.1,-115109.8,19718.53,-375000,-375000,-144385.4,-124896.7,0.03,-0.02,0.88,-4,0,-2,4,0
'[11:23:01.000 21/01/2026]',-100957.6,-169503.5,-113122,21873.1,-375000,-375000,-142621.5,-123040,0.03,-0.02,0.88,-4,0,-2,4,0
'[11:23:01.004 21/01/2026]',-99455.96,-166920.2,-111709.6,23100.04,-375000,-375000,-141268.4,-122087.2,0.03,-0.02,0.88,-4,0,-2,4,0
'[11:23:01.008 21/01/2026]',-101257,-168841.7,-113551.2,21058.65,-375000,-375000,-142877.7,-123854.1,0.03,-0.02,0.88,-4,0,-2,4,0
'[11:23:01.012 21/01/2026]',-102966.2,-171630.1,-115165.9,19611.69,-375000,-375000,-144423,-125005.5,0.03,-0.02,0.88,-4,0,-2,4,0
'[11:23:01.016 21/01/2026]',-101373.7,-170048.7,-113531.5,21473.23,-375000,-375000,-142989,-123372.3,0.03,-0.02,0.88,-4,0,-2,4,0
'[11:23:01.020 21/01/2026]',-99492.17,-167081.3,-111734.4,23141.74,-375000,-375000,-141297.4,-122032.1,0.03,-0.02,0.88,-4,0,-2,4,0
'[11:23:01.024 21/01/2026]',-100850.4,-168277.7,-113162.2,21459.73,-375000,-375000,-142515.4,-123515.4,0.03,-0.02,0.88,-4,0,-2,4,0
'[11:23:01.028 21/01/2026]',-102875.3,-171378.4,-115120.3,19622.95,-375000,-375000,-144347.9,-125008.5,0.03,-0.02,0.88,-4,0,-2,4,0
'[11:23:01.032 21/01/2026]',-101746.4,-170554.8,-113911.8,21070.05,-375000,-375000,-143343.9,-123712.1,0.03,-0.02,0.88,-4,0,-2,4,0
'[11:23:01.036 21/01/2026]',-99602.59,-167396.9,-111826.6,23077.24,-375000,-375000,-141409,-122063.3,0.03,-0.02,0.88,-4,0,-2,4,0
'[11:23:01.040 21/01/2026]',-100442.9,-167794.9,-112753.2,21872.92,-375000,-375000,-142156.1,-123161.8,0.03,-0.02,0.88,-4,0,-2,4,0
'[11:23:01.044 21/01/2026]',-102691,-171009.7,-114945.5,19754.16,-375000,-375000,-144175.2,-124913.8,0.03,-0.02,0.88,-4,0,-2,4,0
'[11:23:01.048 21/01/2026]',-102138.3,-171008.7,-114296.4,20664.9,-375000,-375000,-143686,-124057.8,0.03,-0.02,0.88,-4,0,-2,4,0
'[11:23:01.052 21/01/2026]',-99846.76,-167835.7,-112053.1,22890.38,-375000,-375000,-141624,-122206.7,0.03,-0.02,0.88,-4,0,-2,4,0
'[11:23:01.056 21/01/2026]',-100084.5,-167370.2,-112381.2,22279.37,-375000,-375000,-141827,-122818.8,0.03,-0.02,0.88,-4,0,-2,4,0
'[11:23:01.060 21/01/2026]',-102414.3,-170537.9,-114667.7,19988.09,-375000,-375000,-143914.3,-124723.8,0.03,-0.02,0.88,-4,0,-2,4,0
'[11:23:01.064 21/01/2026]',-102483.6,-171373.1,-114645.6,20282.51,-375000,-375000,-143986.2,-124383.1,0.03,-0.02,0.88,-4,0,-2,4,0
'[11:23:01.068 21/01/2026]',-100166.7,-168344.9,-112367,22609.06,-375000,-375000,-141911,-122430.8,0.03,-0.02,0.88,-4,0,-2,4,0
'[11:23:01.072 21/01/2026]',-99765.17,-167062,-112067.3,22638.43,-375000,-375000,-141551.3,-122503.9,0.03,-0.02,0.88,-4,0,-2,4,0
'[11:23:01.076 21/01/2026]',-102050.6,-170001.3,-114341.1,20292.25,-375000,-375000,-143600.8,-124472.1,0.03,-0.02,0.88,-4,0,-2,4,0
'[11:23:01.080 21/01/2026]',-102747.9,-171610.3,-114932,19959.17,-375000,-375000,-144224.5,-124662.8,0.05,-0.02,0.88,-4,0,-2,4,0
'[11:23:01.084 21/01/2026]',-100553.8,-168897.4,-112731.9,22265.6,-375000,-375000,-142241.8,-122703.2,0.05,-0.02,0.88,-4,0,-2,4,0
'[11:23:01.088 21/01/2026]',-99541.88,-166879.1,-111823.6,22928.82,-375000,-375000,-141358.2,-122252.1,0.05,-0.02,0.88,-4,0,-2,4,0
'[11:23:01.092 21/01/2026]',-101674,-169421.3,-113970.3,20650.15,-375000,-375000,-143259.3,-124188.9,0.05,-0.02,0.88,-4,0,-2,4,0
'[11:23:01.096 21/01/2026]',-102906.1,-171693.1,-115098.5,19732.16,-375000,-375000,-144378.5,-124882.1,0.05,-0.02,0.88,-4,0,-2,4,0
'[11:23:01.100 21/01/2026]',-100915.9,-169442.9,-113097.8,21897.51,-375000,-375000,-142598.8,-123015.3,0.05,-0.02,0.88,-4,0,-2,4,0
'[11:23:01.104 21/01/2026]',-99427.98,-166871.7,-111700.6,23107.54,-375000,-375000,-141261.3,-122083.8,0.05,-0.02,0.88,-4,0,-2,4,0
'[11:23:01.108 21/01/2026]',-101262,-168846.5,-113572,21037.77,-375000,-375000,-142895.7,-123868.9,0.05,-0.02,0.88,-4,0,-2,4,0
'[11:23:01.112 21/01/2026]',-102955.7,-171628.2,-115163.5,19616.38,-375000,-375000,-144419.8,-125000.4,0.05,-0.02,0.88,-4,0,-2,4,0
'[11:23:01.116 21/01/2026]',-101332.6,-170002,-113492.2,21506.89,-375000,-375000,-142955.3,-123343.2,0.03,-0.02,0.88,-4,0,-2,4,0
'[11:23:01.120 21/01/2026]',-99470.22,-167062.8,-111712.6,23146.57,-375000,-375000,-141282.4,-122030.8,0.03,-0.02,0.88,-4,0,-2,4,0
'[11:23:01.124 21/01/2026]',-100885,-168362.3,-113188.6,21411.9,-375000,-375000,-142544.4,-123545.7,0.03,-0.02,0.88,-4,0,-2,4,0
'[11:23:01.128 21/01/2026]',-102884.8,-171419.7,-115111.6,19624.92,-375000,-375000,-144349.9,-125001.1,0.03,-0.02,0.88,-4,0,-2,4,0
'[11:23:01.132 21/01/2026]',-101720.5,-170508.9,-113881.1,21108,-375000,-375000,-143311.1,-123678.7,0.03,-0.02,0.88,-4,0,-2,4,0
'[11:23:01.136 21/01/2026]',-99589.58,-167360.5,-111817.6,23087.47,-375000,-375000,-141388.7,-122053.5,0.03,-0.02,0.88,-4,0,-2,4,0
'[11:23:01.140 21/01/2026]',-100473.4,-167831.9,-112782.9,21842.48,-375000,-375000,-142171.9,-123181.7,0.03,-0.02,0.88,-4,0,-2,4,0
'[11:23:01.144 21/01/2026]',-102699.5,-171048.2,-114954.6,19745.04,-375000,-375000,-144176,-124909.4,0.03,-0.02,0.88,-4,0,-2,4,0
'[11:23:01.148 21/01/2026]',-102095.6,-170987.9,-114268.4,20698.25,-375000,-375000,-143650.2,-124025.4,0.03,-0.02,0.88,-4,0,-2,4,0
'[11:23:01.152 21/01/2026]',-99828.84,-167792.1,-112052.5,22907.32,-375000,-375000,-141593.9,-122186.9,0.03,0.00,0.88,-4,0,-2,4,0
'[11:23:01.156 21/01/2026]',-100097.1,-167389.3,-112412.7,22252.32,-375000,-375000,-141841.2,-122840,0.03,0.00,0.88,-4,0,-2,4,0
'[11:23:01.160 21/01/2026]',-102434.2,-170574.9,-114689,19969.67,-375000,-375000,-143930.1,-124742.2,0.03,0.00,0.88,-4,0,-2,4,0
'[11:23:01.164 21/01/2026]',-102461.8,-171349.9,-114614.2,20315.54,-375000,-375000,-143958.9,-124359.2,0.03,0.00,0.88,-4,0,-2,4,0
'[11:23:01.168 21/01/2026]',-100142.6,-168298.4,-112330.6,22640.62,-375000,-375000,-141871.1,-122398.1,0.03,0.00,0.88,-4,0,-2,4,0
'[11:23:01.172 21/01/2026]',-99791.02,-167062.5,-112083.4,22619.12,-375000,-375000,-141554.8,-122513.1,0.03,0.00,0.88,-4,0,-2,4,0
'[11:23:01.176 21/01/2026]',-102080.1,-170025.2,-114355.2,20277.55,-375000,-375000,-143611.1,-124484.7,0.03,0.00,0.88,-4,0,-2,4,0
'[11:23:01.180 21/01/2026]',-102728.7,-171600.1,-114899.3,19985.99,-375000,-375000,-144204.7,-124649.8,0.03,0.00,0.88,-4,0,-2,4,0
'[11:23:01.184 21/01/2026]',-100509.2,-168849.4,-112687.3,22301.86,-375000,-375000,-142200.3,-122668.1,0.03,0.00,0.88,-4,0,-2,4,0
'[11:23:01.188 21/01/2026]',-99568.93,-166892.9,-111857.2,22906.78,-375000,-375000,-141353.4,-122254.6,0.03,-0.02,0.88,-4,0,-2,4,0
'[11:23:01.192 21/01/2026]',-101693.8,-169472.6,-113999.7,20628.78,-375000,-375000,-143265.8,-124195.5,0.03,-0.02,0.88,-4,0,-2,4,0
'[11:23:01.196 21/01/2026]',-102889.8,-171698,-115073,19759.16,-375000,-375000,-144348.8,-124853.6,0.03,-0.02,0.88,-4,0,-2,4,0
'[11:23:01.200 21/01/2026]',-100896.8,-169406.7,-113064.1,21937.21,-375000,-375000,-142546,-122970.6,0.03,-0.02,0.88,-4,0,-2,4,0
'[11:23:01.204 21/01/2026]',-99470.71,-166940.1,-111719.6,23057.48,-375000,-375000,-141274.7,-122111.9,0.03,-0.02,0.88,-4,0,-2,4,0
'[11:23:01.208 21/01/2026]',-101320.9,-168974.8,-113603.9,20987.75,-375000,-375000,-142931.4,-123901.3,0.03,-0.02,0.88,-4,0,-2,4,0
'[11:23:01.212 21/01/2026]',-102944.1,-171629.6,-115147.9,19646.6,-375000,-375000,-144397.3,-124971.6,0.03,-0.02,0.88,-4,0,-2,4,0
'[11:23:01.216 21/01/2026]',-101312.4,-169952.3,-113473.2,21543.28,-375000,-375000,-142912.7,-123301.2,0.03,-0.02,0.88,-4,0,-2,4,0
'[11:23:01.220 21/01/2026]',-99466.24,-167046.1,-111708.4,23153.32,-375000,-375000,-141265.3,-122020.5,0.03,-0.02,0.88,-4,0,-2,4,0
'[11:23:01.224 21/01/2026]',-100892.5,-168368,-113193,21411.54,-375000,-375000,-142547.2,-123549.9,0.05,-0.02,0.88,-4,0,-2,4,0
'[11:23:01.228 21/01/2026]',-102881.7,-171415.1,-115110.4,19630.24,-375000,-375000,-144347.7,-125000.9,0.05,-0.02,0.88,-4,0,-2,4,0
'[11:23:01.232 21/01/2026]',-101700.8,-170476.9,-113862.2,21135.23,-375000,-375000,-143284,-123656.3,0.05,-0.02,0.88,-4,0,-2,4,0
'[11:23:01.236 21/01/2026]',-99591.37,-167337.1,-111819.3,23091.5,-375000,-375000,-141382.5,-122058.5,0.05,-0.02,0.88,-4,0,-2,4,0
'[11:23:01.240 21/01/2026]',-100501.8,-167866.2,-112818.7,21813.02,-375000,-375000,-142201.3,-123217.2,0.05,-0.02,0.88,-4,0,-2,4,0
'[11:23:01.244 21/01/2026]',-102704.7,-171066.6,-114958.9,19747.59,-375000,-375000,-144182.1,-124911.8,0.05,-0.02,0.88,-4,0,-2,4,0
'[11:23:01.248 21/01/2026]',-102071,-170938.4,-114240.2,20737.68,-375000,-375000,-143616.3,-123990.2,0.05,-0.02,0.88,-4,0,-2,4,0
'[11:23:01.252 21/01/2026]',-99803.44,-167751,-112011.5,22932.62,-375000,-375000,-141570.8,-122172.8,0.05,-0.02,0.88,-4,0,-2,4,0
'[11:23:01.256 21/01/2026]',-100125.4,-167423.5,-112425.7,22227.83,-375000,-375000,-141861.3,-122861,0.05,-0.02,0.88,-4,0,-2,4,0
'[11:23:01.260 21/01/2026]',-102440,-170603.3,-114697.8,19961.85,-375000,-375000,-143942.7,-124746.6,0.03,0.00,0.88,-4,0,-2,4,0
'[11:23:01.264 21/01/2026]',-102431.6,-171321.9,-114596.9,20343.26,-375000,-375000,-143941,-124335.8,0.03,0.00,0.88,-4,0,-2,4,0
'[11:23:01.268 21/01/2026]',-100139.3,-168271.3,-112340.4,22651.53,-375000,-375000,-141862.8,-122393.1,0.03,0.00,0.88,-4,0,-2,4,0
'[11:23:01.272 21/01/2026]',-99803.48,-167097.6,-112100.7,22595.73,-375000,-375000,-141585.8,-122552.6,0.03,0.00,0.88,-4,0,-2,4,0
'[11:23:01.276 21/01/2026]',-102098.4,-170073.5,-114373.6,20260.25,-375000,-375000,-143639.5,-124508.5,0.03,0.00,0.88,-4,0,-2,4,0
'[11:23:01.280 21/01/2026]',-102705.4,-171581.7,-114873.2,20018.62,-375000,-375000,-144184.5,-124621.7,0.03,0.00,0.88,-4,0,-2,4,0
'[11:23:01.284 21/01/2026]',-100479,-168811.5,-112663.4,22331.76,-375000,-375000,-142181.7,-122658,0.03,0.00,0.88,-4,0,-2,4,0
'[11:23:01.288 21/01/2026]',-99573.89,-166907.3,-111874,22888.54,-375000,-375000,-141377.6,-122291,0.03,0.00,0.88,-4,0,-2,4,0
'[11:23:01.292 21/01/2026]',-101711.6,-169514.1,-114007.7,20605.71,-375000,-375000,-143299.4,-124229.5,0.03,0.00,0.88,-4,0,-2,4,0
'[11:23:01.296 21/01/2026]',-102878.2,-171705.2,-115069.7,19771.86,-375000,-375000,-144347.2,-124847.2,0.03,-0.02,0.88,-4,0,-2,4,0
'[11:23:01.300 21/01/2026]',-100875.5,-169386.5,-113039.5,21965.55,-375000,-375000,-142534.1,-122964.6,0.03,-0.02,0.88,-4,0,-2,4,0
'[11:23:01.304 21/01/2026]',-99458.15,-166884.1,-111714.7,23087.38,-375000,-375000,-141267.9,-122111,0.03,-0.02,0.88,-4,0,-2,4,0
'[11:23:01.308 21/01/2026]',-101328.1,-168946,-113623.6,20986.9,-375000,-375000,-142940.1,-123911.1,0.03,-0.02,0.88,-4,0,-2,4,0
'[11:23:01.312 21/01/2026]',-102949.2,-171641.5,-115154.6,19637.3,-375000,-375000,-144406.9,-124976.9,0.03,-0.02,0.88,-4,0,-2,4,0
'[11:23:01.316 21/01/2026]',-101271,-169926.5,-113442.8,21563.84,-375000,-375000,-142902.6,-123290.2,0.03,-0.02,0.88,-4,0,-2,4,0
'[11:23:01.320 21/01/2026]',-99441.97,-167012.3,-111698.5,23162.04,-375000,-375000,-141262.5,-122021.3,0.03,-0.02,0.88,-4,0,-2,4,0
'[11:23:01.324 21/01/2026]',-100918.9,-168391.4,-113231.6,21380.83,-375000,-375000,-142582.1,-123586.4,0.03,-0.02,0.88,-4,0,-2,4,0
'[11:23:01.328 21/01/2026]',-102885.9,-171435.7,-115119.9,19626.57,-375000,-375000,-144365.5,-125014.7,0.03,-0.02,0.88,-4,0,-2,4,0
'[11:23:01.332 21/01/2026]',-101660.2,-170435.7,-113823.1,21176,-375000,-375000,-143255.4,-123623.8,0.03,-0.02,0.88,-4,0,-2,4,0
'[11:23:01.336 21/01/2026]',-99550.91,-167296.4,-111785.2,23124.49,-375000,-375000,-141358.1,-122034.4,0.03,-0.02,0.88,-4,0,-2,4,0
'[11:23:01.340 21/01/2026]',-100520.1,-167878,-112834.9,21805.2,-375000,-375000,-142216.6,-123229.3,0.03,-0.02,0.88,-4,0,-2,4,0
'[11:23:01.344 21/01/2026]',-102737.3,-171094.3,-114978.8,19737.97,-375000,-375000,-144203,-124930.2,0.03,-0.02,0.88,-4,0,-2,4,0
'[11:23:01.348 21/01/2026]',-102051.5,-170911.6,-114204.8,20768.3,-375000,-375000,-143601.6,-123974.8,0.03,-0.02,0.88,-4,0,-2,4,0
'[11:23:01.352 21/01/2026]',-99773.53,-167708.2,-111985,22957.74,-375000,-375000,-141560.1,-122168.8,0.03,-0.02,0.88,-4,0,-2,4,0
'[11:23:01.356 21/01/2026]',-100144,-167436.3,-112458.5,22206.41,-375000,-375000,-141884.2,-122892.3,0.03,-0.02,0.88,-4,0,-2,4,0
'[11:23:01.360 21/01/2026]',-102456.9,-170630,-114723.6,19948.22,-375000,-375000,-143957.8,-124762.3,0.03,-0.02,0.88,-4,0,-2,4,0
'[11:23:01.364 21/01/2026]',-102411.1,-171321.1,-114585.9,20355.42,-375000,-375000,-143934.6,-124331.2,0.03,-0.02,0.88,-4,0,-2,4,0
'[11:23:01.368 21/01/2026]',-100092.1,-168226.4,-112288.3,22686.8,-375000,-375000,-141834.3,-122371.8,0.02,-0.02,0.88,-4,0,-2,4,0
'[11:23:01.372 21/01/2026]',-99819.98,-167101.2,-112112.4,22585.01,-375000,-375000,-141588.1,-122563.4,0.02,-0.02,0.88,-4,0,-2,4,0
'[11:23:01.376 21/01/2026]',-102126.3,-170116.9,-114401.5,20240.8,-375000,-375000,-143658.4,-124531.2,0.02,-0.02,0.88,-4,0,-2,4,0
'[11:23:01.380 21/01/2026]',-102684.6,-171570.5,-114860.4,20040.8,-375000,-375000,-144175.3,-124614.8,0.02,-0.02,0.88,-4,0,-2,4,0
'[11:23:01.384 21/01/2026]',-100439,-168766.5,-112635,22361.09,-375000,-375000,-142158.5,-122637.4,0.02,-0.02,0.88,-4,0,-2,4,0
'[11:23:01.388 21/01/2026]',-99567.67,-166900.3,-111867.5,22882.64,-375000,-375000,-141379.9,-122290.6,0.02,-0.02,0.88,-4,0,-2,4,0
'[11:23:01.392 21/01/2026]',-101742.7,-169541.4,-114042.2,20577.51,-375000,-375000,-143321.9,-124243,0.02,-0.02,0.88,-4,0,-2,4,0
'[11:23:01.396 21/01/2026]',-102883,-171689.5,-115074.6,19778.66,-375000,-375000,-144343.2,-124837.4,0.02,-0.02,0.88,-4,0,-2,4,0
'[11:23:01.400 21/01/2026]',-100840.3,-169333.4,-113019.4,21989.69,-375000,-375000,-142506.5,-122938.2,0.02,-0.02,0.88,-4,0,-2,4,0
'[11:23:01.404 21/01/2026]',-99443.45,-166870.2,-111707.8,23090.29,-375000,-375000,-141259.4,-122104,0.03,-0.02,0.88,-4,0,-2,4,0
'[11:23:01.408 21/01/2026]',-101358.7,-168975.2,-113655.1,20965.44,-375000,-375000,-142957.1,-123925.3,0.03,-0.02,0.88,-4,0,-2,4,0
'[11:23:01.412 21/01/2026]',-102964.7,-171659.8,-115169.9,19636.77,-375000,-375000,-144411,-124976.4,0.03,-0.02,0.88,-4,0,-2,4,0
'[11:23:01.416 21/01/2026]',-101250.4,-169895.9,-113418,21593.26,-375000,-375000,-142878.3,-123273.3,0.03,-0.02,0.88,-4,0,-2,4,0
'[11:23:01.420 21/01/2026]',-99437.72,-166998.2,-111684.8,23168.65,-375000,-375000,-141254,-122021.6,0.03,-0.02,0.88,-4,0,-2,4,0
'[11:23:01.424 21/01/2026]',-100938.8,-168425.8,-113254.9,21361.61,-375000,-375000,-142598.1,-123600,0.03,-0.02,0.88,-4,0,-2,4,0
'[11:23:01.428 21/01/2026]',-102889,-171455,-115139,19620.27,-375000,-375000,-144367.8,-125009.7,0.03,-0.02,0.88,-4,0,-2,4,0
'[11:23:01.432 21/01/2026]',-101634.3,-170408.6,-113800.5,21197.23,-375000,-375000,-143235.3,-123609.8,0.03,-0.02,0.88,-4,0,-2,4,0
'[11:23:01.436 21/01/2026]',-99557.48,-167274,-111782.6,23124.8,-375000,-375000,-141357.3,-122042.5,0.03,-0.02,0.88,-4,0,-2,4,0
'[11:23:01.440 21/01/2026]',-100533.5,-167880.7,-112854.6,21779.49,-375000,-375000,-142244.8,-123253.9,0.03,0.00,0.86,-4,0,-2,4,0
'[11:23:01.444 21/01/2026]',-102733.6,-171095.6,-114984.3,19726.17,-375000,-375000,-144222.7,-124939.4,0.03,0.00,0.86,-4,0,-2,4,0
'[11:23:01.448 21/01/2026]',-102041.9,-170888.1,-114196.3,20782.79,-375000,-375000,-143589.9,-123961.1,0.03,0.00,0.86,-4,0,-2,4,0
'[11:23:01.452 21/01/2026]',-99782.07,-167708.2,-111988.1,22956.27,-375000,-375000,-141550.5,-122160.6,0.03,0.00,0.86,-4,0,-2,4,0
'[11:23:01.456 21/01/2026]',-100199.8,-167506,-112508.7,22159.79,-375000,-375000,-141912.3,-122918,0.03,0.00,0.86,-4,0,-2,4,0
'[11:23:01.460 21/01/2026]',-102506.8,-170698.5,-114756.8,19916.39,-375000,-375000,-143984.6,-124783.1,0.03,0.00,0.86,-4,0,-2,4,0
'[11:23:01.464 21/01/2026]',-102401,-171317.4,-114554.5,20380.01,-375000,-375000,-143907.7,-124305.9,0.03,0.00,0.86,-4,0,-2,4,0
'[11:23:01.468 21/01/2026]',-100101.6,-168237.3,-112284,22681.7,-375000,-375000,-141825.5,-122367.4,0.03,0.00,0.86,-4,0,-2,4,0
'[11:23:01.472 21/01/2026]',-99877.83,-167161.6,-112158.9,22533.06,-375000,-375000,-141619.8,-122594.9,0.03,0.00,0.86,-4,0,-2,4,0
'[11:23:01.476 21/01/2026]',-102180.5,-170183.6,-114440.5,20194.04,-375000,-375000,-143690.2,-124555.7,0.05,0.00,0.86,-4,0,-2,4,1
'[11:23:01.480 21/01/2026]',-102704.2,-171588.7,-114871.5,20029.44,-375000,-375000,-144172.9,-124604,0.05,0.00,0.86,-4,0,-2,4,1
'[11:23:01.484 21/01/2026]',-100464.4,-168773.6,-112649.3,22346.78,-375000,-375000,-142158,-122641.2,0.05,0.00,0.86,-4,0,-2,4,1
'[11:23:01.488 21/01/2026]',-99613.45,-166943.4,-111896.4,22844.96,-375000,-375000,-141402.9,-122319.2,0.05,0.00,0.86,-4,0,-2,4,1
'[11:23:01.492 21/01/2026]',-101794.1,-169598.6,-114085.9,20542.28,-375000,-375000,-143349.6,-124266.9,0.05,0.00,0.86,-4,0,-2,4,1
'[11:23:01.496 21/01/2026]',-102895.7,-171698.7,-115066.6,19780.44,-375000,-375000,-144337.4,-124829.4,0.05,0.00,0.86,-4,0,-2,4,1
'[11:23:01.500 21/01/2026]',-100856.4,-169317,-113013.4,21984.19,-375000,-375000,-142498.9,-122937.1,0.05,0.00,0.86,-4,0,-2,4,1
'[11:23:01.504 21/01/2026]',-99495.66,-166897,-111750.7,23048.49,-375000,-375000,-141283.4,-122135.5,0.05,0.00,0.86,-4,0,-2,4,1
'[11:23:01.508 21/01/2026]',-101407.8,-169032.3,-113692.7,20923.06,-375000,-375000,-142990.2,-123959.4,0.05,0.00,0.86,-4,0,-2,4,1
'[11:23:01.512 21/01/2026]',-102979.7,-171680.9,-115170.6,19628.94,-375000,-375000,-144414.3,-124977.4,0.05,-0.02,0.88,-4,0,-2,4,1
'[11:23:01.516 21/01/2026]',-101253.1,-169888.1,-113414.1,21590.22,-375000,-375000,-142874.8,-123271.3,0.05,-0.02,0.88,-4,0,-2,4,1
'[11:23:01.520 21/01/2026]',-99472.45,-167026.6,-111723.9,23136.33,-375000,-375000,-141280.1,-122042.6,0.05,-0.02,0.88,-4,0,-2,4,1
'[11:23:01.524 21/01/2026]',-101008.4,-168472,-113311.5,21318.15,-375000,-375000,-142639.8,-123632.1,0.05,-0.02,0.88,-4,0,-2,4,1
'[11:23:01.528 21/01/2026]',-102950,-171478.2,-115164.3,19596.98,-375000,-375000,-144392.9,-125021.8,0.05,-0.02,0.88,-4,0,-2,4,1
'[11:23:01.532 21/01/2026]',-101650.7,-170405.4,-113810.4,21184.31,-375000,-375000,-143246,-123613,0.05,-0.02,0.88,-4,0,-2,4,1
'[11:23:01.536 21/01/2026]',-99569.73,-167290,-111805.3,23096.73,-375000,-375000,-141376.9,-122058.1,0.05,-0.02,0.88,-4,0,-2,4,1
'[11:23:01.540 21/01/2026]',-100580.2,-167966.6,-112890.9,21723.39,-375000,-375000,-142290.1,-123298.5,0.05,-0.02,0.88,-4,0,-2,4,1
'[11:23:01.544 21/01/2026]',-102771.9,-171160.1,-115006.8,19694.7,-375000,-375000,-144252.9,-124965.2,0.05,-0.02,0.88,-4,0,-2,4,1
'[11:23:01.548 21/01/2026]',-102049.3,-170881.5,-114198.9,20780.46,-375000,-375000,-143593.5,-123967.1,0.03,0.00,0.86,-4,0,-2,4,0
'[11:23:01.552 21/01/2026]',-99793.2,-167713.1,-112001.1,22940.44,-375000,-375000,-141568.9,-122179.1,0.03,0.00,0.86,-4,0,-2,4,0
'[11:23:01.556 21/01/2026]',-100227,-167555.1,-112528.9,22118.75,-375000,-375000,-141961.6,-122964.5,0.03,0.00,0.86,-4,0,-2,4,0
'[11:23:01.560 21/01/2026]',-102521.2,-170748,-114781.9,19886.26,-375000,-375000,-144025.3,-124818.3,0.03,0.00,0.86,-4,0,-2,4,0
'[11:23:01.564 21/01/2026]',-102392.6,-171275.7,-114552.5,20393.42,-375000,-375000,-143903.4,-124298.9,0.03,0.00,0.86,-4,0,-2,4,0
'[11:23:01.568 21/01/2026]',-100089.4,-168199.3,-112276.9,22681.52,-375000,-375000,-141827.3,-122377.2,0.03,0.00,0.86,-4,0,-2,4,0
'[11:23:01.572 21/01/2026]',-99913.63,-167229.4,-112195.1,22476.56,-375000,-375000,-141667.8,-122646.5,0.03,0.00,0.86,-4,0,-2,4,0
'[11:23:01.576 21/01/2026]',-102219.8,-170233.7,-114485.6,20166.68,-375000,-375000,-143724,-124582.5,0.03,0.00,0.86,-4,0,-2,4,0
'[11:23:01.580 21/01/2026]',-102666.5,-171531.9,-114843.4,20071.33,-375000,-375000,-144148.6,-124583.6,0.03,0.00,0.86,-4,0,-2,4,0
'[11:23:01.584 21/01/2026]',-100435.1,-168713.8,-112622.3,22369.36,-375000,-375000,-142136,-122627.3,0.03,-0.02,0.88,-4,0,-2,4,0
'[11:23:01.588 21/01/2026]',-99635.98,-166946.6,-111933.3,22820.15,-375000,-375000,-141424.2,-122346.3,0.03,-0.02,0.88,-4,0,-2,4,0
'[11:23:01.592 21/01/2026]',-101806.3,-169632.4,-114121.8,20517.38,-375000,-375000,-143372.6,-124286.7,0.03,-0.02,0.88,-4,0,-2,4,0
'[11:23:01.596 21/01/2026]',-102866.9,-171706,-115071.9,19787.15,-375000,-375000,-144337.5,-124823.3,0.03,-0.02,0.88,-4,0,-2,4,0
'[11:23:01.600 21/01/2026]',-100827,-169294.9,-112998.2,22005.65,-375000,-375000,-142484.2,-122918.5,0.03,-0.02,0.88,-4,0,-2,4,0
'[11:23:01.604 21/01/2026]',-99499.41,-166893.5,-111759.3,23038.75,-375000,-375000,-141288.2,-122133.8,0.03,-0.02,0.88,-4,0,-2,4,0
'[11:23:01.608 21/01/2026]',-101428,-169068.5,-113720,20894.14,-375000,-375000,-143017.2,-123976.9,0.03,-0.02,0.88,-4,0,-2,4,0
'[11:23:01.612 21/01/2026]',-102981.9,-171687.9,-115177.7,19627.11,-375000,-375000,-144416.7,-124969.7,0.03,-0.02,0.88,-4,0,-2,4,0
'[11:23:01.616 21/01/2026]',-101248.4,-169854.6,-113409.4,21603.14,-375000,-375000,-142848.7,-123243,0.03,-0.02,0.88,-4,0,-2,4,0
'[11:23:01.620 21/01/2026]',-99488.51,-167070.5,-111727.6,23094.18,-375000,-375000,-141286,-122058.8,0.03,0.00,0.88,-4,0,-2,4,0
'[11:23:01.624 21/01/2026]',-101044.1,-168598.3,-113335.9,21260.84,-375000,-375000,-142674.9,-123664,0.03,0.00,0.88,-4,0,-2,4,0
'[11:23:01.628 21/01/2026]',-102918.4,-171472.9,-115154.4,19628.63,-375000,-375000,-144371.1,-124997.7,0.03,0.00,0.88,-4,0,-2,4,0
'[11:23:01.632 21/01/2026]',-101615.3,-170333.4,-113792,21216.5,-375000,-375000,-143199.1,-123580.8,0.03,0.00,0.88,-4,0,-2,4,0
'[11:23:01.636 21/01/2026]',-99615.82,-167371.8,-111825.7,23026.9,-375000,-375000,-141393.8,-122094.7,0.03,0.00,0.88,-4,0,-2,4,0
'[11:23:01.640 21/01/2026]',-100640.4,-168069.8,-112938.3,21676.23,-375000,-375000,-142311,-123315.1,0.03,0.00,0.88,-4,0,-2,4,0
'[11:23:01.644 21/01/2026]',-102767.8,-171127.9,-115018.1,19727.34,-375000,-375000,-144222.3,-124930.3,0.03,0.00,0.88,-4,0,-2,4,0
'[11:23:01.648 21/01/2026]',-102003.6,-170790.2,-114175.3,20822.79,-375000,-375000,-143539.6,-123919.8,0.03,0.00,0.88,-4,0,-2,4,0
'[11:23:01.652 21/01/2026]',-99758.7,-167661.3,-111978.6,22946.43,-375000,-375000,-141535.3,-122161.6,0.03,0.00,0.88,-4,0,-2,4,0
'[11:23:01.656 21/01/2026]',-100252.1,-167584.4,-112558.6,22080.53,-375000,-375000,-141964.5,-122971,0.05,0.00,0.88,-4,0,-2,4,0
'[11:23:01.660 21/01/2026]',-102546.7,-170759.7,-114803.3,19876.33,-375000,-375000,-144024.5,-124805.6,0.05,0.00,0.88,-4,0,-2,4,0
'[11:23:01.664 21/01/2026]',-102366.2,-171233.4,-114540.3,20423.77,-375000,-375000,-143876.6,-124265.2,0.05,0.00,0.88,-4,0,-2,4,0
'[11:23:01.668 21/01/2026]',-100056.7,-168159.1,-112264.6,22699.13,-375000,-375000,-141804.6,-122349.2,0.05,0.00,0.88,-4,0,-2,4,0
'[11:23:01.672 21/01/2026]',-99924.54,-167229.6,-112218.5,22458.85,-375000,-375000,-141676.6,-122648.9,0.05,0.00,0.88,-4,0,-2,4,0
'[11:23:01.676 21/01/2026]',-102222.9,-170227.8,-114499,20157.43,-375000,-375000,-143733.6,-124579.1,0.05,0.00,0.88,-4,0,-2,4,0
'[11:23:01.680 21/01/2026]',-102660.1,-171496.3,-114845,20085.46,-375000,-375000,-144134.5,-124552.5,0.05,0.00,0.88,-4,0,-2,4,0
'[11:23:01.684 21/01/2026]',-100427,-168683.1,-112624.6,22378.25,-375000,-375000,-142114.9,-122598.6,0.05,0.00,0.88,-4,0,-2,4,0
'[11:23:01.688 21/01/2026]',-99646.98,-166970.8,-111932.3,22793.15,-375000,-375000,-141435.6,-122355.1,0.05,0.00,0.88,-4,0,-2,4,0
'[11:23:01.692 21/01/2026]',-101848,-169676.6,-114134.3,20489.98,-375000,-375000,-143397.9,-124306.9,0.03,0.00,0.88,-4,0,-2,4,0
'[11:23:01.696 21/01/2026]',-102864,-171697.1,-115060.7,19801.68,-375000,-375000,-144324.6,-124805.9,0.03,0.00,0.88,-4,0,-2,4,0
'[11:23:01.700 21/01/2026]',-100792.3,-169252.2,-112981.9,22030.28,-375000,-375000,-142457.9,-122893.2,0.03,0.00,0.88,-4,0,-2,4,0
'[11:23:01.704 21/01/2026]',-99507.95,-166894.7,-111788.9,23022.7,-375000,-375000,-141291.7,-122144.1,0.03,0.00,0.88,-4,0,-2,4,0
'[11:23:01.708 21/01/2026]',-101427,-169093.9,-113740.6,20876.44,-375000,-375000,-143034.4,-123991.7,0.03,0.00,0.88,-4,0,-2,4,0
'[11:23:01.712 21/01/2026]',-102968.2,-171673.6,-115180.4,19637.62,-375000,-375000,-144412.9,-124960.4,0.03,0.00,0.88,-4,0,-2,4,0
'[11:23:01.716 21/01/2026]',-101198.6,-169792.3,-113375.1,21645.21,-375000,-375000,-142815.8,-123213.9,0.03,0.00,0.88,-4,0,-2,4,0
'[11:23:01.720 21/01/2026]',-99445.37,-166972,-111696.7,23147.91,-375000,-375000,-141250.9,-122025.1,0.03,0.00,0.88,-4,0,-2,4,0
'[11:23:01.724 21/01/2026]',-101035.6,-168523.4,-113343.6,21273.27,-375000,-375000,-142667.1,-123657,0.03,0.00,0.88,-4,0,-2,4,0
'[11:23:01.728 21/01/2026]',-102944,-171512.8,-115162,19599.04,-375000,-375000,-144388.8,-125012.2,0.05,-0.02,0.88,-4,0,-2,4,0
'[11:23:01.732 21/01/2026]',-101596.1,-170331.1,-113754.5,21251.41,-375000,-375000,-143179.6,-123550.2,0.05,-0.02,0.88,-4,0,-2,4,0
'[11:23:01.736 21/01/2026]',-99540.67,-167224.7,-111773.6,23127.39,-375000,-375000,-141333.7,-122028.9,0.05,-0.02,0.88,-4,0,-2,4,0
'[11:23:01.740 21/01/2026]',-100633.5,-168006.8,-112946.2,21679.58,-375000,-375000,-142316.4,-123326.1,0.05,-0.02,0.88,-4,0,-2,4,0
'[11:23:01.744 21/01/2026]',-102800.6,-171196.8,-115055.4,19669.04,-375000,-375000,-144268.3,-124971,0.05,-0.02,0.88,-4,0,-2,4,0
'[11:23:01.748 21/01/2026]',-101981.2,-170822.8,-114168.1,20822.48,-375000,-375000,-143554.1,-123921.2,0.05,-0.02,0.88,-4,0,-2,4,0
'[11:23:01.752 21/01/2026]',-99736.21,-167614.8,-111953.9,22981.35,-375000,-375000,-141522.3,-122139.2,0.05,-0.02,0.88,-4,0,-2,4,0
'[11:23:01.756 21/01/2026]',-100256.2,-167565.5,-112556.7,22083.3,-375000,-375000,-141978.2,-122985.4,0.05,-0.02,0.88,-4,0,-2,4,0
'[11:23:01.760 21/01/2026]',-102561.4,-170781.2,-114819.6,19863.23,-375000,-375000,-144049.6,-124824.8,0.05,-0.02,0.88,-4,0,-2,4,0
'[11:23:01.764 21/01/2026]',-102332,-171193.1,-114504.9,20463.02,-375000,-375000,-143857.1,-124238.3,0.03,-0.02,0.88,-4,0,-2,4,0
'[11:23:01.768 21/01/2026]',-100040.5,-168129.3,-112242.3,22712.1,-375000,-375000,-141794,-122349.3,0.03,-0.02,0.88,-4,0,-2,4,0
'[11:23:01.772 21/01/2026]',-99949.53,-167281.3,-112238.4,22432.43,-375000,-375000,-141702.5,-122678.4,0.03,-0.02,0.88,-4,0,-2,4,0
'[11:23:01.776 21/01/2026]',-102211.8,-170248.8,-114495.1,20168.87,-375000,-375000,-143745.8,-124587.8,0.03,-0.02,0.88,-4,0,-2,4,0
'[11:23:01.780 21/01/2026]',-102599.2,-171437.3,-114797.9,20147.82,-375000,-375000,-144101.1,-124518.4,0.03,-0.02,0.88,-4,0,-2,4,0
'[11:23:01.784 21/01/2026]',-100393.4,-168639.8,-112581.8,22393.63,-375000,-375000,-142104.4,-122599.8,0.03,-0.02,0.88,-4,0,-2,4,0
'[11:23:01.788 21/01/2026]',-99694.81,-167061.9,-111967.1,22738.25,-375000,-375000,-141481.9,-122406.9,0.03,-0.02,0.88,-4,0,-2,4,0
'[11:23:01.792 21/01/2026]',-101847.4,-169686,-114136.6,20511.53,-375000,-375000,-143404.5,-124303.6,0.03,-0.02,0.88,-4,0,-2,4,0
'[11:23:01.796 21/01/2026]',-102805.1,-171570.3,-115021.2,19881.7,-375000,-375000,-144286.9,-124763.1,0.03,-0.02,0.88,-4,0,-2,4,0
'[11:23:01.800 21/01/2026]',-100753.3,-169190.4,-112947.1,22047.71,-375000,-375000,-142441.9,-122888.6,0.03,-0.02,0.88,-4,0,-2,4,0
'[11:23:01.804 21/01/2026]',-99533.88,-167003.2,-111793.3,22958.55,-375000,-375000,-141339,-122199.6,0.03,-0.02,0.88,-4,0,-2,4,0
'[11:23:01.808 21/01/2026]',-101469.2,-169156.7,-113763.1,20865.58,-375000,-375000,-143061.5,-124013.3,0.03,-0.02,0.88,-4,0,-2,4,0
'[11:23:01.812 21/01/2026]',-102927.1,-171610.1,-115145.1,19703.46,-375000,-375000,-144387.1,-124932.3,0.03,-0.02,0.88,-4,0,-2,4,0
'[11:23:01.816 21/01/2026]',-101145.2,-169709.6,-113330.2,21686.91,-375000,-375000,-142788.7,-123196.3,0.03,-0.02,0.88,-4,0,-2,4,0
'[11:23:01.820 21/01/2026]',-99487.25,-167046.7,-111720.6,23088.55,-375000,-375000,-141285.5,-122071.6,0.03,-0.02,0.88,-4,0,-2,4,0
'[11:23:01.824 21/01/2026]',-101080.3,-168596.2,-113381.6,21251.1,-375000,-375000,-142699.1,-123689.1,0.03,-0.02,0.88,-4,0,-2,4,0
'[11:23:01.828 21/01/2026]',-102896.4,-171420.4,-115137.2,19670.25,-375000,-375000,-144360.3,-124982.9,0.03,-0.02,0.88,-4,0,-2,4,0
'[11:23:01.832 21/01/2026]',-101561.6,-170231.1,-113735.1,21278.86,-375000,-375000,-143150.5,-123537.4,0.03,-0.02,0.88,-4,0,-2,4,0
'[11:23:01.836 21/01/2026]',-99565.8,-167291,-111786,23064.36,-375000,-375000,-141365.9,-122077.6,0.03,-0.02,0.89,-4,0,-2,4,0
'[11:23:01.840 21/01/2026]',-100652.3,-168098.5,-112961.6,21656.65,-375000,-375000,-142344.8,-123348.9,0.03,-0.02,0.89,-4,0,-2,4,0
'[11:23:01.844 21/01/2026]',-102758.7,-171151.6,-115022.6,19733.91,-375000,-375000,-144244.1,-124940.3,0.03,-0.02,0.89,-4,0,-2,4,0
'[11:23:01.848 21/01/2026]',-101929.3,-170705.9,-114108.6,20894.28,-375000,-375000,-143498.1,-123875.5,0.03,-0.02,0.89,-4,0,-2,4,0
'[11:23:01.852 21/01/2026]',-99769.24,-167678.5,-111966.2,22924.57,-375000,-375000,-141543,-122179.6,0.03,-0.02,0.89,-4,0,-2,4,0
'[11:23:01.856 21/01/2026]',-100305.5,-167670.9,-112593.6,22038.86,-375000,-375000,-142022.3,-123024.3,0.03,-0.02,0.89,-4,0,-2,4,0
'[11:23:01.860 21/01/2026]',-102536.1,-170720.9,-114803.3,19914.33,-375000,-375000,-144031.7,-124806.4,0.03,-0.02,0.89,-4,0,-2,4,0
'[11:23:01.864 21/01/2026]',-102294.9,-171098.5,-114476.9,20504.46,-375000,-375000,-143822.6,-124214.3,0.03,-0.02,0.89,-4,0,-2,4,0
'[11:23:01.868 21/01/2026]',-100032.1,-168116.7,-112241.2,22702.4,-375000,-375000,-141789.7,-122357,0.03,-0.02,0.89,-4,0,-2,4,0
'[11:23:01.872 21/01/2026]',-99958.74,-167310.7,-112252.2,22409.59,-375000,-375000,-141724,-122702.1,0.03,-0.02,0.88,-4,0,-2,4,0
'[11:23:01.876 21/01/2026]',-102215.1,-170224.1,-114503.9,20182.82,-375000,-375000,-143750.8,-124587.6,0.03,-0.02,0.88,-4,0,-2,4,0
'[11:23:01.880 21/01/2026]',-102583.6,-171382.9,-114783.2,20164.85,-375000,-375000,-144087.9,-124511.4,0.03,-0.02,0.88,-4,0,-2,4,0
'[11:23:01.884 21/01/2026]',-100366.3,-168633.4,-112563.9,22399.26,-375000,-375000,-142092.8,-122597.4,0.03,-0.02,0.88,-4,0,-2,4,0
'[11:23:01.888 21/01/2026]',-99707.95,-167071.9,-111994,22721.71,-375000,-375000,-141490.4,-122421.3,0.03,-0.02,0.88,-4,0,-2,4,0
'[11:23:01.892 21/01/2026]',-101886,-169703.9,-114173,20485.06,-375000,-375000,-143426.3,-124329,0.03,-0.02,0.88,-4,0,-2,4,0
'[11:23:01.896 21/01/2026]',-102815.2,-171571.1,-115012.7,19886.3,-375000,-375000,-144291.3,-124764.3,0.03,-0.02,0.88,-4,0,-2,4,0
'[11:23:01.900 21/01/2026]',-100740.9,-169151.1,-112918.1,22069.62,-375000,-375000,-142431.7,-122879.3,0.03,-0.02,0.88,-4,0,-2,4,0
'[11:23:01.904 21/01/2026]',-99535.17,-166965.6,-111792.7,22958.5,-375000,-375000,-141350.6,-122214.7,0.03,-0.02,0.88,-4,0,-2,4,0
'[11:23:01.908 21/01/2026]',-101488.6,-169163,-113791.8,20837.01,-375000,-375000,-143099,-124048.7,0.03,-0.02,0.88,-4,0,-2,4,0
'[11:23:01.912 21/01/2026]',-102929.6,-171597.5,-115154.1,19693.45,-375000,-375000,-144409.9,-124947.9,0.03,-0.02,0.88,-4,0,-2,4,0
'[11:23:01.916 21/01/2026]',-101126.4,-169680.4,-113315.7,21687.05,-375000,-375000,-142801,-123207.7,0.03,-0.02,0.88,-4,0,-2,4,0
'[11:23:01.920 21/01/2026]',-99465.3,-167014.6,-111736.8,23090.07,-375000,-375000,-141298.8,-122083.1,0.03,-0.02,0.88,-4,0,-2,4,0
'[11:23:01.924 21/01/2026]',-101084.2,-168611.6,-113390.8,21228.21,-375000,-375000,-142716.5,-123704.7,0.03,-0.02,0.88,-4,0,-2,4,0
'[11:23:01.928 21/01/2026]',-102942.3,-171518.2,-115166.6,19612.49,-375000,-375000,-144393.8,-125012.7,0.03,-0.02,0.88,-4,0,-2,4,0
'[11:23:01.932 21/01/2026]',-101538.3,-170254.9,-113719.6,21289.37,-375000,-375000,-143148.9,-123529.2,0.03,-0.02,0.88,-4,0,-2,4,0
'[11:23:01.936 21/01/2026]',-99575.99,-167303.7,-111800.6,23053.5,-375000,-375000,-141371.6,-122082.6,0.03,-0.02,0.88,-4,0,-2,4,0
'[11:23:01.940 21/01/2026]',-100733.9,-168180.7,-113021.9,21598.98,-375000,-375000,-142382.3,-123382,0.03,-0.02,0.88,-4,0,-2,4,0
'[11:23:01.944 21/01/2026]',-102824.1,-171218.7,-115067.9,19692.15,-375000,-375000,-144268.2,-124957.1,0.03,-0.02,0.88,-4,0,-2,4,0
'[11:23:01.948 21/01/2026]',-101956.6,-170730.8,-114114,20889.04,-375000,-375000,-143494.3,-123865.5,0.03,-0.02,0.88,-4,0,-2,4,0
'[11:23:01.952 21/01/2026]',-99780.91,-167644.9,-111980.8,22936.02,-375000,-375000,-141526.1,-122158.2,0.03,-0.02,0.88,-4,0,-2,4,0
'[11:23:01.956 21/01/2026]',-100302.4,-167650.2,-112599.4,22033.32,-375000,-375000,-142020.8,-123024.5,0.03,-0.02,0.88,-4,0,-2,4,0
'[11:23:01.960 21/01/2026]',-102577.7,-170806.8,-114840.2,19853.4,-375000,-375000,-144063.7,-124835,0.03,-0.02,0.88,-4,0,-2,4,0
'[11:23:01.964 21/01/2026]',-102304.2,-171137.6,-114475.1,20505.4,-375000,-375000,-143816.6,-124200,0.03,-0.02,0.88,-4,0,-2,4,0
'[11:23:01.968 21/01/2026]',-100028.6,-168095.8,-112213.2,22724.88,-375000,-375000,-141764.8,-122333.1,0.03,-0.02,0.88,-4,0,-2,4,0
'[11:23:01.972 21/01/2026]',-99987.93,-167320.7,-112265.2,22396.89,-375000,-375000,-141723.3,-122706.3,0.03,-0.02,0.88,-4,0,-2,4,0
'[11:23:01.976 21/01/2026]',-102263.1,-170311.8,-114531,20131.54,-375000,-375000,-143770.3,-124617,0.03,-0.02,0.88,-4,0,-2,4,0
'[11:23:01.980 21/01/2026]',-102594.7,-171434.3,-114778.6,20162.75,-375000,-375000,-144080,-124503,0.03,-0.02,0.88,-4,0,-2,4,0
'[11:23:01.984 21/01/2026]',-100357.7,-168606.7,-112544.1,22428.01,-375000,-375000,-142062,-122569.1,0.03,-0.02,0.88,-4,0,-2,4,0
'[11:23:01.988 21/01/2026]',-99719.13,-167062.6,-111995.3,22718.13,-375000,-375000,-141488,-122424.5,0.03,-0.02,0.88,-4,0,-2,4,0
'[11:23:01.992 21/01/2026]',-101922.5,-169782.6,-114205.2,20433.65,-375000,-375000,-143459.6,-124363,0.03,-0.02,0.88,-4,0,-2,4,0
'[11:23:01.996 21/01/2026]',-102840.8,-171659.3,-115027,19857.11,-375000,-375000,-144295.2,-124760.9,0.03,-0.02,0.88,-4,0,-2,4,0
'[11:23:02.000 21/01/2026]',-100745.5,-169151.3,-112916.1,22086.21,-375000,-375000,-142401.5,-122847.4,0.03,-0.02,0.88,-4,0,-2,4,0
'[11:23:02.004 21/01/2026]',-99538.66,-166928.2,-111804.9,22976.3,-375000,-375000,-141323,-122191.3,0.03,-0.02,0.88,-4,0,-2,4,0
'[11:23:02.008 21/01/2026]',-101509.3,-169201,-113820.3,20806.93,-375000,-375000,-143105.2,-124058.3,0.03,-0.02,0.88,-4,0,-2,4,0
'[11:23:02.012 21/01/2026]',-102975,-171708.6,-115176.4,19649.82,-375000,-375000,-144416.4,-124958.7,0.03,-0.02,0.88,-4,0,-2,4,0
'[11:23:02.016 21/01/2026]',-101140.3,-169713.9,-113300.4,21710.96,-375000,-375000,-142757.7,-123169.5,0.03,0.00,0.88,-4,0,-2,4,0
'[11:23:02.020 21/01/2026]',-99488.28,-167013,-111722.6,23090.6,-375000,-375000,-141277.1,-122075.1,0.03,0.00,0.88,-4,0,-2,4,0
'[11:23:02.024 21/01/2026]',-101132.6,-168668.7,-113418.7,21195.31,-375000,-375000,-142738.5,-123725.3,0.03,0.00,0.88,-4,0,-2,4,0
'[11:23:02.028 21/01/2026]',-102944,-171519.4,-115171.8,19618.75,-375000,-375000,-144388.8,-125004.9,0.03,0.00,0.88,-4,0,-2,4,0
'[11:23:02.032 21/01/2026]',-101538,-170244.3,-113714.7,21292.63,-375000,-375000,-143135.4,-123521.9,0.03,0.00,0.88,-4,0,-2,4,0
'[11:23:02.036 21/01/2026]',-99565.04,-167274.4,-111791.8,23066.78,-375000,-375000,-141351.8,-122075.3,0.03,0.00,0.88,-4,0,-2,4,0
'[11:23:02.040 21/01/2026]',-100720.9,-168160.8,-113023.8,21595.76,-375000,-375000,-142374.4,-123386.4,0.03,0.00,0.88,-4,0,-2,4,0
'[11:23:02.044 21/01/2026]',-102802.9,-171202.6,-115059.2,19696.76,-375000,-375000,-144256.4,-124952.8,0.03,0.00,0.88,-4,0,-2,4,0
'[11:23:02.048 21/01/2026]',-101901.3,-170684.8,-114090,20909.97,-375000,-375000,-143457.6,-123843.3,0.03,0.00,0.88,-4,0,-2,4,0
'[11:23:02.052 21/01/2026]',-99760.98,-167643.5,-111966.1,22929.98,-375000,-375000,-141506.7,-122158.4,0.03,-0.02,0.86,-4,0,-2,4,0
'[11:23:02.056 21/01/2026]',-100367.4,-167741.5,-112652.6,21976.14,-375000,-375000,-142039.9,-123054.2,0.03,-0.02,0.86,-4,0,-2,4,0
'[11:23:02.060 21/01/2026]',-102601.8,-170824.7,-114853.7,19858.76,-375000,-375000,-144052,-124825.4,0.03,-0.02,0.86,-4,0,-2,4,0
'[11:23:02.064 21/01/2026]',-102289.8,-171108.7,-114461.3,20517.07,-375000,-375000,-143787.5,-124179.3,0.03,-0.02,0.86,-4,0,-2,4,0
'[11:23:02.068 21/01/2026]',-100034.9,-168084,-112233.1,22715.67,-375000,-375000,-141747.2,-122319.4,0.03,-0.02,0.86,-4,0,-2,4,0
'[11:23:02.072 21/01/2026]',-99999.87,-167356,-112298.3,22353.71,-375000,-375000,-141740.9,-122726.8,0.03,-0.02,0.86,-4,0,-2,4,0
'[11:23:02.076 21/01/2026]',-102275,-170330.2,-114572.2,20100.21,-375000,-375000,-143789.2,-124629.6,0.03,-0.02,0.86,-4,0,-2,4,0
'[11:23:02.080 21/01/2026]',-102576.4,-171405.4,-114766.5,20175.44,-375000,-375000,-144063.5,-124483.6,0.03,-0.02,0.86,-4,0,-2,4,0
'[11:23:02.084 21/01/2026]',-100356.3,-168579.8,-112532,22438.78,-375000,-375000,-142046.4,-122554.9,0.03,-0.02,0.86,-4,0,-2,4,0
'[11:23:02.088 21/01/2026]',-99737.73,-167074,-112008.1,22695.51,-375000,-375000,-141498.2,-122437.3,0.03,-0.02,0.88,-4,0,-2,4,0
'[11:23:02.092 21/01/2026]',-101944.6,-169821.2,-114229.1,20408.75,-375000,-375000,-143481,-124378.7,0.03,-0.02,0.88,-4,0,-2,4,0
'[11:23:02.096 21/01/2026]',-102840.9,-171652.2,-115040.8,19862.7,-375000,-375000,-144294.2,-124760.9,0.03,-0.02,0.88,-4,0,-2,4,0
'[11:23:02.100 21/01/2026]',-100729.1,-169132.9,-112908.9,22091.03,-375000,-375000,-142395.1,-122851.4,0.03,-0.02,0.88,-4,0,-2,4,0
'[11:23:02.104 21/01/2026]',-99562.09,-166986.8,-111828.2,22924.35,-375000,-375000,-141353,-122230.6,0.03,-0.02,0.88,-4,0,-2,4,0
'[11:23:02.108 21/01/2026]',-101547.8,-169257.5,-113848.7,20774.96,-375000,-375000,-143126.6,-124076.5,0.03,-0.02,0.88,-4,0,-2,4,0
'[11:23:02.112 21/01/2026]',-102943.5,-171648.6,-115158.6,19689.07,-375000,-375000,-144392.1,-124928.9,0.03,-0.02,0.88,-4,0,-2,4,0
'[11:23:02.116 21/01/2026]',-101119.3,-169667.2,-113292.3,21710.88,-375000,-375000,-142747.5,-123166.4,0.03,-0.02,0.88,-4,0,-2,4,0
'[11:23:02.120 21/01/2026]',-99515.51,-167051.5,-111753.8,23049.03,-375000,-375000,-141302.3,-122111.3,0.03,-0.02,0.88,-4,0,-2,4,0
'[11:23:02.124 21/01/2026]',-101147.9,-168702.4,-113451.8,21167.46,-375000,-375000,-142761.3,-123749.8,0.03,0.00,0.88,-4,0,-2,4,0
'[11:23:02.128 21/01/2026]',-102952.4,-171512.4,-115185.5,19624.74,-375000,-375000,-144389.8,-125002.4,0.03,0.00,0.88,-4,0,-2,4,0
'[11:23:02.132 21/01/2026]',-101514,-170179.1,-113685.7,21332.68,-375000,-375000,-143100.5,-123493,0.03,0.00,0.88,-4,0,-2,4,0
'[11:23:02.136 21/01/2026]',-99549.16,-167243.8,-111780.2,23074.91,-375000,-375000,-141347.2,-122079,0.03,0.00,0.88,-4,0,-2,4,0
'[11:23:02.140 21/01/2026]',-100743.8,-168182.3,-113053.1,21569.3,-375000,-375000,-142408.4,-123422.4,0.03,0.00,0.88,-4,0,-2,4,0
'[11:23:02.144 21/01/2026]',-102846.2,-171266.5,-115097.5,19656.12,-375000,-375000,-144296.5,-124991,0.03,0.00,0.88,-4,0,-2,4,0
'[11:23:02.148 21/01/2026]',-101891.4,-170686,-114066.5,20932.77,-375000,-375000,-143456,-123834.8,0.03,0.00,0.88,-4,0,-2,4,0
'[11:23:02.152 21/01/2026]',-99733.66,-167599.5,-111942.1,22957.88,-375000,-375000,-141500.6,-122153.7,0.03,0.00,0.88,-4,0,-2,4,0
'[11:23:02.156 21/01/2026]',-100379.3,-167750.5,-112676.1,21953.84,-375000,-375000,-142069.7,-123085,0.03,0.00,0.88,-4,0,-2,4,0
'[11:23:02.160 21/01/2026]',-102621.1,-170857.4,-114891.6,19829.08,-375000,-375000,-144087,-124853.2,0.03,0.00,0.88,-4,0,-2,4,0
'[11:23:02.164 21/01/2026]',-102268.3,-171108.4,-114437.8,20530.03,-375000,-375000,-143786.1,-124171,0.03,0.00,0.88,-4,0,-2,4,0
'[11:23:02.168 21/01/2026]',-99982.3,-168034.3,-112190.4,22755.51,-375000,-375000,-141732.5,-122306.6,0.03,0.00,0.88,-4,0,-2,4,0
'[11:23:02.172 21/01/2026]',-99995.4,-167312.5,-112307.6,22367.61,-375000,-375000,-141750.8,-122738.3,0.03,0.00,0.88,-4,0,-2,4,0
'[11:23:02.176 21/01/2026]',-102316.6,-170372,-114588.5,20071.78,-375000,-375000,-143820.5,-124659.5,0.03,0.00,0.88,-4,0,-2,4,0
'[11:23:02.180 21/01/2026]',-102605.4,-171460.3,-114774.7,20161.54,-375000,-375000,-144084.8,-124497.8,0.03,0.00,0.88,-4,0,-2,4,0
'[11:23:02.184 21/01/2026]',-100331.7,-168552.4,-112510.1,22463.99,-375000,-375000,-142033.1,-122540.8,0.03,0.00,0.88,-4,0,-2,4,0
'[11:23:02.188 21/01/2026]',-99742.64,-167091.3,-112014.6,22686.75,-375000,-375000,-141507.5,-122451.6,0.03,0.00,0.88,-4,0,-2,4,0
'[11:23:02.192 21/01/2026]',-101945.7,-169816,-114231,20422.47,-375000,-375000,-143484.6,-124384.5,0.03,0.00,0.88,-4,0,-2,4,0
'[11:23:02.196 21/01/2026]',-102820,-171597.5,-115024.2,19892.47,-375000,-375000,-144275.2,-124745.6,0.03,-0.02,0.88,-4,0,-2,4,0
'[11:23:02.200 21/01/2026]',-100718.6,-169101,-112907.4,22100.29,-375000,-375000,-142374,-122835.4,0.03,-0.02,0.88,-4,0,-2,4,0
'[11:23:02.204 21/01/2026]',-99564.32,-167009.9,-111831.5,22905.75,-375000,-375000,-141362.9,-122250,0.03,-0.02,0.88,-4,0,-2,4,0
'[11:23:02.208 21/01/2026]',-101538.1,-169267.6,-113852.9,20783.95,-375000,-375000,-143134.3,-124088.7,0.03,-0.02,0.88,-4,0,-2,4,0
'[11:23:02.212 21/01/2026]',-102925.8,-171631.5,-115153.2,19704.67,-375000,-375000,-144384.1,-124928.2,0.03,-0.02,0.88,-4,0,-2,4,0
'[11:23:02.216 21/01/2026]',-101095.6,-169644.2,-113271.5,21732.42,-375000,-375000,-142729,-123151.4,0.03,-0.02,0.88,-4,0,-2,4,0
'[11:23:02.220 21/01/2026]',-99498.83,-167042.7,-111752.7,23049.03,-375000,-375000,-141294,-122105,0.03,-0.02,0.88,-4,0,-2,4,0
'[11:23:02.224 21/01/2026]',-101166,-168746.1,-113470.1,21150.25,-375000,-375000,-142776.3,-123762.4,0.03,-0.02,0.88,-4,0,-2,4,0
'[11:23:02.228 21/01/2026]',-102935.1,-171505.2,-115167.8,19646.51,-375000,-375000,-144382.6,-124987.8,0.03,-0.02,0.88,-4,0,-2,4,0
'[11:23:02.232 21/01/2026]',-101488.5,-170155.4,-113657.5,21350.74,-375000,-375000,-143085.2,-123476.9,0.03,0.00,0.88,-4,0,-2,4,0
'[11:23:02.236 21/01/2026]',-99562.4,-167263.4,-111779.6,23060.61,-375000,-375000,-141351.4,-122086.1,0.03,0.00,0.88,-4,0,-2,4,0
'[11:23:02.240 21/01/2026]',-100759.5,-168209.9,-113060.9,21560.13,-375000,-375000,-142425.8,-123434.8,0.03,0.00,0.88,-4,0,-2,4,0
'[11:23:02.244 21/01/2026]',-102821.9,-171235.2,-115076.9,19690.46,-375000,-375000,-144288.5,-124973.6,0.03,0.00,0.88,-4,0,-2,4,0
'[11:23:02.248 21/01/2026]',-101884.6,-170638.3,-114058.5,20952.44,-375000,-375000,-143442.1,-123821.9,0.03,0.00,0.88,-4,0,-2,4,0
'[11:23:02.252 21/01/2026]',-99725.75,-167584.3,-111949.5,22949.61,-375000,-375000,-141507.9,-122164.1,0.03,0.00,0.88,-4,0,-2,4,0
'[11:23:02.256 21/01/2026]',-100385.2,-167764.9,-112688.4,21941.19,-375000,-375000,-142096.9,-123106.3,0.03,0.00,0.88,-4,0,-2,4,0
'[11:23:02.260 21/01/2026]',-102600.2,-170833.5,-114866.7,19849.87,-375000,-375000,-144093.7,-124855.6,0.03,0.00,0.88,-4,0,-2,4,0
'[11:23:02.264 21/01/2026]',-102245,-171067.1,-114420.5,20554.8,-375000,-375000,-143775.8,-124162.4,0.03,0.00,0.88,-4,0,-2,4,0
'[11:23:02.268 21/01/2026]',-99974.61,-168009,-112194.6,22759.89,-375000,-375000,-141731.4,-122307.8,0.03,0.00,0.88,-4,0,-2,4,0
'[11:23:02.272 21/01/2026]',-100003.8,-167340.7,-112311,22351.52,-375000,-375000,-141768,-122756.6,0.03,0.00,0.88,-4,0,-2,4,0
'[11:23:02.276 21/01/2026]',-102320.7,-170378.5,-114590.1,20085.23,-375000,-375000,-143828.5,-124663.9,0.03,0.00,0.88,-4,0,-2,4,0
'[11:23:02.280 21/01/2026]',-102567.3,-171381.9,-114747.7,20206.69,-375000,-375000,-144055.3,-124472,0.03,0.00,0.88,-4,0,-2,4,0
'[11:23:02.284 21/01/2026]',-100326.9,-168522.2,-112511.8,22459.75,-375000,-375000,-142032.5,-122551.1,0.03,0.00,0.88,-4,0,-2,4,0
'[11:23:02.288 21/01/2026]',-99750.42,-167099.9,-112031.6,22662.21,-375000,-375000,-141533.8,-122480.1,0.03,0.00,0.88,-4,0,-2,4,0
'[11:23:02.292 21/01/2026]',-101953.9,-169840,-114247.2,20398.07,-375000,-375000,-143508.2,-124401.9,0.03,0.00,0.88,-4,0,-2,4,0
'[11:23:02.296 21/01/2026]',-102794.5,-171596.6,-115003.1,19903.24,-375000,-375000,-144272.5,-124738.6,0.03,0.00,0.88,-4,0,-2,4,0
'[11:23:02.300 21/01/2026]',-100672.1,-169062.1,-112860.8,22131.18,-375000,-375000,-142361.3,-122825.3,0.03,0.00,0.88,-4,0,-2,4,0
'[11:23:02.304 21/01/2026]',-99552.07,-166980.3,-111829.9,22921.8,-375000,-375000,-141362.4,-122247.1,0.03,-0.02,0.88,-4,0,-2,4,0
'[11:23:02.308 21/01/2026]',-101564.1,-169296.4,-113872.4,20758.42,-375000,-375000,-143156.1,-124101.5,0.03,-0.02,0.88,-4,0,-2,4,0
'[11:23:02.312 21/01/2026]',-102934.3,-171657.1,-115156.3,19694.52,-375000,-375000,-144400.6,-124933.4,0.03,-0.02,0.88,-4,0,-2,4,0
'[11:23:02.316 21/01/2026]',-101084.7,-169632,-113265.1,21737.65,-375000,-375000,-142733.1,-123153.6,0.03,-0.02,0.88,-4,0,-2,4,0
'[11:23:02.320 21/01/2026]',-99510.59,-167012.6,-111760.7,23055.73,-375000,-375000,-141303.3,-122112.8,0.03,-0.02,0.88,-4,0,-2,4,0
'[11:23:02.324 21/01/2026]',-101164.8,-168727.1,-113478.8,21134.2,-375000,-375000,-142802.7,-123785.6,0.03,-0.02,0.88,-4,0,-2,4,0
'[11:23:02.328 21/01/2026]',-102950.1,-171566.6,-115192.4,19595.24,-375000,-375000,-144422.8,-125027.1,0.03,-0.02,0.88,-4,0,-2,4,0
'[11:23:02.332 21/01/2026]',-101471.1,-170150.3,-113654.4,21351.06,-375000,-375000,-143088.8,-123474.7,0.03,-0.02,0.88,-4,0,-2,4,0
'[11:23:02.336 21/01/2026]',-99551.94,-167239.4,-111792.2,23052.16,-375000,-375000,-141358.1,-122088.4,0.03,-0.02,0.88,-4,0,-2,4,0
'[11:23:02.340 21/01/2026]',-100800.9,-168263,-113114.1,21512.35,-375000,-375000,-142462.6,-123464.4,0.02,-0.02,0.88,-4,0,-2,6,0
'[11:23:02.344 21/01/2026]',-102843.5,-171262.1,-115103.1,19674.05,-375000,-375000,-144302.1,-124979,0.02,-0.02,0.88,-4,0,-2,6,0
'[11:23:02.348 21/01/2026]',-101850.9,-170619.7,-114036.2,20965.31,-375000,-375000,-143431.2,-123807,0.02,-0.02,0.88,-4,0,-2,6,0
'[11:23:02.352 21/01/2026]',-99698.57,-167564.4,-111930.1,22959.22,-375000,-375000,-141498.5,-122150.2,0.02,-0.02,0.88,-4,0,-2,6,0
'[11:23:02.356 21/01/2026]',-100392.6,-167781.7,-112700.9,21918.16,-375000,-375000,-142113.2,-123116.1,0.02,-0.02,0.88,-4,0,-2,6,0
'[11:23:02.360 21/01/2026]',-102627.1,-170873.5,-114891.5,19817.1,-375000,-375000,-144114.3,-124869.7,0.02,-0.02,0.88,-4,0,-2,6,0
'[11:23:02.364 21/01/2026]',-102240.8,-171062,-114421.4,20556.63,-375000,-375000,-143771.7,-124157.1,0.02,-0.02,0.88,-4,0,-2,6,0
'[11:23:02.368 21/01/2026]',-99949.89,-167964.4,-112161.5,22782.64,-375000,-375000,-141711.7,-122292,0.02,-0.02,0.88,-4,0,-2,6,0
'[11:23:02.372 21/01/2026]',-100046.9,-167370.8,-112346.2,22304.54,-375000,-375000,-141796.2,-122790.9,0.02,-0.02,0.88,-4,0,-2,6,0
'[11:23:02.376 21/01/2026]',-102343.4,-170417.1,-114625.1,20050.9,-375000,-375000,-143850,-124677.5,0.03,0.00,0.86,-4,0,-2,6,0
'[11:23:02.380 21/01/2026]',-102541.1,-171380.5,-114742.3,20207.81,-375000,-375000,-144042,-124454.3,0.03,0.00,0.86,-4,0,-2,6,0
'[11:23:02.384 21/01/2026]',-100279.4,-168481.2,-112487.2,22477.27,-375000,-375000,-142010.1,-122533.8,0.03,0.00,0.86,-4,0,-2,6,0
'[11:23:02.388 21/01/2026]',-99764.28,-167123.7,-112057.3,22623.27,-375000,-375000,-141546.9,-122501.4,0.03,0.00,0.86,-4,0,-2,6,0
'[11:23:02.392 21/01/2026]',-101980.6,-169888.2,-114271.8,20375.27,-375000,-375000,-143522.1,-124413.2,0.03,0.00,0.86,-4,0,-2,6,0
'[11:23:02.396 21/01/2026]',-102786,-171577.6,-114988.9,19922.47,-375000,-375000,-144252.6,-124721.8,0.03,0.00,0.86,-4,0,-2,6,0
'[11:23:02.400 21/01/2026]',-100671,-169028,-112859.3,22146.6,-375000,-375000,-142333,-122803.8,0.03,0.00,0.86,-4,0,-2,6,0
'[11:23:02.404 21/01/2026]',-99562.09,-166961.8,-111832.4,22906.65,-375000,-375000,-141357.7,-122253.8,0.03,0.00,0.86,-4,0,-2,6,0
'[11:23:02.408 21/01/2026]',-101611.9,-169320.1,-113912.8,20721.45,-375000,-375000,-143177.8,-124126.3,0.03,0.00,0.86,-4,0,-2,6,0
'[11:23:02.412 21/01/2026]',-102920.8,-171642.7,-115134.7,19715.49,-375000,-375000,-144376.8,-124911.4,0.05,0.00,0.88,-4,0,-2,6,0
'[11:23:02.416 21/01/2026]',-101041.6,-169574.1,-113216.2,21781.69,-375000,-375000,-142685.6,-123120,0.05,0.00,0.88,-4,0,-2,6,0
'[11:23:02.420 21/01/2026]',-99480.33,-166991.7,-111737.6,23059.67,-375000,-375000,-141296.5,-122122.5,0.05,0.00,0.88,-4,0,-2,6,0
'[11:23:02.424 21/01/2026]',-101184.2,-168754.3,-113502.3,21116.32,-375000,-375000,-142823.9,-123812.7,0.05,0.00,0.88,-4,0,-2,6,0
'[11:23:02.428 21/01/2026]',-102929.4,-171488.9,-115165.8,19652.28,-375000,-375000,-144379.6,-124986.7,0.05,0.00,0.88,-4,0,-2,6,0
'[11:23:02.432 21/01/2026]',-101462.5,-170129.7,-113632.2,21364.47,-375000,-375000,-143053.5,-123458.4,0.05,0.00,0.88,-4,0,-2,6,0
'[11:23:02.436 21/01/2026]',-99571.92,-167286.6,-111797.7,23023.01,-375000,-375000,-141361.6,-122111.1,0.05,0.00,0.88,-4,0,-2,6,0
'[11:23:02.440 21/01/2026]',-100799.8,-168282.9,-113103.2,21512.48,-375000,-375000,-142456.6,-123470,0.05,0.00,0.88,-4,0,-2,6,0
'[11:23:02.444 21/01/2026]',-102842.5,-171271.8,-115086.4,19678.47,-375000,-375000,-144290.2,-124978.8,0.05,0.00,0.88,-4,0,-2,6,0
'[11:23:02.448 21/01/2026]',-101847,-170594.9,-114017.6,20982.21,-375000,-375000,-143401.9,-123792.3,0.05,-0.02,0.86,-4,0,-2,6,0
'[11:23:02.452 21/01/2026]',-99708.09,-167564.9,-111924.9,22953.45,-375000,-375000,-141484.3,-122154.6,0.05,-0.02,0.86,-4,0,-2,6,0
'[11:23:02.456 21/01/2026]',-100420.5,-167807.4,-112724.8,21904.53,-375000,-375000,-142115.9,-123133.9,0.05,-0.02,0.86,-4,0,-2,6,0
'[11:23:02.460 21/01/2026]',-102667.1,-170921.9,-114930.8,19795.64,-375000,-375000,-144122.6,-124885.4,0.05,-0.02,0.86,-4,0,-2,6,0
'[11:23:02.464 21/01/2026]',-102208.7,-171046.2,-114381.9,20589.44,-375000,-375000,-143735.7,-124131.6,0.05,-0.02,0.86,-4,0,-2,6,0
'[11:23:02.468 21/01/2026]',-99953.02,-167975.3,-112154.6,22774.33,-375000,-375000,-141698.1,-122296.6,0.05,-0.02,0.86,-4,0,-2,6,0
'[11:23:02.472 21/01/2026]',-100068.3,-167415.8,-112361.1,22289.96,-375000,-375000,-141802.9,-122800,0.05,-0.02,0.86,-4,0,-2,6,0
'[11:23:02.476 21/01/2026]',-102357,-170442.4,-114633.8,20048.13,-375000,-375000,-143856.3,-124686.9,0.05,-0.02,0.86,-4,0,-2,6,0
'[11:23:02.480 21/01/2026]',-102536.3,-171359.5,-114722.9,20231.23,-375000,-375000,-144025.8,-124446.6,0.05,-0.02,0.86,-4,0,-2,6,0
'[11:23:02.484 21/01/2026]',-100269.1,-168466.2,-112459.7,22499.09,-375000,-375000,-141986.7,-122520.3,0.03,0.00,0.88,-4,0,-2,6,0
'[11:23:02.488 21/01/2026]',-99764.37,-167099.4,-112057.1,22643.26,-375000,-375000,-141540.5,-122500.5,0.03,0.00,0.88,-4,0,-2,6,0
'[11:23:02.492 21/01/2026]',-102030,-169909.5,-114316.5,20338.52,-375000,-375000,-143552.8,-124449,0.03,0.00,0.88,-4,0,-2,6,0
'[11:23:02.496 21/01/2026]',-102794.6,-171616.3,-114980.8,19911.16,-375000,-375000,-144268.9,-124733.5,0.03,0.00,0.88,-4,0,-2,6,0
'[11:23:02.500 21/01/2026]',-100645.4,-169020.2,-112823.9,22155.14,-375000,-375000,-142335.4,-122810.2,0.03,0.00,0.88,-4,0,-2,6,0
'[11:23:02.504 21/01/2026]',-99573.84,-166973,-111844.8,22899.76,-375000,-375000,-141374.1,-122272.1,0.03,0.00,0.88,-4,0,-2,6,0
'[11:23:02.508 21/01/2026]',-101610.9,-169339,-113921.1,20707.86,-375000,-375000,-143202.1,-124152.5,0.03,0.00,0.88,-4,0,-2,6,0
'[11:23:02.512 21/01/2026]',-102925.1,-171667.5,-115156.6,19705.56,-375000,-375000,-144397.4,-124930.1,0.03,0.00,0.88,-4,0,-2,6,0
'[11:23:02.516 21/01/2026]',-101020,-169558.8,-113195.1,21795.5,-375000,-375000,-142683.3,-123120.5,0.03,0.00,0.88,-4,0,-2,6,0
'[11:23:02.520 21/01/2026]',-99495.39,-167026.8,-111748.8,23034.81,-375000,-375000,-141313.6,-122145.2,0.02,0.00,0.88,-4,0,-2,6,0
'[11:23:02.524 21/01/2026]',-101213.8,-168814.6,-113519.5,21096.96,-375000,-375000,-142845.9,-123839,0.02,0.00,0.88,-4,0,-2,6,0
'[11:23:02.528 21/01/2026]',-102931.3,-171541,-115166.4,19647.36,-375000,-375000,-144404.2,-125013.7,0.02,0.00,0.88,-4,0,-2,6,0
'[11:23:02.532 21/01/2026]',-101430,-170085.7,-113591.2,21410.2,-375000,-375000,-143042.7,-123448.8,0.02,0.00,0.88,-4,0,-2,6,0
'[11:23:02.536 21/01/2026]',-99548.45,-167194.3,-111777.9,23076.7,-375000,-375000,-141338.4,-122091.5,0.02,0.00,0.88,-4,0,-2,6,0
'[11:23:02.540 21/01/2026]',-100818.3,-168253.5,-113120.6,21497.33,-375000,-375000,-142482.4,-123503.3,0.02,0.00,0.88,-4,0,-2,6,0
'[11:23:02.544 21/01/2026]',-102869.9,-171347.1,-115101.7,19629.93,-375000,-375000,-144342.5,-125032.8,0.02,0.00,0.88,-4,0,-2,6,0
'[11:23:02.548 21/01/2026]',-101825.7,-170603.4,-113993.9,21007.11,-375000,-375000,-143400.7,-123785.3,0.02,0.00,0.88,-4,0,-2,6,0
'[11:23:02.552 21/01/2026]',-99681.89,-167499.1,-111903.5,22994.22,-375000,-375000,-141469.2,-122146.6,0.02,0.00,0.88,-4,0,-2,6,0
'[11:23:02.556 21/01/2026]',-100436.7,-167783.2,-112747.4,21892.91,-375000,-375000,-142135.6,-123167.6,0.03,-0.02,0.88,-4,0,-2,6,0
'[11:23:02.560 21/01/2026]',-102667.1,-170971.4,-114933.5,19763.46,-375000,-375000,-144154,-124923.8,0.03,-0.02,0.88,-4,0,-2,6,0
'[11:23:02.564 21/01/2026]',-102215.8,-171092.1,-114388.9,20574.51,-375000,-375000,-143754.2,-124144.4,0.03,-0.02,0.88,-4,0,-2,6,0
'[11:23:02.568 21/01/2026]',-99910.15,-167914.5,-112130.3,22816.21,-375000,-375000,-141678.6,-122272.2,0.03,-0.02,0.88,-4,0,-2,6,0
'[11:23:02.572 21/01/2026]',-100057.1,-167345,-112363,22300.74,-375000,-375000,-141798.4,-122804.3,0.03,-0.02,0.88,-4,0,-2,6,0
'[11:23:02.576 21/01/2026]',-102392.9,-170488.5,-114657.5,20001.55,-375000,-375000,-143886.4,-124723,0.03,-0.02,0.88,-4,0,-2,6,0
'[11:23:02.580 21/01/2026]',-102560.1,-171442.3,-114734.2,20202.58,-375000,-375000,-144044,-124461.9,0.03,-0.02,0.88,-4,0,-2,6,0
'[11:23:02.584 21/01/2026]',-100260.6,-168454,-112463.9,22522.24,-375000,-375000,-141975,-122503.6,0.03,-0.02,0.88,-4,0,-2,6,0
'[11:23:02.588 21/01/2026]',-99763.74,-167064,-112060.1,22649.16,-375000,-375000,-141539.1,-122502.8,0.03,-0.02,0.88,-4,0,-2,6,0
'[11:23:02.592 21/01/2026]',-102031,-169936.2,-114312.3,20322.07,-375000,-375000,-143567.9,-124464.8,0.03,0.00,0.89,-4,0,-2,6,0
'[11:23:02.596 21/01/2026]',-102813.7,-171654.6,-114992.8,19894.93,-375000,-375000,-144278.5,-124744.3,0.03,0.00,0.89,-4,0,-2,6,0
'[11:23:02.600 21/01/2026]',-100640.6,-169007.1,-112831.9,22173.06,-375000,-375000,-142323.6,-122798.5,0.03,0.00,0.89,-4,0,-2,6,0
'[11:23:02.604 21/01/2026]',-99546.09,-166914.4,-111843,22918.76,-375000,-375000,-141363.5,-122266.1,0.03,0.00,0.89,-4,0,-2,6,0
'[11:23:02.608 21/01/2026]',-101628,-169362,-113930.4,20687.79,-375000,-375000,-143211.4,-124167.7,0.03,0.00,0.89,-4,0,-2,6,0
'[11:23:02.612 21/01/2026]',-102944.5,-171736,-115153.3,19677.22,-375000,-375000,-144405.9,-124940.8,0.03,0.00,0.89,-4,0,-2,6,0
'[11:23:02.616 21/01/2026]',-101015.9,-169568.9,-113201.3,21801.76,-375000,-375000,-142669.3,-123105.4,0.03,0.00,0.89,-4,0,-2,6,0
'[11:23:02.620 21/01/2026]',-99501.11,-167000.9,-111754.7,23038.3,-375000,-375000,-141299.1,-122139.7,0.03,0.00,0.89,-4,0,-2,6,0
'[11:23:02.624 21/01/2026]',-101248.3,-168837.5,-113541.8,21065.49,-375000,-375000,-142852.4,-123850.2,0.03,0.00,0.89,-4,0,-2,6,0
'[11:23:02.628 21/01/2026]',-102959.7,-171576.4,-115179.5,19618.62,-375000,-375000,-144404.2,-125013.4,0.02,0.00,0.86,-4,0,-2,6,0
'[11:23:02.632 21/01/2026]',-101420.8,-170083.9,-113590.6,21411.81,-375000,-375000,-143027.6,-123432.5,0.02,0.00,0.86,-4,0,-2,6,0
'[11:23:02.636 21/01/2026]',-99548.45,-167196.3,-111789.2,23056.67,-375000,-375000,-141343.1,-122099,0.02,0.00,0.86,-4,0,-2,6,0
'[11:23:02.640 21/01/2026]',-100841.7,-168324.8,-113145.4,21465.09,-375000,-375000,-142508,-123522.5,0.02,0.00,0.86,-4,0,-2,6,0
'[11:23:02.644 21/01/2026]',-102851.2,-171313.5,-115097.6,19661.31,-375000,-375000,-144319.9,-125000.3,0.02,0.00,0.86,-4,0,-2,6,0
'[11:23:02.648 21/01/2026]',-101804,-170562.5,-113979,21018.78,-375000,-375000,-143382.2,-123769.3,0.02,0.00,0.86,-4,0,-2,6,0
'[11:23:02.652 21/01/2026]',-99671.61,-167474.9,-111892,23000.97,-375000,-375000,-141458.9,-122135,0.02,0.00,0.86,-4,0,-2,6,0
'[11:23:02.656 21/01/2026]',-100458.5,-167829,-112761.5,21865.32,-375000,-375000,-142154.5,-123175.9,0.02,0.00,0.86,-4,0,-2,6,0
'[11:23:02.660 21/01/2026]',-102673.8,-170957.6,-114943,19780.67,-375000,-375000,-144150.8,-124908.9,0.02,0.00,0.86,-4,0,-2,6,0
'[11:23:02.664 21/01/2026]',-102163.8,-170998.8,-114356.8,20622.61,-375000,-375000,-143715.9,-124111.5,0.03,-0.02,0.89,-4,0,-2,6,0
'[11:23:02.668 21/01/2026]',-99934.69,-167926.6,-112161.4,22786.22,-375000,-375000,-141688.7,-122295.4,0.03,-0.02,0.89,-4,0,-2,6,0
'[11:23:02.672 21/01/2026]',-100089.3,-167410,-112388.5,22258.67,-375000,-375000,-141830,-122839.5,0.03,-0.02,0.89,-4,0,-2,6,0
'[11:23:02.676 21/01/2026]',-102403.1,-170507.8,-114664.1,19994.93,-375000,-375000,-143898.3,-124730.7,0.03,-0.02,0.89,-4,0,-2,6,0
'[11:23:02.680 21/01/2026]',-102540,-171417.2,-114708.5,20225.38,-375000,-375000,-144027.7,-124445.6,0.03,-0.02,0.89,-4,0,-2,6,0
'[11:23:02.684 21/01/2026]',-100236.3,-168417.3,-112440.8,22541.6,-375000,-375000,-141955,-122490.2,0.03,-0.02,0.89,-4,0,-2,6,0
'[11:23:02.688 21/01/2026]',-99778.05,-167074.5,-112071.5,22632.88,-375000,-375000,-141545.9,-122516.8,0.03,-0.02,0.89,-4,0,-2,6,0
'[11:23:02.692 21/01/2026]',-102055.1,-169967.2,-114339.9,20297.53,-375000,-375000,-143579.9,-124479.2,0.03,-0.02,0.89,-4,0,-2,6,0
'[11:23:02.696 21/01/2026]',-102788.3,-171639.8,-114970.3,19912.63,-375000,-375000,-144253.1,-124719.8,0.03,-0.02,0.89,-4,0,-2,6,0
'[11:23:02.700 21/01/2026]',-100610.3,-168974.4,-112789.7,22198.99,-375000,-375000,-142289.5,-122770.9,0.02,0.00,0.88,-4,0,-2,6,0
'[11:23:02.704 21/01/2026]',-99573.76,-166919.6,-111854.9,22906.02,-375000,-375000,-141360.4,-122269.8,0.02,0.00,0.88,-4,0,-2,6,0
'[11:23:02.708 21/01/2026]',-101664.7,-169393.6,-113960.2,20661.19,-375000,-375000,-143230,-124182.8,0.02,0.00,0.88,-4,0,-2,6,0
'[11:23:02.712 21/01/2026]',-102942.4,-171710.5,-115148.4,19691.17,-375000,-375000,-144395,-124925.2,0.02,0.00,0.88,-4,0,-2,6,0
'[11:23:02.716 21/01/2026]',-100998.7,-169526.3,-113174.7,21826.84,-375000,-375000,-142641.8,-123078.4,0.02,0.00,0.88,-4,0,-2,6,0
'[11:23:02.720 21/01/2026]',-99492.62,-166976.7,-111749.1,23046.88,-375000,-375000,-141287.7,-122125.6,0.02,0.00,0.88,-4,0,-2,6,0
'[11:23:02.724 21/01/2026]',-101259.2,-168862.9,-113561.3,21046.36,-375000,-375000,-142869.3,-123858,0.02,0.00,0.88,-4,0,-2,6,0
'[11:23:02.728 21/01/2026]',-102979.4,-171623,-115189.6,19599.26,-375000,-375000,-144419,-125023,0.02,0.00,0.88,-4,0,-2,6,0
'[11:23:02.732 21/01/2026]',-101422.6,-170073.9,-113581.8,21432.51,-375000,-375000,-143006.7,-123411.8,0.02,0.00,0.88,-4,0,-2,6,0
'[11:23:02.736 21/01/2026]',-99516.71,-167119.9,-111754.1,23107.86,-375000,-375000,-141307,-122064,0.03,0.00,0.88,-4,0,-2,6,0
'[11:23:02.740 21/01/2026]',-100854.2,-168299.1,-113154.1,21452.71,-375000,-375000,-142508.7,-123528.3,0.03,0.00,0.88,-4,0,-2,6,0
'[11:23:02.744 21/01/2026]',-102890,-171380.9,-115119.2,19617.01,-375000,-375000,-144348.7,-125029.5,0.03,0.00,0.88,-4,0,-2,6,0
'[11:23:02.748 21/01/2026]',-101804.6,-170585.9,-113961.4,21028.03,-375000,-375000,-143371.4,-123760.8,0.03,0.00,0.88,-4,0,-2,6,0
'[11:23:02.752 21/01/2026]',-99646.84,-167434.8,-111872.8,23034.72,-375000,-375000,-141430.3,-122110.5,0.03,0.00,0.88,-4,0,-2,6,0
'[11:23:02.756 21/01/2026]',-100450.7,-167789.9,-112766.5,21871.23,-375000,-375000,-142148.9,-123174.8,0.03,0.00,0.88,-4,0,-2,6,0
'[11:23:02.760 21/01/2026]',-102674.6,-170997.4,-114940.1,19754.47,-375000,-375000,-144164.8,-124927.6,0.03,0.00,0.88,-4,0,-2,6,0
'[11:23:02.764 21/01/2026]',-102181.5,-171048.4,-114348.1,20616.49,-375000,-375000,-143718.3,-124110.2,0.03,0.00,0.88,-4,0,-2,6,0
'[11:23:02.768 21/01/2026]',-99911.71,-167873,-112121,22832.48,-375000,-375000,-141659.5,-122262.1,0.03,0.00,0.88,-4,0,-2,6,0
'[11:23:02.772 21/01/2026]',-100091.4,-167376.7,-112396.8,22263.95,-375000,-375000,-141834.2,-122845.8,0.03,0.00,0.88,-4,0,-2,6,0
'[11:23:02.776 21/01/2026]',-102410.7,-170521.8,-114668.9,19989.61,-375000,-375000,-143913.5,-124744.7,0.03,0.00,0.88,-4,0,-2,6,0
'[11:23:02.780 21/01/2026]',-102516.3,-171392.7,-114685.9,20249.29,-375000,-375000,-144018.5,-124437.9,0.03,0.00,0.88,-4,0,-2,6,0
'[11:23:02.784 21/01/2026]',-100215.9,-168384.9,-112413.7,22560.78,-375000,-375000,-141947.8,-122490.1,0.03,0.00,0.88,-4,0,-2,6,0
'[11:23:02.788 21/01/2026]',-99792.45,-167078,-112089.8,22618.09,-375000,-375000,-141566.4,-122542.8,0.03,0.00,0.88,-4,0,-2,6,0
'[11:23:02.792 21/01/2026]',-102069.8,-169982.6,-114349.8,20292.66,-375000,-375000,-143598.2,-124497.1,0.03,0.00,0.88,-4,0,-2,6,0
'[11:23:02.796 21/01/2026]',-102758.3,-171618.3,-114933.4,19945.58,-375000,-375000,-144238,-124703,0.03,0.00,0.88,-4,0,-2,6,0
'[11:23:02.800 21/01/2026]',-100584.6,-168939.3,-112765.6,22222.6,-375000,-375000,-142274.5,-122763,0.03,0.00,0.88,-4,0,-2,6,0
'[11:23:02.804 21/01/2026]',-99572.91,-166920.5,-111861.9,22894.04,-375000,-375000,-141373.2,-122290.5,0.03,0.00,0.88,-4,0,-2,6,0
'[11:23:02.808 21/01/2026]',-101670.6,-169423.1,-113974.4,20643.31,-375000,-375000,-143249.6,-124201.1,0.02,-0.02,0.88,-4,0,-2,6,0
'[11:23:02.812 21/01/2026]',-102926.1,-171699.7,-115129.6,19712.18,-375000,-375000,-144383,-124914.3,0.02,-0.02,0.88,-4,0,-2,6,0
'[11:23:02.816 21/01/2026]',-100964.9,-169490,-113145.6,21854.24,-375000,-375000,-142624.2,-123067.9,0.02,-0.02,0.88,-4,0,-2,6,0
'[11:23:02.820 21/01/2026]',-99472.37,-166934.7,-111747.5,23062.89,-375000,-375000,-141284.7,-122130.2,0.02,-0.02,0.88,-4,0,-2,6,0
'[11:23:02.824 21/01/2026]',-101266.6,-168861,-113573.8,21035.58,-375000,-375000,-142881.2,-123877.4,0.02,-0.02,0.88,-4,0,-2,6,0
'[11:23:02.828 21/01/2026]',-102966.9,-171617.4,-115178.4,19608.25,-375000,-375000,-144411.8,-125020,0.02,-0.02,0.88,-4,0,-2,6,0
'[11:23:02.832 21/01/2026]',-101380.9,-170040.1,-113543.5,21459.46,-375000,-375000,-142984.5,-123398.8,0.02,-0.02,0.88,-4,0,-2,6,0
'[11:23:02.836 21/01/2026]',-99504.11,-167110.5,-111751.2,23112.55,-375000,-375000,-141297,-122066.4,0.02,-0.02,0.88,-4,0,-2,6,0
'[11:23:02.840 21/01/2026]',-100876.6,-168308,-113182.8,21434.92,-375000,-375000,-142517.5,-123544.3,0.02,-0.02,0.88,-4,0,-2,6,0
'[11:23:02.844 21/01/2026]',-102890,-171364.7,-115116.3,19623.31,-375000,-375000,-144335.8,-125023.5,0.03,-0.02,0.88,-4,0,-2,6,0
'[11:23:02.848 21/01/2026]',-101768.3,-170536.2,-113933.9,21050.74,-375000,-375000,-143346.1,-123744.9,0.03,-0.02,0.88,-4,0,-2,6,0
'[11:23:02.852 21/01/2026]',-99630.53,-167418,-111871.2,23030.79,-375000,-375000,-141429,-122115.8,0.03,-0.02,0.88,-4,0,-2,6,0
'[11:23:02.856 21/01/2026]',-100469.3,-167824.8,-112781.5,21846.33,-375000,-375000,-142171.1,-123199.4,0.03,-0.02,0.88,-4,0,-2,6,0
'[11:23:02.860 21/01/2026]',-102694.6,-171011,-114942.7,19755.01,-375000,-375000,-144167.2,-124928.9,0.03,-0.02,0.88,-4,0,-2,6,0
'[11:23:02.864 21/01/2026]',-102155.5,-171004.3,-114326,20648.5,-375000,-375000,-143687.9,-124087.9,0.03,-0.02,0.88,-4,0,-2,6,0
'[11:23:02.868 21/01/2026]',-99880.95,-167851.7,-112102.8,22846.48,-375000,-375000,-141645.1,-122258.4,0.03,-0.02,0.88,-4,0,-2,6,0
'[11:23:02.872 21/01/2026]',-100096.5,-167385.8,-112405.6,22260.01,-375000,-375000,-141832.2,-122848.2,0.03,-0.02,0.88,-4,0,-2,6,0
'[11:23:02.876 21/01/2026]',-102412.5,-170523.2,-114688,19989.34,-375000,-375000,-143904.5,-124739.4,0.03,-0.02,0.88,-4,0,-2,6,0
'[11:23:02.880 21/01/2026]',-102466.5,-171349.3,-114647.7,20282.38,-375000,-375000,-143984.5,-124409,0.03,-0.02,0.88,-4,0,-2,6,0
'[11:23:02.884 21/01/2026]',-100183.2,-168350.1,-112394.4,22576.51,-375000,-375000,-141931.3,-122480.9,0.03,-0.02,0.88,-4,0,-2,6,0
'[11:23:02.888 21/01/2026]',-99805.77,-167121.9,-112101.7,22586.48,-375000,-375000,-141585.7,-122565.8,0.03,-0.02,0.88,-4,0,-2,6,0
'[11:23:02.892 21/01/2026]',-102065.7,-170011.6,-114343.1,20299.32,-375000,-375000,-143602.9,-124498.3,0.03,-0.02,0.88,-4,0,-2,6,0
'[11:23:02.896 21/01/2026]',-102727,-171534.6,-114919,19994.98,-375000,-375000,-144206.6,-124679.2,0.03,-0.02,0.88,-4,0,-2,6,0
'[11:23:02.900 21/01/2026]',-100557.1,-168895.7,-112750,22228.23,-375000,-375000,-142262.5,-122762.3,0.03,-0.02,0.88,-4,0,-2,6,0
'[11:23:02.904 21/01/2026]',-99614.16,-167014.9,-111885.9,22836.78,-375000,-375000,-141408.8,-122327.1,0.03,-0.02,0.88,-4,0,-2,6,0
'[11:23:02.908 21/01/2026]',-101678.8,-169431.8,-113970,20665.88,-375000,-375000,-143248.8,-124190.5,0.03,-0.02,0.88,-4,0,-2,6,0
'[11:23:02.912 21/01/2026]',-102882.7,-171598.8,-115097,19771.46,-375000,-375000,-144349.3,-124877.9,0.03,-0.02,0.88,-4,0,-2,6,0
'[11:23:02.916 21/01/2026]',-100955.9,-169457,-113142.6,21852.67,-375000,-375000,-142616.9,-123063.8,0.02,-0.02,0.88,-4,0,-2,6,0
'[11:23:02.920 21/01/2026]',-99515.82,-167021.3,-111783.4,23000.03,-375000,-375000,-141325.5,-122173.1,0.02,-0.02,0.88,-4,0,-2,6,0
'[11:23:02.924 21/01/2026]',-101307.5,-168898.7,-113619.7,21022.08,-375000,-375000,-142911.8,-123898.3,0.02,-0.02,0.88,-4,0,-2,6,0
'[11:23:02.928 21/01/2026]',-102921.4,-171522.5,-115170.6,19665.91,-375000,-375000,-144389,-124987.2,0.02,-0.02,0.88,-4,0,-2,6,0
'[11:23:02.932 21/01/2026]',-101312,-169943.7,-113521.9,21478.1,-375000,-375000,-142966.9,-123385.8,0.02,-0.02,0.88,-4,0,-2,6,0
'[11:23:02.936 21/01/2026]',-99537.14,-167183.3,-111785.2,23036.33,-375000,-375000,-141349.8,-122124.5,0.02,-0.02,0.88,-4,0,-2,6,0
'[11:23:02.940 21/01/2026]',-100888.1,-168368,-113189.8,21428.17,-375000,-375000,-142541.9,-123555.1,0.02,-0.02,0.88,-4,0,-2,6,0
'[11:23:02.944 21/01/2026]',-102852.2,-171295.1,-115088.6,19681.52,-375000,-375000,-144310,-124985.1,0.02,-0.02,0.88,-4,0,-2,6,0
'[11:23:02.948 21/01/2026]',-101747.5,-170467.3,-113915,21082.52,-375000,-375000,-143322.2,-123721.4,0.02,-0.02,0.88,-4,0,-2,6,0
'[11:23:02.952 21/01/2026]',-99662.13,-167451.7,-111889.4,22995.88,-375000,-375000,-141446.8,-122142.3,0.03,-0.02,0.88,-4,0,-2,6,0
'[11:23:02.956 21/01/2026]',-100489.8,-167879.7,-112794.5,21834.21,-375000,-375000,-142187.1,-123210,0.03,-0.02,0.88,-4,0,-2,6,0
'[11:23:02.960 21/01/2026]',-102650.9,-170922.1,-114911.5,19826.62,-375000,-375000,-144131.4,-124881.7,0.03,-0.02,0.88,-4,0,-2,6,0
'[11:23:02.964 21/01/2026]',-102101.2,-170879.1,-114286.9,20699.86,-375000,-375000,-143650.3,-124055.4,0.03,-0.02,0.88,-4,0,-2,6,0
'[11:23:02.968 21/01/2026]',-99892.94,-167875.2,-112104.5,22805.04,-375000,-375000,-141659.8,-122283.4,0.03,-0.02,0.88,-4,0,-2,6,0
'[11:23:02.972 21/01/2026]',-100134.7,-167483.8,-112439.7,22213.12,-375000,-375000,-141872.5,-122881.5,0.03,-0.02,0.88,-4,0,-2,6,0
'[11:23:02.976 21/01/2026]',-102369.6,-170478.6,-114669.2,20038.16,-375000,-375000,-143890.6,-124715,0.03,-0.02,0.88,-4,0,-2,6,0
'[11:23:02.980 21/01/2026]',-102423.3,-171242.3,-114630.8,20326.45,-375000,-375000,-143948.8,-124379,0.03,-0.02,0.88,-4,0,-2,6,0
'[11:23:02.984 21/01/2026]',-100205.6,-168366.9,-112401.8,22541.2,-375000,-375000,-141929.2,-122490.4,0.03,-0.02,0.88,-4,0,-2,6,0
'[11:23:02.988 21/01/2026]',-99844.52,-167184.4,-112131.5,22551.97,-375000,-375000,-141605.6,-122583.1,0.05,-0.02,0.88,-4,0,-2,6,0
'[11:23:02.992 21/01/2026]',-102063.1,-169987.9,-114347.5,20315.9,-375000,-375000,-143597.1,-124487.8,0.05,-0.02,0.88,-4,0,-2,6,0
'[11:23:02.996 21/01/2026]',-102710,-171487.7,-114909,20014.51,-375000,-375000,-144187.8,-124659.1,0.05,-0.02,0.88,-4,0,-2,6,0
'[11:23:03.000 21/01/2026]',-100582.1,-168923.3,-112767.1,22208.16,-375000,-375000,-142261.3,-122763.5,0.05,-0.02,0.88,-4,0,-2,6,0
'[11:23:03.004 21/01/2026]',-99628.83,-167038,-111904.2,22825.15,-375000,-375000,-141413.9,-122334.5,0.05,-0.02,0.88,-4,0,-2,6,0
'[11:23:03.008 21/01/2026]',-101686.6,-169442.9,-113988.7,20659.49,-375000,-375000,-143254.3,-124195.8,0.05,-0.02,0.88,-4,0,-2,6,0
'[11:23:03.012 21/01/2026]',-102854.2,-171552.4,-115071.5,19804.31,-375000,-375000,-144316.8,-124846.1,0.05,-0.02,0.88,-4,0,-2,6,0
'[11:23:03.016 21/01/2026]',-100922.6,-169409,-113106.4,21875.34,-375000,-375000,-142587.5,-123045.5,0.05,-0.02,0.88,-4,0,-2,6,0
'[11:23:03.020 21/01/2026]',-99508.48,-167027.1,-111772.8,22997.89,-375000,-375000,-141322.3,-122178.1,0.05,-0.02,0.88,-4,0,-2,6,0
'[11:23:03.024 21/01/2026]',-101296.2,-168923.3,-113604.3,21025.97,-375000,-375000,-142914.1,-123898.7,0.03,0.00,0.88,-4,0,-2,6,0
'[11:23:03.028 21/01/2026]',-102920.5,-171525.5,-115151.4,19684.46,-375000,-375000,-144381.8,-124978.6,0.03,0.00,0.88,-4,0,-2,6,0
'[11:23:03.032 21/01/2026]',-101314.1,-169918.2,-113497,21509.8,-375000,-375000,-142941.5,-123363.2,0.03,0.00,0.88,-4,0,-2,6,0
'[11:23:03.036 21/01/2026]',-99512.16,-167153,-111757.1,23064.68,-375000,-375000,-141322.6,-122097.9,0.03,0.00,0.88,-4,0,-2,6,0
'[11:23:03.040 21/01/2026]',-100882,-168376,-113190.3,21428.04,-375000,-375000,-142540.8,-123551.8,0.03,0.00,0.88,-4,0,-2,6,0
'[11:23:03.044 21/01/2026]',-102842.1,-171291.4,-115083.5,19699.22,-375000,-375000,-144301.3,-124974.6,0.03,0.00,0.88,-4,0,-2,6,0
'[11:23:03.048 21/01/2026]',-101708.9,-170420.7,-113887.2,21114.75,-375000,-375000,-143289.4,-123695.1,0.03,0.00,0.88,-4,0,-2,6,0
'[11:23:03.052 21/01/2026]',-99642.77,-167436.8,-111875.3,23002.45,-375000,-375000,-141427.8,-122130.4,0.03,0.00,0.88,-4,0,-2,6,0
'[11:23:03.056 21/01/2026]',-100504,-167907.2,-112806.4,21819.5,-375000,-375000,-142190.9,-123216,0.03,0.00,0.88,-4,0,-2,6,0
'[11:23:03.060 21/01/2026]',-102673.5,-170974.9,-114934.1,19798.86,-375000,-375000,-144141.2,-124896.8,0.03,0.00,0.88,-4,0,-2,6,0
'[11:23:03.064 21/01/2026]',-102097.2,-170887.8,-114272.6,20712.96,-375000,-375000,-143623.8,-124034.2,0.03,0.00,0.88,-4,0,-2,6,0
'[11:23:03.068 21/01/2026]',-99863.75,-167817.2,-112073.5,22858.81,-375000,-375000,-141607.2,-122235.8,0.03,0.00,0.88,-4,0,-2,6,0
'[11:23:03.072 21/01/2026]',-100150.5,-167476.7,-112453.5,22206.81,-375000,-375000,-141864.6,-122883,0.03,0.00,0.88,-4,0,-2,6,0
'[11:23:03.076 21/01/2026]',-102427.1,-170538.9,-114698.7,20002.84,-375000,-375000,-143903.2,-124728.7,0.03,0.00,0.88,-4,0,-2,6,0
'[11:23:03.080 21/01/2026]',-102414.2,-171234.7,-114599,20361.81,-375000,-375000,-143916.8,-124346.6,0.03,0.00,0.88,-4,0,-2,6,0
'[11:23:03.084 21/01/2026]',-100161.8,-168321.2,-112361.4,22581.79,-375000,-375000,-141894,-122458.3,0.03,0.00,0.88,-4,0,-2,6,0
'[11:23:03.088 21/01/2026]',-99833.93,-167177.3,-112125.5,22555.77,-375000,-375000,-141597,-122577.1,0.03,0.00,0.88,-4,0,-2,6,0
'[11:23:03.092 21/01/2026]',-102088.2,-170021.5,-114370.4,20297.3,-375000,-375000,-143601.9,-124490.4,0.03,0.00,0.88,-4,0,-2,6,0
'[11:23:03.096 21/01/2026]',-102685.3,-171482.1,-114878.2,20044.06,-375000,-375000,-144161.9,-124628.1,0.05,-0.02,0.88,-4,0,-2,6,0
'[11:23:03.100 21/01/2026]',-100530.3,-168850.6,-112716.5,22257.91,-375000,-375000,-142219.9,-122725.1,0.05,-0.02,0.88,-4,0,-2,6,0
'[11:23:03.104 21/01/2026]',-99619.71,-167021.9,-111892.3,22834.27,-375000,-375000,-141406.1,-122331.5,0.05,-0.02,0.88,-4,0,-2,6,0
'[11:23:03.108 21/01/2026]',-101694.1,-169477.5,-113996.3,20641.79,-375000,-375000,-143267.3,-124214,0.05,-0.02,0.88,-4,0,-2,6,0
'[11:23:03.112 21/01/2026]',-102892.2,-171653.9,-115093.8,19765.69,-375000,-375000,-144346.1,-124876.3,0.05,-0.02,0.88,-4,0,-2,6,0
'[11:23:03.116 21/01/2026]',-100912.2,-169394.5,-113090.8,21909.54,-375000,-375000,-142562,-123020.8,0.05,-0.02,0.88,-4,0,-2,6,0
'[11:23:03.120 21/01/2026]',-99489.66,-166959.2,-111758,23033.88,-375000,-375000,-141290.6,-122150.2,0.05,-0.02,0.88,-4,0,-2,6,0
'[11:23:03.124 21/01/2026]',-101295,-168903.2,-113612.2,21015.91,-375000,-375000,-142906.3,-123897.8,0.05,-0.02,0.88,-4,0,-2,6,0
'[11:23:03.128 21/01/2026]',-102954.3,-171609.5,-115185.8,19628.05,-375000,-375000,-144403,-125004.3,0.05,-0.02,0.88,-4,0,-2,6,0
'[11:23:03.132 21/01/2026]',-101295.3,-169935.4,-113478.8,21530.45,-375000,-375000,-142916.8,-123336,0.03,-0.02,0.88,-4,0,-2,6,0
'[11:23:03.136 21/01/2026]',-99487.52,-167098.4,-111736.6,23101.11,-375000,-375000,-141288.8,-122072.4,0.03,-0.02,0.88,-4,0,-2,6,0
'[11:23:03.140 21/01/2026]',-100902,-168399,-113213.2,21403.4,-375000,-375000,-142554.5,-123576.9,0.03,-0.02,0.88,-4,0,-2,6,0
'[11:23:03.144 21/01/2026]',-102885,-171390,-115123.7,19637.53,-375000,-375000,-144340.4,-125021.7,0.03,-0.02,0.88,-4,0,-2,6,0
'[11:23:03.148 21/01/2026]',-101701.6,-170446.6,-113877.1,21128.12,-375000,-375000,-143285.1,-123690.3,0.03,-0.02,0.88,-4,0,-2,6,0
'[11:23:03.152 21/01/2026]',-99596.6,-167320.5,-111840.6,23079.79,-375000,-375000,-141386.7,-122087,0.03,-0.02,0.88,-4,0,-2,6,0
'[11:23:03.156 21/01/2026]',-100469.6,-167809.7,-112797.4,21836.04,-375000,-375000,-142197.7,-123230.2,0.03,-0.02,0.88,-4,0,-2,6,0
'[11:23:03.160 21/01/2026]',-102683,-171009.7,-114949.8,19753.09,-375000,-375000,-144187.8,-124942.2,0.03,-0.02,0.88,-4,0,-2,6,0
'[11:23:03.164 21/01/2026]',-102108.4,-170948.8,-114265.5,20710.68,-375000,-375000,-143629.4,-124029.2,0.03,-0.02,0.88,-4,0,-2,6,0
'[11:23:03.168 21/01/2026]',-99850.7,-167792.7,-112056.6,22898.06,-375000,-375000,-141581.9,-122206.2,0.03,-0.02,0.88,-4,0,-2,6,0
'[11:23:03.172 21/01/2026]',-100133.7,-167431.4,-112443.9,22220.18,-375000,-375000,-141860.1,-122882.4,0.03,-0.02,0.88,-4,0,-2,6,0
'[11:23:03.176 21/01/2026]',-102445.3,-170609.4,-114710.8,19953.13,-375000,-375000,-143936.2,-124763.9,0.03,-0.02,0.88,-4,0,-2,6,0
'[11:23:03.180 21/01/2026]',-102452.7,-171338.8,-114621.5,20320.24,-375000,-375000,-143941.2,-124364.7,0.03,-0.02,0.88,-4,0,-2,6,0
'[11:23:03.184 21/01/2026]',-100179.9,-168339.3,-112370.4,22584.07,-375000,-375000,-141892.4,-122457.5,0.03,-0.02,0.88,-4,0,-2,6,0
'[11:23:03.188 21/01/2026]',-99887.13,-167258,-112161.8,22508.65,-375000,-375000,-141628.9,-122616.1,0.03,-0.02,0.88,-4,0,-2,6,0
'[11:23:03.192 21/01/2026]',-102115,-170086.2,-114390.7,20277.46,-375000,-375000,-143624,-124512.2,0.03,-0.02,0.88,-4,0,-2,6,0
'[11:23:03.196 21/01/2026]',-102698.1,-171502.3,-114889.7,20039.95,-375000,-375000,-144160.3,-124628.9,0.03,-0.02,0.88,-4,0,-2,6,0
'[11:23:03.200 21/01/2026]',-100523.8,-168850,-112707.1,22270.65,-375000,-375000,-142206.8,-122714.4,0.03,-0.02,0.88,-4,0,-2,6,0
'[11:23:03.204 21/01/2026]',-99634.24,-167018,-111907.5,22823.9,-375000,-375000,-141411.5,-122342.8,0.02,-0.02,0.88,-4,0,-2,6,0
'[11:23:03.208 21/01/2026]',-101733.9,-169527.9,-114024.2,20601.96,-375000,-375000,-143291.5,-124239.8,0.02,-0.02,0.88,-4,0,-2,6,0
'[11:23:03.212 21/01/2026]',-102904.7,-171706.6,-115105.3,19741.87,-375000,-375000,-144356.1,-124887.8,0.02,-0.02,0.88,-4,0,-2,6,0
'[11:23:03.216 21/01/2026]',-100919.1,-169424.3,-113096.2,21907.88,-375000,-375000,-142558.2,-123017.5,0.02,-0.02,0.88,-4,0,-2,6,0
'[11:23:03.220 21/01/2026]',-99486.98,-166927.6,-111757.9,23050.15,-375000,-375000,-141275.2,-122139.6,0.02,-0.02,0.88,-4,0,-2,6,0
'[11:23:03.224 21/01/2026]',-101341.4,-168950.4,-113644,20974.88,-375000,-375000,-142931.8,-123928,0.02,-0.02,0.88,-4,0,-2,6,0
'[11:23:03.228 21/01/2026]',-102979.3,-171641.2,-115180.2,19615.94,-375000,-375000,-144407.9,-125009.1,0.02,-0.02,0.88,-4,0,-2,6,0
'[11:23:03.232 21/01/2026]',-101317.2,-169956.4,-113481.5,21523.21,-375000,-375000,-142919.2,-123342.9,0.02,-0.02,0.88,-4,0,-2,6,0
'[11:23:03.236 21/01/2026]',-99515.87,-167131,-111764.4,23073.3,-375000,-375000,-141312.2,-122101.5,0.02,-0.02,0.88,-4,0,-2,6,0
'[11:23:03.240 21/01/2026]',-100960.5,-168487.1,-113262.5,21344.48,-375000,-375000,-142600.1,-123616.3,0.03,-0.02,0.88,-4,0,-2,6,0
'[11:23:03.244 21/01/2026]',-102894.1,-171408.9,-115128.4,19645.17,-375000,-375000,-144339.5,-125004.9,0.03,-0.02,0.88,-4,0,-2,6,0
'[11:23:03.248 21/01/2026]',-101696.9,-170415.5,-113874.9,21140.86,-375000,-375000,-143269.5,-123672.9,0.03,-0.02,0.88,-4,0,-2,6,0
'[11:23:03.252 21/01/2026]',-99627.58,-167404.8,-111861.4,23018.5,-375000,-375000,-141421.5,-122128.5,0.03,-0.02,0.88,-4,0,-2,6,0
'[11:23:03.256 21/01/2026]',-100542.5,-167923.2,-112855.7,21776.54,-375000,-375000,-142232.5,-123258.3,0.03,-0.02,0.88,-4,0,-2,6,0
'[11:23:03.260 21/01/2026]',-102720.2,-171081.9,-114975,19726.35,-375000,-375000,-144204,-124955.2,0.03,-0.02,0.88,-4,0,-2,6,0
'[11:23:03.264 21/01/2026]',-102113.4,-170969.3,-114275.5,20695.52,-375000,-375000,-143653.6,-124051.6,0.03,-0.02,0.88,-4,0,-2,6,0
'[11:23:03.268 21/01/2026]',-99842.6,-167807.5,-112062.3,22870.62,-375000,-375000,-141616,-122243,0.03,-0.02,0.88,-4,0,-2,6,0
'[11:23:03.272 21/01/2026]',-100166.5,-167503.1,-112476.9,22177.71,-375000,-375000,-141900.7,-122919.3,0.03,-0.02,0.88,-4,0,-2,6,0
'[11:23:03.276 21/01/2026]',-102447.5,-170601.2,-114711.6,19968.2,-375000,-375000,-143945.9,-124774.1,0.03,-0.02,0.88,-4,0,-2,6,0
'[11:23:03.280 21/01/2026]',-102412.4,-171249.5,-114589.3,20365.39,-375000,-375000,-143925.2,-124357.2,0.03,-0.02,0.88,-4,0,-2,6,0
'[11:23:03.284 21/01/2026]',-100156.4,-168298.2,-112354.1,22597.43,-375000,-375000,-141887.1,-122460.1,0.03,-0.02,0.88,-4,0,-2,6,0
'[11:23:03.288 21/01/2026]',-99868.71,-167205.7,-112166,22521.53,-375000,-375000,-141629.8,-122621.9,0.03,-0.02,0.88,-4,0,-2,6,0
'[11:23:03.292 21/01/2026]',-102124.7,-170101.2,-114404.2,20241.83,-375000,-375000,-143647,-124541.5,0.03,-0.02,0.88,-4,0,-2,6,0
'[11:23:03.296 21/01/2026]',-102716.5,-171582.9,-114893.2,20003.74,-375000,-375000,-144185.3,-124653.7,0.03,-0.02,0.88,-4,0,-2,6,0
'[11:23:03.300 21/01/2026]',-100506.5,-168841.1,-112696.6,22286.52,-375000,-375000,-142202.1,-122712.2,0.03,-0.02,0.88,-4,0,-2,6,0
'[11:23:03.304 21/01/2026]',-99632,-167006.2,-111924.3,22821.09,-375000,-375000,-141417,-122350.3,0.03,-0.02,0.88,-4,0,-2,6,0
'[11:23:03.308 21/01/2026]',-101753,-169561.3,-114058.4,20583.45,-375000,-375000,-143308.5,-124254.1,0.03,-0.02,0.88,-4,0,-2,6,0
'[11:23:03.312 21/01/2026]',-102896,-171691.8,-115092.1,19764.17,-375000,-375000,-144344.8,-124870.1,0.03,-0.02,0.88,-4,0,-2,6,0
'[11:23:03.316 21/01/2026]',-100894.8,-169374.2,-113069.6,21934.84,-375000,-375000,-142539.5,-123003.1,0.03,-0.02,0.88,-4,0,-2,6,0
'[11:23:03.320 21/01/2026]',-99504.38,-166984,-111765.2,23010.36,-375000,-375000,-141306.1,-122177.8,0.03,-0.02,0.88,-4,0,-2,6,0
'[11:23:03.324 21/01/2026]',-101351.8,-169000.7,-113648.8,20965.18,-375000,-375000,-142948.7,-123935.9,0.03,-0.02,0.88,-4,0,-2,6,0
'[11:23:03.328 21/01/2026]',-102937.7,-171587,-115154.5,19665.73,-375000,-375000,-144376.2,-124968.7,0.03,-0.02,0.88,-4,0,-2,6,0
'[11:23:03.332 21/01/2026]',-101277,-169893.6,-113455.3,21543.01,-375000,-375000,-142888.8,-123316.8,0.03,-0.02,0.88,-4,0,-2,6,0
'[11:23:03.336 21/01/2026]',-99518.73,-167151.5,-111767.6,23048.45,-375000,-375000,-141317.2,-122107.2,0.03,-0.02,0.88,-4,0,-2,6,0
'[11:23:03.340 21/01/2026]',-100952.9,-168479.8,-113262,21349.4,-375000,-375000,-142598.3,-123614.7,0.03,-0.02,0.88,-4,0,-2,6,0
'[11:23:03.344 21/01/2026]',-102881.5,-171404.4,-115112.1,19651.47,-375000,-375000,-144331.5,-125003.1,0.03,-0.02,0.88,-4,0,-2,6,0
'[11:23:03.348 21/01/2026]',-101662.2,-170400.6,-113834.7,21163.08,-375000,-375000,-143241.3,-123654.5,0.03,-0.02,0.86,-4,0,-2,6,0
'[11:23:03.352 21/01/2026]',-99636.83,-167422.3,-111852.2,23011.97,-375000,-375000,-141412.7,-122133.9,0.03,-0.02,0.86,-4,0,-2,6,0
'[11:23:03.356 21/01/2026]',-100572.6,-168006.8,-112860.6,21753.88,-375000,-375000,-142242.6,-123278,0.03,-0.02,0.86,-4,0,-2,6,0
'[11:23:03.360 21/01/2026]',-102726.7,-171084.7,-114963.6,19755.54,-375000,-375000,-144180.7,-124933.1,0.03,-0.02,0.86,-4,0,-2,6,0
'[11:23:03.364 21/01/2026]',-102048,-170856.9,-114217.9,20771.43,-375000,-375000,-143578.8,-123990.4,0.03,-0.02,0.86,-4,0,-2,6,0
'[11:23:03.368 21/01/2026]',-99813.55,-167747,-112036.6,22902.27,-375000,-375000,-141567.6,-122209.2,0.03,-0.02,0.86,-4,0,-2,6,0
'[11:23:03.372 21/01/2026]',-100161.8,-167474.6,-112475.3,22178.56,-375000,-375000,-141886.5,-122916.1,0.03,-0.02,0.86,-4,0,-2,6,0
'[11:23:03.376 21/01/2026]',-102474.3,-170646.4,-114732.4,19934.27,-375000,-375000,-143952.7,-124781.6,0.03,-0.02,0.86,-4,0,-2,6,0
'[11:23:03.380 21/01/2026]',-102426,-171309,-114585.9,20352.07,-375000,-375000,-143915.5,-124344.3,0.03,-0.02,0.86,-4,0,-2,6,0
'[11:23:03.384 21/01/2026]',-100117.2,-168250.7,-112319,22651.66,-375000,-375000,-141842.9,-122413.9,0.03,0.00,0.86,-4,0,-2,6,0
'[11:23:03.388 21/01/2026]',-99834.55,-167152,-112146.4,22553.85,-375000,-375000,-141602.8,-122599.4,0.03,0.00,0.86,-4,0,-2,6,0
'[11:23:03.392 21/01/2026]',-102120.8,-170107.7,-114408.2,20244.82,-375000,-375000,-143641.3,-124535.7,0.03,0.00,0.86,-4,0,-2,6,0
'[11:23:03.396 21/01/2026]',-102703.2,-171569.8,-114873.4,20023.14,-375000,-375000,-144167.9,-124634.3,0.03,0.00,0.86,-4,0,-2,6,0
'[11:23:03.400 21/01/2026]',-100488.5,-168801.4,-112664.1,22322.37,-375000,-375000,-142172,-122684,0.03,0.00,0.86,-4,0,-2,6,0
'[11:23:03.404 21/01/2026]',-99627.98,-166943,-111917.7,22845.99,-375000,-375000,-141395.1,-122333.6,0.03,0.00,0.86,-4,0,-2,6,0
'[11:23:03.408 21/01/2026]',-101751.4,-169542.3,-114044,20584.57,-375000,-375000,-143307.1,-124253.1,0.03,0.00,0.86,-4,0,-2,6,0
'[11:23:03.412 21/01/2026]',-102879.8,-171689.5,-115066.8,19776.11,-375000,-375000,-144334.7,-124858.4,0.03,0.00,0.86,-4,0,-2,6,0
'[11:23:03.416 21/01/2026]',-100861.7,-169365.4,-113041.4,21957.82,-375000,-375000,-142519.5,-122983.2,0.03,0.00,0.86,-4,0,-2,6,0
'[11:23:03.420 21/01/2026]',-99470.71,-166915.1,-111752.5,23055.06,-375000,-375000,-141274.8,-122145.6,0.03,-0.02,0.88,-4,0,-2,6,0
'[11:23:03.424 21/01/2026]',-101356.4,-168990,-113658.9,20956.86,-375000,-375000,-142956.7,-123950.9,0.03,-0.02,0.88,-4,0,-2,6,0
'[11:23:03.428 21/01/2026]',-102964.7,-171661.3,-115168.7,19629.79,-375000,-375000,-144411,-125006.8,0.03,-0.02,0.88,-4,0,-2,6,0
'[11:23:03.432 21/01/2026]',-101265.6,-169913.1,-113436,21568.45,-375000,-375000,-142887.6,-123310.9,0.03,-0.02,0.88,-4,0,-2,6,0
'[11:23:03.436 21/01/2026]',-99465.13,-167041.8,-111728.3,23127.97,-375000,-375000,-141270.8,-122063.8,0.03,-0.02,0.88,-4,0,-2,6,0
'[11:23:03.440 21/01/2026]',-100939.8,-168435.7,-113259.8,21355.71,-375000,-375000,-142589.8,-123616.3,0.03,-0.02,0.88,-4,0,-2,6,0
'[11:23:03.444 21/01/2026]',-102891.1,-171445.9,-115118.5,19621.75,-375000,-375000,-144352.2,-125027.2,0.03,-0.02,0.88,-4,0,-2,6,0
'[11:23:03.448 21/01/2026]',-101663.6,-170435.5,-113830.4,21153.64,-375000,-375000,-143258,-123664.3,0.03,-0.02,0.88,-4,0,-2,6,0
'[11:23:03.452 21/01/2026]',-99572.68,-167315.1,-111815.2,23080.9,-375000,-375000,-141376.1,-122088.5,0.03,-0.02,0.88,-4,0,-2,6,0
'[11:23:03.456 21/01/2026]',-100555.8,-167914.5,-112863.9,21769.08,-375000,-375000,-142225.5,-123261.1,0.03,-0.02,0.86,-4,0,-2,6,0
'[11:23:03.460 21/01/2026]',-102749.2,-171101.5,-114982.3,19727.2,-375000,-375000,-144194.6,-124944,0.03,-0.02,0.86,-4,0,-2,6,0
'[11:23:03.464 21/01/2026]',-102065.4,-170890.7,-114220.8,20761.37,-375000,-375000,-143582.4,-123989,0.03,-0.02,0.86,-4,0,-2,6,0
'[11:23:03.468 21/01/2026]',-99783.91,-167717.2,-112001.9,22932.13,-375000,-375000,-141550.5,-122193.2,0.03,-0.02,0.86,-4,0,-2,6,0
'[11:23:03.472 21/01/2026]',-100166.5,-167461.9,-112479.4,22175.88,-375000,-375000,-141893.4,-122923.7,0.03,-0.02,0.86,-4,0,-2,6,0
'[11:23:03.476 21/01/2026]',-102473,-170636.3,-114733.6,19938.29,-375000,-375000,-143956.5,-124780.9,0.03,-0.02,0.86,-4,0,-2,6,0
'[11:23:03.480 21/01/2026]',-102400.5,-171253.8,-114571.7,20387.29,-375000,-375000,-143885.1,-124308.6,0.03,-0.02,0.86,-4,0,-2,6,0
'[11:23:03.484 21/01/2026]',-100081.7,-168196.1,-112284.9,22677.9,-375000,-375000,-141814.3,-122389.2,0.03,-0.02,0.86,-4,0,-2,6,0
'[11:23:03.488 21/01/2026]',-99851.68,-167149.6,-112153,22533.29,-375000,-375000,-141610.1,-122609,0.03,-0.02,0.86,-4,0,-2,6,0
'[11:23:03.492 21/01/2026]',-102134.7,-170120.8,-114407.4,20234.99,-375000,-375000,-143650.7,-124541.6,0.03,0.00,0.88,-4,0,-2,6,0
'[11:23:03.496 21/01/2026]',-102657,-171515.8,-114836.6,20065.88,-375000,-375000,-144133.7,-124599.5,0.03,0.00,0.88,-4,0,-2,6,0
'[11:23:03.500 21/01/2026]',-100428.9,-168746,-112636.3,22349.55,-375000,-375000,-142137.5,-122655.1,0.03,0.00,0.88,-4,0,-2,6,0
'[11:23:03.504 21/01/2026]',-99612.96,-166954.4,-111907.6,22830.52,-375000,-375000,-141395.7,-122343.3,0.03,0.00,0.88,-4,0,-2,6,0
'[11:23:03.508 21/01/2026]',-101764.2,-169561.7,-114045.9,20576.52,-375000,-375000,-143309.9,-124254.6,0.03,0.00,0.88,-4,0,-2,6,0
'[11:23:03.512 21/01/2026]',-102868,-171660.7,-115050.5,19800.43,-375000,-375000,-144312.3,-124836,0.03,0.00,0.88,-4,0,-2,6,0
'[11:23:03.516 21/01/2026]',-100841.1,-169308.2,-113012.8,21985.8,-375000,-375000,-142490.8,-122958.4,0.03,0.00,0.88,-4,0,-2,6,0
'[11:23:03.520 21/01/2026]',-99468.66,-166878.7,-111741.6,23057.52,-375000,-375000,-141269.1,-122143.3,0.03,0.00,0.88,-4,0,-2,6,0
'[11:23:03.524 21/01/2026]',-101358.8,-168969.7,-113659.8,20951.59,-375000,-375000,-142959.7,-123951.3,0.03,0.00,0.88,-4,0,-2,6,0
'[11:23:03.528 21/01/2026]',-102950.5,-171630.8,-115153.8,19637.71,-375000,-375000,-144394.5,-124987.2,0.03,-0.02,0.88,-4,0,-2,6,0
'[11:23:03.532 21/01/2026]',-101256.1,-169878.1,-113427.8,21574.89,-375000,-375000,-142872.7,-123300.6,0.03,-0.02,0.88,-4,0,-2,6,0
'[11:23:03.536 21/01/2026]',-99486.67,-167039.1,-111752.9,23110.67,-375000,-375000,-141281,-122078,0.03,-0.02,0.88,-4,0,-2,6,0
'[11:23:03.540 21/01/2026]',-100957.3,-168449.9,-113276.2,21338.09,-375000,-375000,-142609.7,-123635.1,0.03,-0.02,0.88,-4,0,-2,6,0
'[11:23:03.544 21/01/2026]',-102893.4,-171442.6,-115117.9,19620.85,-375000,-375000,-144359.5,-125029.9,0.03,-0.02,0.88,-4,0,-2,6,0
'[11:23:03.548 21/01/2026]',-101642.9,-170408.2,-113809.8,21172.69,-375000,-375000,-143237.8,-123643.5,0.03,-0.02,0.88,-4,0,-2,6,0
'[11:23:03.552 21/01/2026]',-99571.92,-167296.6,-111811.6,23082.42,-375000,-375000,-141368.8,-122083.2,0.03,-0.02,0.88,-4,0,-2,6,0
'[11:23:03.556 21/01/2026]',-100550.6,-167911.7,-112877.6,21754.33,-375000,-375000,-142244.8,-123280,0.03,-0.02,0.88,-4,0,-2,6,0
'[11:23:03.560 21/01/2026]',-102734.1,-171100.4,-114990.6,19716.16,-375000,-375000,-144208.5,-124954.2,0.03,-0.02,0.88,-4,0,-2,6,0
'[11:23:03.564 21/01/2026]',-102034.6,-170869.8,-114199.4,20768.39,-375000,-375000,-143581.8,-123985,0.03,-0.02,0.88,-4,0,-2,6,0
'[11:23:03.568 21/01/2026]',-99783.05,-167697.6,-112004.7,22924.13,-375000,-375000,-141555.9,-122197.2,0.03,-0.02,0.88,-4,0,-2,6,0
'[11:23:03.572 21/01/2026]',-100182.8,-167490.6,-112499.9,22148.83,-375000,-375000,-141916.9,-122944.3,0.03,-0.02,0.88,-4,0,-2,6,0
'[11:23:03.576 21/01/2026]',-102478.8,-170659.3,-114741.6,19922.73,-375000,-375000,-143976.2,-124796.5,0.03,-0.02,0.88,-4,0,-2,6,0
'[11:23:03.580 21/01/2026]',-102394.8,-171260.5,-114562.8,20373.57,-375000,-375000,-143900.9,-124323.2,0.03,-0.02,0.88,-4,0,-2,6,0
'[11:23:03.584 21/01/2026]',-100091.7,-168188.8,-112303.1,22660.24,-375000,-375000,-141829.5,-122399.1,0.03,-0.02,0.88,-4,0,-2,6,0
'[11:23:03.588 21/01/2026]',-99863.48,-167140.2,-112179.2,22511.25,-375000,-375000,-141630.8,-122621.4,0.03,-0.02,0.88,-4,0,-2,6,0
'[11:23:03.592 21/01/2026]',-102164.5,-170146.7,-114452.1,20187.69,-375000,-375000,-143693.1,-124574.9,0.03,-0.02,0.88,-4,0,-2,6,0
'[11:23:03.596 21/01/2026]',-102672.9,-171540.3,-114862.2,20034.49,-375000,-375000,-144162.1,-124618.3,0.03,-0.02,0.88,-4,0,-2,6,0
'[11:23:03.600 21/01/2026]',-100431.1,-168728,-112631.3,22346.47,-375000,-375000,-142144.5,-122653.6,0.03,0.00,0.88,-4,0,-2,6,0
'[11:23:03.604 21/01/2026]',-99609.92,-166930.2,-111917.2,22822.47,-375000,-375000,-141414.3,-122353.8,0.03,0.00,0.88,-4,0,-2,6,0
'[11:23:03.608 21/01/2026]',-101760.8,-169569.2,-114074.2,20549.79,-375000,-375000,-143344,-124283.1,0.03,0.00,0.88,-4,0,-2,6,0
'[11:23:03.612 21/01/2026]',-102844.4,-171656,-115052.7,19794.39,-375000,-375000,-144324.1,-124838.1,0.03,0.00,0.88,-4,0,-2,6,0
'[11:23:03.616 21/01/2026]',-100815.7,-169274.3,-113002.9,21993.8,-375000,-375000,-142483.2,-122944.1,0.03,0.00,0.88,-4,0,-2,6,0
'[11:23:03.620 21/01/2026]',-99477.06,-166882.1,-111756.1,23036.96,-375000,-375000,-141278.4,-122151.5,0.03,0.00,0.88,-4,0,-2,6,0
'[11:23:03.624 21/01/2026]',-101369.7,-169007,-113670.3,20932.1,-375000,-375000,-142975.4,-123961.8,0.03,0.00,0.88,-4,0,-2,6,0
'[11:23:03.628 21/01/2026]',-102940.5,-171643.1,-115152.3,19642.31,-375000,-375000,-144393.1,-124981.8,0.03,0.00,0.88,-4,0,-2,6,0
'[11:23:03.632 21/01/2026]',-101229.4,-169840.8,-113408.5,21594.15,-375000,-375000,-142847.2,-123275.5,0.03,0.00,0.88,-4,0,-2,6,0
'[11:23:03.636 21/01/2026]',-99471.07,-167001.6,-111732.2,23120.82,-375000,-375000,-141261.9,-122060,0.03,-0.02,0.89,-4,0,-2,6,0
'[11:23:03.640 21/01/2026]',-100974.9,-168461.8,-113289.5,21319.76,-375000,-375000,-142618.9,-123645.1,0.03,-0.02,0.89,-4,0,-2,6,0
'[11:23:03.644 21/01/2026]',-102910.7,-171450.4,-115139.3,19610.57,-375000,-375000,-144362.6,-125030.8,0.03,-0.02,0.89,-4,0,-2,6,0
'[11:23:03.648 21/01/2026]',-101632,-170372.5,-113802,21188.29,-375000,-375000,-143216.7,-123624.2,0.03,-0.02,0.89,-4,0,-2,6,0
'[11:23:03.652 21/01/2026]',-99562.31,-167285.1,-111808.6,23081.97,-375000,-375000,-141359.3,-122076.9,0.03,-0.02,0.89,-4,0,-2,6,0
'[11:23:03.656 21/01/2026]',-100576.8,-167951.8,-112894,21729.61,-375000,-375000,-142261,-123295.4,0.03,-0.02,0.89,-4,0,-2,6,0
'[11:23:03.660 21/01/2026]',-102747.2,-171119.8,-114994.7,19711.82,-375000,-375000,-144215.9,-124958.7,0.03,-0.02,0.89,-4,0,-2,6,0
'[11:23:03.664 21/01/2026]',-102021.9,-170840.1,-114194.7,20783.5,-375000,-375000,-143568.6,-123971.6,0.03,-0.02,0.89,-4,0,-2,6,0
'[11:23:03.668 21/01/2026]',-99762.72,-167676.3,-111996,22935.84,-375000,-375000,-141547.6,-122193.4,0.03,-0.02,0.89,-4,0,-2,6,0
'[11:23:03.672 21/01/2026]',-100182.4,-167491.2,-112504.3,22148.52,-375000,-375000,-141920.7,-122954.1,0.03,0.00,0.88,-4,0,-2,6,0
'[11:23:03.676 21/01/2026]',-102492.3,-170676.5,-114761,19912.59,-375000,-375000,-143991.7,-124816.4,0.03,0.00,0.88,-4,0,-2,6,0
'[11:23:03.680 21/01/2026]',-102360.5,-171237.7,-114540.7,20406.16,-375000,-375000,-143884.2,-124313,0.03,0.00,0.88,-4,0,-2,6,0
'[11:23:03.684 21/01/2026]',-100053.7,-168163.1,-112278.6,22691.18,-375000,-375000,-141812.9,-122392.8,0.03,0.00,0.88,-4,0,-2,6,0
'[11:23:03.688 21/01/2026]',-99841.71,-167119.2,-112162.4,22528.5,-375000,-375000,-141635,-122635.3,0.03,0.00,0.88,-4,0,-2,6,0
'[11:23:03.692 21/01/2026]',-102136.2,-170115.9,-114431.8,20213.4,-375000,-375000,-143693.8,-124577.8,0.03,0.00,0.88,-4,0,-2,6,0
'[11:23:03.696 21/01/2026]',-102648,-171521.5,-114836,20067.62,-375000,-375000,-144148.7,-124610.8,0.03,0.00,0.88,-4,0,-2,6,0
