'Time and date','Fp1','Fp2','F3','Fz','F4','P3','Pz','P4','AccX','AccY','AccZ','GyroX','GyroY','GyroZ','Battery','Event'
'[hh:mm:ss.mmm dd/mm/yyyy]','uV','uV','uV','uV','uV','uV','uV','uV','G','G','G','Deg/s','Deg/s','Deg/s','%','Button'
'[12:42:00.000 21/01/2026]',-106199.3,-165762.7,-83763.79,15935.5,-375000,-375000,-139678.9,-119827.6,0.03,-0.02,0.88,-4,0,-2,35,0
'[12:42:00.004 21/01/2026]',-106196.6,-165769.6,-83771.61,15956.37,-375000,-375000,-139664,-119820.1,0.03,-0.02,0.88,-4,0,-2,35,0
'[12:42:00.008 21/01/2026]',-106203.4,-165772.3,-83767.8,15943.19,-375000,-375000,-139679.9,-119833.2,0.03,-0.02,0.88,-4,0,-2,35,0
'[12:42:00.012 21/01/2026]',-106214,-165765.3,-83757.57,15928.34,-375000,-375000,-139693.8,-119838.7,0.03,-0.02,0.88,-4,0,-2,35,0
'[12:42:00.016 21/01/2026]',-106219.9,-165759.5,-83756.72,15939.48,-375000,-375000,-139678.5,-119821.6,0.03,-0.02,0.88,-4,0,-2,35,0
'[12:42:00.020 21/01/2026]',-106223.5,-165769.3,-83772.15,15953.87,-375000,-375000,-139672.7,-119828.7,0.03,-0.02,0.88,-4,0,-2,35,0
'[12:42:00.024 21/01/2026]',-106199.5,-165749.3,-83760.74,15943.41,-375000,-375000,-139678.2,-119831.1,0.03,-0.02,0.88,-4,0,-2,35,0
'[12:42:00.028 21/01/2026]',-106189.1,-165745.4,-83759.94,15931.34,-375000,-375000,-139690.4,-119836.7,0.03,-0.02,0.88,-4,0,-2,35,0
'[12:42:00.032 21/01/2026]',-106218.2,-165784.3,-83772.86,15924.9,-375000,-375000,-139681.7,-119826.9,0.03,-0.02,0.88,-4,0,-2,35,0
'[12:42:00.036 21/01/2026]',-106232.4,-165792.7,-83780.91,15931.16,-375000,-375000,-139673,-119821.4,0.05,0.00,0.88,-4,0,-2,35,0
'[12:42:00.040 21/01/2026]',-106249.8,-165808.2,-83791.73,15930.36,-375000,-375000,-139675.9,-119827.7,0.05,0.00,0.88,-4,0,-2,35,0
'[12:42:00.044 21/01/2026]',-106248,-165808.6,-83789.94,15906.26,-375000,-375000,-139699.3,-119841.6,0.05,0.00,0.88,-4,0,-2,35,0
'[12:42:00.048 21/01/2026]',-106249.5,-165807.8,-83792.09,15903.22,-375000,-375000,-139701.3,-119844.1,0.05,0.00,0.88,-4,0,-2,35,0
'[12:42:00.052 21/01/2026]',-106250.4,-165812.9,-83794.32,15917.88,-375000,-375000,-139683.1,-119835.6,0.05,0.00,0.88,-4,0,-2,35,0
'[12:42:00.056 21/01/2026]',-106255,-165804.8,-83793.29,15934.25,-375000,-375000,-139672.7,-119829.5,0.05,0.00,0.88,-4,0,-2,35,0
'[12:42:00.060 21/01/2026]',-106251.3,-165803,-83789.13,15908.27,-375000,-375000,-139697,-119839.7,0.05,0.00,0.88,-4,0,-2,35,0
'[12:42:00.064 21/01/2026]',-106240.1,-165797.8,-83782.47,15913.5,-375000,-375000,-139695.5,-119837.5,0.05,0.00,0.88,-4,0,-2,35,0
'[12:42:00.068 21/01/2026]',-106242.4,-165801.1,-83791.37,15913.77,-375000,-375000,-139693.4,-119846.3,0.05,0.00,0.88,-4,0,-2,35,0
'[12:42:00.072 21/01/2026]',-106244.1,-165799.3,-83790.25,15936.97,-375000,-375000,-139679.5,-119831.7,0.03,0.00,0.88,-4,0,-2,35,0
'[12:42:00.076 21/01/2026]',-106248.8,-165806.7,-83787.97,15913.46,-375000,-375000,-139703.4,-119851.9,0.03,0.00,0.88,-4,0,-2,35,0
'[12:42:00.080 21/01/2026]',-106238.6,-165800.4,-83785.69,15907.51,-375000,-375000,-139706.5,-119849.5,0.03,0.00,0.88,-4,0,-2,35,0
'[12:42:00.084 21/01/2026]',-106245,-165795,-83792.58,15921.24,-375000,-375000,-139693.3,-119842.3,0.03,0.00,0.88,-4,0,-2,35,0
'[12:42:00.088 21/01/2026]',-106247.1,-165793.7,-83788.15,15941.44,-375000,-375000,-139676.1,-119833.8,0.03,0.00,0.88,-4,0,-2,35,0
'[12:42:00.092 21/01/2026]',-106231.7,-165798.6,-83788.06,15925.89,-375000,-375000,-139691.6,-119841.7,0.03,0.00,0.88,-4,0,-2,35,0
'[12:42:00.096 21/01/2026]',-106222.4,-165790.7,-83779.3,15913.19,-375000,-375000,-139698.4,-119843.8,0.03,0.00,0.88,-4,0,-2,35,0
'[12:42:00.100 21/01/2026]',-106241.7,-165792.1,-83783.01,15924.05,-375000,-375000,-139687.7,-119838.8,0.03,0.00,0.88,-4,0,-2,35,0
'[12:42:00.104 21/01/2026]',-106253.7,-165792.4,-83790.38,15939.48,-375000,-375000,-139674.8,-119830,0.03,0.00,0.88,-4,0,-2,35,0
'[12:42:00.108 21/01/2026]',-106246.6,-165791.2,-83783.41,15935.41,-375000,-375000,-139680.7,-119831.5,0.02,0.00,0.88,-4,0,-2,35,0
'[12:42:00.112 21/01/2026]',-106227.6,-165785.7,-83773.71,15927.05,-375000,-375000,-139689.3,-119830.9,0.02,0.00,0.88,-4,0,-2,35,0
'[12:42:00.116 21/01/2026]',-106231.6,-165788.9,-83778.59,15927.36,-375000,-375000,-139687.7,-119834.7,0.02,0.00,0.88,-4,0,-2,35,0
'[12:42:00.120 21/01/2026]',-106235.1,-165787.8,-83780.64,15943.28,-375000,-375000,-139673.8,-119827.6,0.02,0.00,0.88,-4,0,-2,35,0
'[12:42:00.124 21/01/2026]',-106230.8,-165787,-83778.18,15940.95,-375000,-375000,-139679.5,-119829.1,0.02,0.00,0.88,-4,0,-2,35,0
'[12:42:00.128 21/01/2026]',-106223.2,-165780.6,-83775.09,15926.2,-375000,-375000,-139691.6,-119832.7,0.02,0.00,0.88,-4,0,-2,35,0
'[12:42:00.132 21/01/2026]',-106219.4,-165780.5,-83773.58,15927.27,-375000,-375000,-139684.6,-119827.3,0.02,0.00,0.88,-4,0,-2,35,0
'[12:42:00.136 21/01/2026]',-106228.4,-165782.5,-83778.31,15942.29,-375000,-375000,-139673.4,-119824.2,0.02,0.00,0.88,-4,0,-2,35,0
'[12:42:00.140 21/01/2026]',-106225.1,-165787,-83780.1,15945.47,-375000,-375000,-139676,-119830.5,0.02,0.00,0.88,-4,0,-2,35,0
'[12:42:00.144 21/01/2026]',-106219.3,-165778.5,-83767.49,15932.37,-375000,-375000,-139685.9,-119831,0.03,0.00,0.88,-4,0,-2,35,0
'[12:42:00.148 21/01/2026]',-106224.8,-165773.5,-83760.7,15935.72,-375000,-375000,-139680.6,-119826.2,0.03,0.00,0.88,-4,0,-2,35,0
'[12:42:00.152 21/01/2026]',-106233.4,-165782.7,-83775.09,15937.73,-375000,-375000,-139679.7,-119834.2,0.03,0.00,0.88,-4,0,-2,35,0
'[12:42:00.156 21/01/2026]',-106225.9,-165784.2,-83777.29,15945.15,-375000,-375000,-139676.1,-119836.5,0.03,0.00,0.88,-4,0,-2,35,0
'[12:42:00.160 21/01/2026]',-106226.1,-165786,-83769.06,15931.92,-375000,-375000,-139687.4,-119844,0.03,0.00,0.88,-4,0,-2,35,0
'[12:42:00.164 21/01/2026]',-106230.8,-165786.3,-83766.47,15927.23,-375000,-375000,-139687.4,-119839.8,0.03,0.00,0.88,-4,0,-2,35,0
'[12:42:00.168 21/01/2026]',-106236.9,-165787.8,-83767.09,15933.93,-375000,-375000,-139678.2,-119836.3,0.03,0.00,0.88,-4,0,-2,35,0
'[12:42:00.172 21/01/2026]',-106229.2,-165789.8,-83780.64,15944.57,-375000,-375000,-139672,-119833.1,0.03,0.00,0.88,-4,0,-2,35,0
'[12:42:00.176 21/01/2026]',-106223.4,-165793,-83781.76,15925.89,-375000,-375000,-139688.7,-119838,0.03,0.00,0.88,-4,0,-2,35,0
'[12:42:00.180 21/01/2026]',-106228.8,-165789.9,-83766.6,15924.19,-375000,-375000,-139691.3,-119838.3,0.02,0.00,0.86,-4,0,-2,35,0
'[12:42:00.184 21/01/2026]',-106230.6,-165786.5,-83771.2,15931.61,-375000,-375000,-139683.2,-119831.2,0.02,0.00,0.86,-4,0,-2,35,0
'[12:42:00.188 21/01/2026]',-106240.7,-165788.6,-83778.54,15941.4,-375000,-375000,-139679,-119831.9,0.02,0.00,0.86,-4,0,-2,35,0
'[12:42:00.192 21/01/2026]',-106234.1,-165783.6,-83775.23,15932.28,-375000,-375000,-139687.5,-119834.4,0.02,0.00,0.86,-4,0,-2,35,0
'[12:42:00.196 21/01/2026]',-106227.4,-165779.9,-83768.13,15923.52,-375000,-375000,-139688.4,-119830.1,0.02,0.00,0.86,-4,0,-2,35,0
'[12:42:00.200 21/01/2026]',-106235.4,-165780.4,-83763.96,15925.8,-375000,-375000,-139681.5,-119823.4,0.02,0.00,0.86,-4,0,-2,35,0
'[12:42:00.204 21/01/2026]',-106244.4,-165784.8,-83773.8,15932.64,-375000,-375000,-139675.7,-119823.1,0.02,0.00,0.86,-4,0,-2,35,0
'[12:42:00.208 21/01/2026]',-106234.1,-165783.8,-83785.16,15932.68,-375000,-375000,-139679.6,-119822,0.02,0.00,0.86,-4,0,-2,35,0
'[12:42:00.212 21/01/2026]',-106221.7,-165777.4,-83777.2,15925.08,-375000,-375000,-139683.5,-119821.5,0.02,0.00,0.86,-4,0,-2,35,0
'[12:42:00.216 21/01/2026]',-106245.8,-165777.2,-83770.4,15924.5,-375000,-375000,-139685.3,-119829,0.03,0.00,0.88,-4,0,-2,35,0
'[12:42:00.220 21/01/2026]',-106257.3,-165786.2,-83774.16,15937.78,-375000,-375000,-139680.9,-119836.1,0.03,0.00,0.88,-4,0,-2,35,0
'[12:42:00.224 21/01/2026]',-106249.9,-165792.5,-83775.5,15932.28,-375000,-375000,-139687,-119839.9,0.03,0.00,0.88,-4,0,-2,35,0
'[12:42:00.228 21/01/2026]',-106234.4,-165784.8,-83762.49,15928.21,-375000,-375000,-139688.2,-119838.1,0.03,0.00,0.88,-4,0,-2,35,0
'[12:42:00.232 21/01/2026]',-106226.3,-165784,-83765.35,15930.04,-375000,-375000,-139683.6,-119833.2,0.03,0.00,0.88,-4,0,-2,35,0
'[12:42:00.236 21/01/2026]',-106238.6,-165790,-83774.34,15938.09,-375000,-375000,-139679.3,-119837,0.03,0.00,0.88,-4,0,-2,35,0
'[12:42:00.240 21/01/2026]',-106236.6,-165789,-83772.81,15944.57,-375000,-375000,-139676,-119832.7,0.03,0.00,0.88,-4,0,-2,35,0
'[12:42:00.244 21/01/2026]',-106221.1,-165779.2,-83760.21,15942.11,-375000,-375000,-139676.9,-119826.7,0.03,0.00,0.88,-4,0,-2,35,0
'[12:42:00.248 21/01/2026]',-106220.1,-165777,-83757.75,15938.72,-375000,-375000,-139677.7,-119828.1,0.03,0.00,0.88,-4,0,-2,35,0
'[12:42:00.252 21/01/2026]',-106227.5,-165777.7,-83766.91,15939.52,-375000,-375000,-139671.9,-119828.5,0.02,0.00,0.88,-4,0,-2,35,0
'[12:42:00.256 21/01/2026]',-106234.8,-165786.3,-83769.95,15951.68,-375000,-375000,-139669,-119826.6,0.02,0.00,0.88,-4,0,-2,35,0
'[12:42:00.260 21/01/2026]',-106227.1,-165780.1,-83762,15944.88,-375000,-375000,-139680.2,-119829.7,0.02,0.00,0.88,-4,0,-2,35,0
'[12:42:00.264 21/01/2026]',-106224.1,-165774.8,-83762.09,15938.85,-375000,-375000,-139678.3,-119823.9,0.02,0.00,0.88,-4,0,-2,35,0
'[12:42:00.268 21/01/2026]',-106236.1,-165778,-83770.09,15942.96,-375000,-375000,-139671,-119823.3,0.02,0.00,0.88,-4,0,-2,35,0
'[12:42:00.272 21/01/2026]',-106234,-165774.9,-83768.57,15954.45,-375000,-375000,-139666.3,-119820,0.02,0.00,0.88,-4,0,-2,35,0
'[12:42:00.276 21/01/2026]',-106222.7,-165772.5,-83769.51,15942.78,-375000,-375000,-139679.2,-119825.3,0.02,0.00,0.88,-4,0,-2,35,0
'[12:42:00.280 21/01/2026]',-106217.9,-165771,-83764.41,15930.8,-375000,-375000,-139682.8,-119824.5,0.02,0.00,0.88,-4,0,-2,35,0
'[12:42:00.284 21/01/2026]',-106226.6,-165777.7,-83767.72,15932.68,-375000,-375000,-139679.8,-119826.1,0.02,0.00,0.88,-4,0,-2,35,0
'[12:42:00.288 21/01/2026]',-106239,-165779,-83771.3,15942.78,-375000,-375000,-139673.7,-119825.2,0.02,0.00,0.88,-4,0,-2,35,0
'[12:42:00.292 21/01/2026]',-106233.1,-165782.2,-83769.73,15935.18,-375000,-375000,-139683.3,-119830.9,0.02,0.00,0.88,-4,0,-2,35,0
'[12:42:00.296 21/01/2026]',-106218.7,-165772.3,-83758.69,15930.67,-375000,-375000,-139684.1,-119828.3,0.02,0.00,0.88,-4,0,-2,35,0
'[12:42:00.300 21/01/2026]',-106232.8,-165773.3,-83763.83,15932.1,-375000,-375000,-139683.2,-119828.8,0.02,0.00,0.88,-4,0,-2,35,0
'[12:42:00.304 21/01/2026]',-106234,-165777.8,-83771.97,15939.97,-375000,-375000,-139679.4,-119831.7,0.02,0.00,0.88,-4,0,-2,35,0
'[12:42:00.308 21/01/2026]',-106218.9,-165775.7,-83766.06,15938.31,-375000,-375000,-139685.4,-119835.1,0.02,0.00,0.88,-4,0,-2,35,0
'[12:42:00.312 21/01/2026]',-106211.2,-165765.4,-83756.09,15937.78,-375000,-375000,-139684,-119831.5,0.02,0.00,0.88,-4,0,-2,35,0
'[12:42:00.316 21/01/2026]',-106223.1,-165773.3,-83763.43,15932.28,-375000,-375000,-139683.8,-119829.9,0.02,0.00,0.88,-4,0,-2,35,0
'[12:42:00.320 21/01/2026]',-106233,-165784.1,-83773.62,15942.87,-375000,-375000,-139680.7,-119833.3,0.02,0.00,0.88,-4,0,-2,35,0
'[12:42:00.324 21/01/2026]',-106248,-165785.8,-83779.79,15936.03,-375000,-375000,-139685.8,-119836.8,0.03,0.02,0.88,-4,0,-2,35,0
'[12:42:00.328 21/01/2026]',-106231.2,-165774.8,-83765.35,15938.54,-375000,-375000,-139681.9,-119830.4,0.03,0.02,0.88,-4,0,-2,35,0
'[12:42:00.332 21/01/2026]',-106218.4,-165771.8,-83763.3,15936.75,-375000,-375000,-139679.6,-119828.4,0.03,0.02,0.88,-4,0,-2,35,0
'[12:42:00.336 21/01/2026]',-106235.9,-165783.4,-83768.79,15944.53,-375000,-375000,-139678.4,-119835.8,0.03,0.02,0.88,-4,0,-2,35,0
'[12:42:00.340 21/01/2026]',-106239,-165776.9,-83765.17,15944.97,-375000,-375000,-139675.5,-119830.2,0.03,0.02,0.88,-4,0,-2,35,0
'[12:42:00.344 21/01/2026]',-106221.6,-165766,-83751.85,15941.98,-375000,-375000,-139674.1,-119823.3,0.03,0.02,0.88,-4,0,-2,35,0
'[12:42:00.348 21/01/2026]',-106215.4,-165769.3,-83754.71,15931.38,-375000,-375000,-139674.2,-119818,0.03,0.02,0.88,-4,0,-2,35,0
'[12:42:00.352 21/01/2026]',-106212.4,-165776.4,-83764.73,15938.04,-375000,-375000,-139670.6,-119820.2,0.03,0.02,0.88,-4,0,-2,35,0
'[12:42:00.356 21/01/2026]',-106211.6,-165771.7,-83765.71,15953.07,-375000,-375000,-139666.5,-119818.2,0.03,0.02,0.88,-4,0,-2,35,0
'[12:42:00.360 21/01/2026]',-106214.2,-165770.8,-83768.93,15931.96,-375000,-375000,-139686.5,-119831.6,0.03,0.00,0.89,-4,0,-2,35,0
'[12:42:00.364 21/01/2026]',-106223,-165768.4,-83766.34,15930.62,-375000,-375000,-139685.3,-119831.2,0.03,0.00,0.89,-4,0,-2,35,0
'[12:42:00.368 21/01/2026]',-106228.6,-165773.8,-83768.61,15937.42,-375000,-375000,-139676.6,-119827.8,0.03,0.00,0.89,-4,0,-2,35,0
'[12:42:00.372 21/01/2026]',-106236.6,-165776.5,-83778.45,15940.82,-375000,-375000,-139676.4,-119831,0.03,0.00,0.89,-4,0,-2,35,0
'[12:42:00.376 21/01/2026]',-106223,-165765.4,-83764.1,15937.42,-375000,-375000,-139676.9,-119824.6,0.03,0.00,0.89,-4,0,-2,35,0
'[12:42:00.380 21/01/2026]',-106214.7,-165765.5,-83760.92,15931.38,-375000,-375000,-139679.5,-119826.3,0.03,0.00,0.89,-4,0,-2,35,0
'[12:42:00.384 21/01/2026]',-106217.5,-165773.1,-83772.41,15932.23,-375000,-375000,-139677.9,-119830.3,0.03,0.00,0.89,-4,0,-2,35,0
'[12:42:00.388 21/01/2026]',-106225.6,-165772.5,-83770.58,15946.54,-375000,-375000,-139666.5,-119822,0.03,0.00,0.89,-4,0,-2,35,0
'[12:42:00.392 21/01/2026]',-106221.1,-165774.7,-83762.09,15932.59,-375000,-375000,-139678.8,-119824.9,0.03,0.00,0.89,-4,0,-2,35,0
'[12:42:00.396 21/01/2026]',-106208.5,-165766.5,-83752.7,15934.69,-375000,-375000,-139675.7,-119821.5,0.03,0.00,0.88,-4,0,-2,35,0
'[12:42:00.400 21/01/2026]',-106224.9,-165776.6,-83768.34,15935.14,-375000,-375000,-139679.4,-119829.8,0.03,0.00,0.88,-4,0,-2,35,0
'[12:42:00.404 21/01/2026]',-106227.9,-165785.8,-83780.46,15941.8,-375000,-375000,-139677.3,-119831.7,0.03,0.00,0.88,-4,0,-2,35,0
'[12:42:00.408 21/01/2026]',-106217.4,-165778.5,-83772.86,15940.95,-375000,-375000,-139678.7,-119830.7,0.03,0.00,0.88,-4,0,-2,35,0
'[12:42:00.412 21/01/2026]',-106212.1,-165772.5,-83760.12,15931.43,-375000,-375000,-139683,-119829.4,0.03,0.00,0.88,-4,0,-2,35,0
'[12:42:00.416 21/01/2026]',-106219.5,-165769.9,-83759.31,15931.47,-375000,-375000,-139676.5,-119823.3,0.03,0.00,0.88,-4,0,-2,35,0
'[12:42:00.420 21/01/2026]',-106238.7,-165777.6,-83772.19,15940.15,-375000,-375000,-139674.8,-119828.7,0.03,0.00,0.88,-4,0,-2,35,0
'[12:42:00.424 21/01/2026]',-106237.3,-165776.6,-83768.13,15943.86,-375000,-375000,-139679.4,-119835,0.03,0.00,0.88,-4,0,-2,35,0
'[12:42:00.428 21/01/2026]',-106223.8,-165771.5,-83764.1,15931.34,-375000,-375000,-139687.4,-119834.4,0.03,0.00,0.88,-4,0,-2,35,0
'[12:42:00.432 21/01/2026]',-106235.1,-165775.2,-83771.3,15916.36,-375000,-375000,-139692,-119839.2,0.02,0.00,0.88,-4,0,-2,35,0
'[12:42:00.436 21/01/2026]',-106247.9,-165782,-83777.73,15922,-375000,-375000,-139685.8,-119837.6,0.02,0.00,0.88,-4,0,-2,35,0
'[12:42:00.440 21/01/2026]',-106243.4,-165783.2,-83781.89,15927.94,-375000,-375000,-139685.3,-119840.9,0.02,0.00,0.88,-4,0,-2,35,0
'[12:42:00.444 21/01/2026]',-106236.1,-165780.7,-83774.56,15918.64,-375000,-375000,-139693.4,-119842.2,0.02,0.00,0.88,-4,0,-2,35,0
'[12:42:00.448 21/01/2026]',-106230.1,-165775.7,-83768.75,15918.24,-375000,-375000,-139686.5,-119829.6,0.02,0.00,0.88,-4,0,-2,35,0
'[12:42:00.452 21/01/2026]',-106230.2,-165776.1,-83775.9,15927.36,-375000,-375000,-139681.2,-119833.1,0.02,0.00,0.88,-4,0,-2,35,0
'[12:42:00.456 21/01/2026]',-106240,-165782.9,-83783.01,15925.75,-375000,-375000,-139684.3,-119838.2,0.02,0.00,0.88,-4,0,-2,35,0
'[12:42:00.460 21/01/2026]',-106231.8,-165776.7,-83774.52,15919.72,-375000,-375000,-139690.3,-119835.1,0.02,0.00,0.88,-4,0,-2,35,0
'[12:42:00.464 21/01/2026]',-106226.3,-165769.6,-83770.13,15917.62,-375000,-375000,-139692.4,-119837.2,0.02,0.00,0.88,-4,0,-2,35,0
'[12:42:00.468 21/01/2026]',-106231.9,-165770.4,-83778.23,15918.73,-375000,-375000,-139690,-119835.1,0.03,0.00,0.88,-4,0,-2,35,0
'[12:42:00.472 21/01/2026]',-106236.1,-165768.4,-83782.65,15935.05,-375000,-375000,-139684,-119833.7,0.03,0.00,0.88,-4,0,-2,35,0
'[12:42:00.476 21/01/2026]',-106228.6,-165771.7,-83775.05,15925.53,-375000,-375000,-139696.9,-119840.5,0.03,0.00,0.88,-4,0,-2,35,0
'[12:42:00.480 21/01/2026]',-106222,-165765.6,-83763.43,15921.95,-375000,-375000,-139697.1,-119838.2,0.03,0.00,0.88,-4,0,-2,35,0
'[12:42:00.484 21/01/2026]',-106232.4,-165764.2,-83769.28,15929.95,-375000,-375000,-139686.7,-119834,0.03,0.00,0.88,-4,0,-2,35,0
'[12:42:00.488 21/01/2026]',-106232.1,-165766.8,-83772.05,15940.64,-375000,-375000,-139677.7,-119830.8,0.03,0.00,0.88,-4,0,-2,35,0
'[12:42:00.492 21/01/2026]',-106212.9,-165758.8,-83765.57,15934.83,-375000,-375000,-139682.3,-119829.8,0.03,0.00,0.88,-4,0,-2,35,0
'[12:42:00.496 21/01/2026]',-106212.2,-165757.9,-83764.1,15929.6,-375000,-375000,-139686.5,-119832.4,0.03,0.00,0.88,-4,0,-2,35,0
'[12:42:00.500 21/01/2026]',-106218.6,-165761,-83768.13,15929.42,-375000,-375000,-139682.8,-119834,0.03,0.00,0.88,-4,0,-2,35,0
'[12:42:00.504 21/01/2026]',-106225.9,-165766.9,-83771.74,15942.87,-375000,-375000,-139674.2,-119829.1,0.03,0.00,0.89,-4,0,-2,35,0
'[12:42:00.508 21/01/2026]',-106229.3,-165770.1,-83769.15,15938.72,-375000,-375000,-139679.9,-119832.4,0.03,0.00,0.89,-4,0,-2,35,0
'[12:42:00.512 21/01/2026]',-106218.8,-165764.2,-83762.13,15927.18,-375000,-375000,-139685.6,-119831.1,0.03,0.00,0.89,-4,0,-2,35,0
'[12:42:00.516 21/01/2026]',-106223.3,-165771.9,-83772.63,15918.51,-375000,-375000,-139688.4,-119837.5,0.03,0.00,0.89,-4,0,-2,35,0
'[12:42:00.520 21/01/2026]',-106229.2,-165776.3,-83770.8,15930.36,-375000,-375000,-139678,-119833.6,0.03,0.00,0.89,-4,0,-2,35,0
'[12:42:00.524 21/01/2026]',-106227,-165774.3,-83760.79,15932.95,-375000,-375000,-139677.7,-119831.4,0.03,0.00,0.89,-4,0,-2,35,0
'[12:42:00.528 21/01/2026]',-106207.3,-165765.3,-83754.48,15928.48,-375000,-375000,-139677.3,-119828.6,0.03,0.00,0.89,-4,0,-2,35,0
'[12:42:00.532 21/01/2026]',-106197.2,-165757,-83757.98,15935.14,-375000,-375000,-139670.8,-119822.7,0.03,0.00,0.89,-4,0,-2,35,0
'[12:42:00.536 21/01/2026]',-106212.4,-165764.4,-83766.34,15943.95,-375000,-375000,-139670.2,-119826.7,0.03,0.00,0.89,-4,0,-2,35,0
'[12:42:00.540 21/01/2026]',-106214.5,-165772.2,-83768.84,15943.59,-375000,-375000,-139674.8,-119835.3,0.03,0.00,0.88,-4,0,-2,35,0
'[12:42:00.544 21/01/2026]',-106212,-165766.2,-83758.02,15934.33,-375000,-375000,-139678.5,-119831.5,0.03,0.00,0.88,-4,0,-2,35,0
'[12:42:00.548 21/01/2026]',-106216.1,-165762.9,-83753.15,15930.45,-375000,-375000,-139678.7,-119832.1,0.03,0.00,0.88,-4,0,-2,35,0
'[12:42:00.552 21/01/2026]',-106235,-165773.5,-83766.47,15936.84,-375000,-375000,-139677.9,-119838.3,0.03,0.00,0.88,-4,0,-2,35,0
'[12:42:00.556 21/01/2026]',-106229.3,-165770.4,-83765.66,15943.99,-375000,-375000,-139668.6,-119827.3,0.03,0.00,0.88,-4,0,-2,35,0
'[12:42:00.560 21/01/2026]',-106215.9,-165765.2,-83756.9,15938.09,-375000,-375000,-139676.5,-119831.8,0.03,0.00,0.88,-4,0,-2,35,0
'[12:42:00.564 21/01/2026]',-106214,-165761.9,-83754.48,15935.27,-375000,-375000,-139673.4,-119824.5,0.03,0.00,0.88,-4,0,-2,35,0
'[12:42:00.568 21/01/2026]',-106230.2,-165771.2,-83770.45,15935.63,-375000,-375000,-139675.3,-119830.1,0.03,0.00,0.88,-4,0,-2,35,0
'[12:42:00.572 21/01/2026]',-106223.8,-165761.8,-83762.89,15948.19,-375000,-375000,-139666.2,-119821.2,0.03,0.00,0.88,-4,0,-2,35,0
'[12:42:00.576 21/01/2026]',-106202.6,-165758.9,-83757.8,15946.9,-375000,-375000,-139671,-119822.6,0.03,0.00,0.88,-4,0,-2,35,0
'[12:42:00.580 21/01/2026]',-106207.6,-165758.6,-83758.11,15931.16,-375000,-375000,-139674.9,-119823.1,0.03,0.00,0.88,-4,0,-2,35,0
'[12:42:00.584 21/01/2026]',-106228.3,-165760.3,-83761.69,15938.85,-375000,-375000,-139669.9,-119821.3,0.03,0.00,0.88,-4,0,-2,35,0
'[12:42:00.588 21/01/2026]',-106225,-165760.4,-83761.46,15951.05,-375000,-375000,-139660.8,-119820.7,0.03,0.00,0.88,-4,0,-2,35,0
'[12:42:00.592 21/01/2026]',-106210.4,-165753.6,-83756.72,15952.71,-375000,-375000,-139662.1,-119818.2,0.03,0.00,0.88,-4,0,-2,35,0
'[12:42:00.596 21/01/2026]',-106200.4,-165747.1,-83748.54,15944.79,-375000,-375000,-139663,-119813.7,0.03,0.00,0.88,-4,0,-2,35,0
'[12:42:00.600 21/01/2026]',-106209.5,-165748.8,-83752.56,15945.87,-375000,-375000,-139663.2,-119817.1,0.03,0.00,0.88,-4,0,-2,35,0
'[12:42:00.604 21/01/2026]',-106216.8,-165758.9,-83763.65,15953.02,-375000,-375000,-139663.3,-119826.9,0.03,0.00,0.88,-4,0,-2,35,0
'[12:42:00.608 21/01/2026]',-106214.1,-165758.3,-83759,15947.61,-375000,-375000,-139668.8,-119829.5,0.03,0.00,0.88,-4,0,-2,35,0
'[12:42:00.612 21/01/2026]',-106196.8,-165752.9,-83747.34,15939.65,-375000,-375000,-139673.4,-119831.5,0.03,-0.02,0.88,-4,0,-2,35,0
'[12:42:00.616 21/01/2026]',-106189.3,-165757.4,-83747.24,15934.07,-375000,-375000,-139671.4,-119833.2,0.03,-0.02,0.88,-4,0,-2,35,0
'[12:42:00.620 21/01/2026]',-106212.5,-165760.5,-83757.88,15942.92,-375000,-375000,-139668.9,-119831.7,0.03,-0.02,0.88,-4,0,-2,35,0
'[12:42:00.624 21/01/2026]',-106221.7,-165771,-83768.61,15940.06,-375000,-375000,-139676.2,-119838.6,0.03,-0.02,0.88,-4,0,-2,35,0
'[12:42:00.628 21/01/2026]',-106204.6,-165761.7,-83761.55,15932.99,-375000,-375000,-139676.2,-119831.8,0.03,-0.02,0.88,-4,0,-2,35,0
'[12:42:00.632 21/01/2026]',-106204.8,-165757.3,-83761.51,15934.16,-375000,-375000,-139669.9,-119824.6,0.03,-0.02,0.88,-4,0,-2,35,0
'[12:42:00.636 21/01/2026]',-106214.9,-165761.5,-83770.27,15941.31,-375000,-375000,-139665.8,-119826.9,0.03,-0.02,0.88,-4,0,-2,35,0
'[12:42:00.640 21/01/2026]',-106209.7,-165758.3,-83763.79,15946.09,-375000,-375000,-139665.7,-119829,0.03,-0.02,0.88,-4,0,-2,35,0
'[12:42:00.644 21/01/2026]',-106191.4,-165750.3,-83754.94,15936.03,-375000,-375000,-139664.7,-119825,0.03,-0.02,0.88,-4,0,-2,35,0
'[12:42:00.648 21/01/2026]',-106211.1,-165753.7,-83750.02,15931.38,-375000,-375000,-139663.4,-119822.6,0.03,0.00,0.89,-4,0,-2,35,0
'[12:42:00.652 21/01/2026]',-106235.6,-165763.8,-83764.59,15942.69,-375000,-375000,-139659.8,-119821.5,0.03,0.00,0.89,-4,0,-2,35,0
'[12:42:00.656 21/01/2026]',-106230.3,-165763.9,-83765.3,15945.15,-375000,-375000,-139660.7,-119825.7,0.03,0.00,0.89,-4,0,-2,35,0
'[12:42:00.660 21/01/2026]',-106217.3,-165762.7,-83757.52,15939.52,-375000,-375000,-139667,-119823.5,0.03,0.00,0.89,-4,0,-2,35,0
'[12:42:00.664 21/01/2026]',-106202.3,-165756,-83749.13,15935.36,-375000,-375000,-139665,-119820.9,0.03,0.00,0.89,-4,0,-2,35,0
'[12:42:00.668 21/01/2026]',-106201.9,-165757.7,-83758.55,15940.73,-375000,-375000,-139661.3,-119821.8,0.03,0.00,0.89,-4,0,-2,35,0
'[12:42:00.672 21/01/2026]',-106213.1,-165757.7,-83762.76,15947.7,-375000,-375000,-139656.9,-119818.5,0.03,0.00,0.89,-4,0,-2,35,0
'[12:42:00.676 21/01/2026]',-106214.7,-165761,-83760.25,15944.57,-375000,-375000,-139665.7,-119823.3,0.03,0.00,0.89,-4,0,-2,35,0
'[12:42:00.680 21/01/2026]',-106215.7,-165757,-83754.66,15935.36,-375000,-375000,-139669.8,-119822.4,0.03,0.00,0.89,-4,0,-2,35,0
'[12:42:00.684 21/01/2026]',-106218,-165751.6,-83755.38,15948.95,-375000,-375000,-139659.7,-119815.5,0.02,0.00,0.88,-4,0,-2,35,0
'[12:42:00.688 21/01/2026]',-106218.5,-165757.7,-83760.57,15954.05,-375000,-375000,-139657.7,-119816.8,0.02,0.00,0.88,-4,0,-2,35,0
'[12:42:00.692 21/01/2026]',-106199.4,-165752.5,-83755.74,15952.93,-375000,-375000,-139662.4,-119817.2,0.02,0.00,0.88,-4,0,-2,35,0
'[12:42:00.696 21/01/2026]',-106195.2,-165740,-83751.45,15943.68,-375000,-375000,-139668.1,-119820.1,0.02,0.00,0.88,-4,0,-2,35,0
'[12:42:00.700 21/01/2026]',-106208.4,-165737.7,-83753.77,15940.77,-375000,-375000,-139673,-119828.7,0.02,0.00,0.88,-4,0,-2,35,0
'[12:42:00.704 21/01/2026]',-106217,-165768.8,-83762.09,15949.31,-375000,-375000,-139664.9,-119827.7,0.02,0.00,0.88,-4,0,-2,35,0
'[12:42:00.708 21/01/2026]',-106225.2,-165788.2,-83766.83,15942.38,-375000,-375000,-139667.1,-119832.1,0.02,0.00,0.88,-4,0,-2,35,0
'[12:42:00.712 21/01/2026]',-106213.4,-165776.9,-83760.21,15935.63,-375000,-375000,-139671,-119831.6,0.02,0.00,0.88,-4,0,-2,35,0
'[12:42:00.716 21/01/2026]',-106203.9,-165769.7,-83754.62,15934.83,-375000,-375000,-139670,-119828.1,0.02,0.00,0.88,-4,0,-2,35,0
'[12:42:00.720 21/01/2026]',-106219.8,-165784.4,-83760.79,15938.89,-375000,-375000,-139670.7,-119833.8,0.03,0.00,0.86,-4,0,-2,35,0
'[12:42:00.724 21/01/2026]',-106231.9,-165791.9,-83774.52,15930.22,-375000,-375000,-139679.9,-119840,0.03,0.00,0.86,-4,0,-2,35,0
'[12:42:00.728 21/01/2026]',-106224.6,-165787.7,-83772.01,15921.15,-375000,-375000,-139688.7,-119845.4,0.03,0.00,0.86,-4,0,-2,35,0
'[12:42:00.732 21/01/2026]',-106230.9,-165789,-83771.52,15920.3,-375000,-375000,-139688.6,-119848.3,0.03,0.00,0.86,-4,0,-2,35,0
'[12:42:00.736 21/01/2026]',-106229,-165781.3,-83771.02,15935.23,-375000,-375000,-139678.6,-119839.8,0.03,0.00,0.86,-4,0,-2,35,0
'[12:42:00.740 21/01/2026]',-106217.5,-165781.2,-83773.76,15933.49,-375000,-375000,-139681.1,-119843.4,0.03,0.00,0.86,-4,0,-2,35,0
'[12:42:00.744 21/01/2026]',-106214,-165779.8,-83765.88,15919.9,-375000,-375000,-139687.8,-119847.8,0.03,0.00,0.86,-4,0,-2,35,0
'[12:42:00.748 21/01/2026]',-106219.4,-165772.6,-83762.18,15919.81,-375000,-375000,-139683.4,-119837.6,0.03,0.00,0.86,-4,0,-2,35,0
'[12:42:00.752 21/01/2026]',-106235.7,-165778.7,-83772.63,15926.87,-375000,-375000,-139680.7,-119838.9,0.03,0.00,0.86,-4,0,-2,35,0
'[12:42:00.756 21/01/2026]',-106225.6,-165779.7,-83769.51,15927.14,-375000,-375000,-139679,-119838.5,0.02,0.00,0.88,-4,0,-2,35,0
'[12:42:00.760 21/01/2026]',-106213,-165778.3,-83767.9,15921.06,-375000,-375000,-139689.6,-119845.7,0.02,0.00,0.88,-4,0,-2,35,0
'[12:42:00.764 21/01/2026]',-106226.6,-165782.7,-83770.18,15914.71,-375000,-375000,-139693.8,-119855,0.02,0.00,0.88,-4,0,-2,35,0
'[12:42:00.768 21/01/2026]',-106243.4,-165792.9,-83785.42,15913.28,-375000,-375000,-139695.1,-119860.8,0.02,0.00,0.88,-4,0,-2,35,0
'[12:42:00.772 21/01/2026]',-106244.1,-165790.9,-83783.09,15927.72,-375000,-375000,-139681.7,-119846.5,0.02,0.00,0.88,-4,0,-2,35,0
'[12:42:00.776 21/01/2026]',-106228.3,-165778.6,-83772.19,15926.6,-375000,-375000,-139682.4,-119840,0.02,0.00,0.88,-4,0,-2,35,0
'[12:42:00.780 21/01/2026]',-106215.2,-165777.5,-83765.48,15916.32,-375000,-375000,-139688.4,-119845.1,0.02,0.00,0.88,-4,0,-2,35,0
'[12:42:00.784 21/01/2026]',-106223.9,-165783.3,-83770.58,15917.71,-375000,-375000,-139681,-119842.7,0.02,0.00,0.88,-4,0,-2,35,0
'[12:42:00.788 21/01/2026]',-106214.3,-165785.4,-83777.15,15931.03,-375000,-375000,-139674.7,-119838.8,0.02,0.00,0.88,-4,0,-2,35,0
'[12:42:00.792 21/01/2026]',-106208.8,-165783.2,-83770.31,15925.75,-375000,-375000,-139682.5,-119843.7,0.03,0.00,0.88,-4,0,-2,35,0
'[12:42:00.796 21/01/2026]',-106217.4,-165777.2,-83759.9,15924.68,-375000,-375000,-139680.7,-119838.5,0.03,0.00,0.88,-4,0,-2,35,0
'[12:42:00.800 21/01/2026]',-106234.5,-165785.9,-83771.88,15923.38,-375000,-375000,-139681.5,-119842.8,0.03,0.00,0.88,-4,0,-2,35,0
'[12:42:00.804 21/01/2026]',-106235,-165785.2,-83778.63,15935.99,-375000,-375000,-139675.2,-119839.8,0.03,0.00,0.88,-4,0,-2,35,0
'[12:42:00.808 21/01/2026]',-106222.4,-165780.2,-83769.51,15935.85,-375000,-375000,-139675.6,-119835.9,0.03,0.00,0.88,-4,0,-2,35,0
'[12:42:00.812 21/01/2026]',-106216.4,-165774,-83757.8,15925.44,-375000,-375000,-139674.3,-119829.4,0.03,0.00,0.88,-4,0,-2,35,0
'[12:42:00.816 21/01/2026]',-106228.9,-165780.2,-83761.59,15921.15,-375000,-375000,-139677.6,-119835.7,0.03,0.00,0.88,-4,0,-2,35,0
'[12:42:00.820 21/01/2026]',-106239.4,-165786.1,-83775.09,15931.83,-375000,-375000,-139672.7,-119832.9,0.03,0.00,0.88,-4,0,-2,35,0
'[12:42:00.824 21/01/2026]',-106232.6,-165790.8,-83775.05,15929.69,-375000,-375000,-139676.5,-119838.4,0.03,0.00,0.88,-4,0,-2,35,0
'[12:42:00.828 21/01/2026]',-106206.9,-165780.5,-83763.25,15919.31,-375000,-375000,-139675.9,-119830.9,0.03,0.00,0.88,-4,0,-2,35,0
'[12:42:00.832 21/01/2026]',-106211.1,-165776.6,-83766.55,15921.91,-375000,-375000,-139669.2,-119820.9,0.03,0.00,0.88,-4,0,-2,35,0
'[12:42:00.836 21/01/2026]',-106242,-165789.1,-83776.44,15926.33,-375000,-375000,-139670.2,-119833.1,0.03,0.00,0.88,-4,0,-2,35,0
'[12:42:00.840 21/01/2026]',-106236,-165786.8,-83773.09,15933.49,-375000,-375000,-139666.4,-119828.5,0.03,0.00,0.88,-4,0,-2,35,0
'[12:42:00.844 21/01/2026]',-106226.5,-165781.5,-83764.37,15923.92,-375000,-375000,-139671.9,-119828.4,0.03,0.00,0.88,-4,0,-2,35,0
'[12:42:00.848 21/01/2026]',-106221.7,-165771.8,-83762.4,15926.02,-375000,-375000,-139664.6,-119815.9,0.03,0.00,0.88,-4,0,-2,35,0
'[12:42:00.852 21/01/2026]',-106220.4,-165776,-83772.91,15934.87,-375000,-375000,-139661.5,-119817.2,0.03,0.00,0.88,-4,0,-2,35,0
'[12:42:00.856 21/01/2026]',-106217.1,-165779.7,-83778.18,15928.57,-375000,-375000,-139665.9,-119823.5,0.03,0.00,0.88,-4,0,-2,35,0
'[12:42:00.860 21/01/2026]',-106220,-165779.5,-83769.69,15922,-375000,-375000,-139675.5,-119831.3,0.03,0.00,0.88,-4,0,-2,35,0
'[12:42:00.864 21/01/2026]',-106227.9,-165778,-83766.42,15915.07,-375000,-375000,-139679.7,-119834.9,0.02,0.00,0.88,-4,0,-2,35,0
'[12:42:00.868 21/01/2026]',-106240.1,-165783.2,-83779.79,15920.25,-375000,-375000,-139680.1,-119841.4,0.02,0.00,0.88,-4,0,-2,35,0
'[12:42:00.872 21/01/2026]',-106234.7,-165786.6,-83781.35,15927.58,-375000,-375000,-139679.6,-119840.8,0.02,0.00,0.88,-4,0,-2,35,0
'[12:42:00.876 21/01/2026]',-106224,-165788.3,-83775.32,15920.92,-375000,-375000,-139689.1,-119846.1,0.02,0.00,0.88,-4,0,-2,35,0
'[12:42:00.880 21/01/2026]',-106210.3,-165783.4,-83771.12,15909.57,-375000,-375000,-139688.2,-119843.5,0.02,0.00,0.88,-4,0,-2,35,0
'[12:42:00.884 21/01/2026]',-106214.1,-165778.6,-83766.65,15917.66,-375000,-375000,-139677.4,-119830.3,0.02,0.00,0.88,-4,0,-2,35,0
'[12:42:00.888 21/01/2026]',-106229,-165779.4,-83771.02,15936.79,-375000,-375000,-139668.7,-119825.9,0.02,0.00,0.88,-4,0,-2,35,0
'[12:42:00.892 21/01/2026]',-106229.7,-165781,-83769.24,15934.07,-375000,-375000,-139673.9,-119831,0.02,0.00,0.88,-4,0,-2,35,0
'[12:42:00.896 21/01/2026]',-106221.1,-165778.7,-83764.86,15918.2,-375000,-375000,-139680.8,-119835.9,0.02,0.00,0.88,-4,0,-2,35,0
'[12:42:00.900 21/01/2026]',-106221.2,-165776.9,-83771.61,15919.81,-375000,-375000,-139677.7,-119836.6,0.02,0.00,0.89,-4,0,-2,35,0
'[12:42:00.904 21/01/2026]',-106229.3,-165788,-83783.77,15929.1,-375000,-375000,-139683.4,-119848.1,0.02,0.00,0.89,-4,0,-2,35,0
'[12:42:00.908 21/01/2026]',-106227.3,-165788.8,-83781.58,15920.3,-375000,-375000,-139688.2,-119841.6,0.02,0.00,0.89,-4,0,-2,35,0
'[12:42:00.912 21/01/2026]',-106213.5,-165774.4,-83765.66,15916.72,-375000,-375000,-139683.3,-119832,0.02,0.00,0.89,-4,0,-2,35,0
'[12:42:00.916 21/01/2026]',-106217.1,-165778.3,-83767.27,15914.8,-375000,-375000,-139684.1,-119836.6,0.02,0.00,0.89,-4,0,-2,35,0
'[12:42:00.920 21/01/2026]',-106237.3,-165790.3,-83781.17,15920.66,-375000,-375000,-139684.6,-119842.3,0.02,0.00,0.89,-4,0,-2,35,0
'[12:42:00.924 21/01/2026]',-106234.7,-165789.2,-83781.13,15918.06,-375000,-375000,-139685.3,-119846.7,0.02,0.00,0.89,-4,0,-2,35,0
'[12:42:00.928 21/01/2026]',-106220.3,-165781.5,-83776.39,15911.4,-375000,-375000,-139688.2,-119839.9,0.02,0.00,0.89,-4,0,-2,35,0
'[12:42:00.932 21/01/2026]',-106225.2,-165786,-83777.51,15910.33,-375000,-375000,-139688.4,-119846.6,0.02,0.00,0.89,-4,0,-2,35,0
'[12:42:00.936 21/01/2026]',-106242.8,-165791.1,-83782.12,15915.38,-375000,-375000,-139685.5,-119844.9,0.03,0.00,0.89,-4,0,-2,35,0
'[12:42:00.940 21/01/2026]',-106240.1,-165791.5,-83783.32,15920.61,-375000,-375000,-139689.8,-119848.9,0.03,0.00,0.89,-4,0,-2,35,0
'[12:42:00.944 21/01/2026]',-106224.5,-165780.3,-83767.32,15918.78,-375000,-375000,-139685.2,-119840.3,0.03,0.00,0.89,-4,0,-2,35,0
'[12:42:00.948 21/01/2026]',-106218.5,-165775.5,-83760.12,15920.61,-375000,-375000,-139683.2,-119841.5,0.03,0.00,0.89,-4,0,-2,35,0
'[12:42:00.952 21/01/2026]',-106211,-165772.6,-83762.09,15931.25,-375000,-375000,-139676.5,-119841.5,0.03,0.00,0.89,-4,0,-2,35,0
'[12:42:00.956 21/01/2026]',-106209.1,-165771.8,-83768.75,15935.41,-375000,-375000,-139676.3,-119841.6,0.03,0.00,0.89,-4,0,-2,35,0
'[12:42:00.960 21/01/2026]',-106209.4,-165769,-83767.18,15928.88,-375000,-375000,-139680.7,-119843,0.03,0.00,0.89,-4,0,-2,35,0
'[12:42:00.964 21/01/2026]',-106210.2,-165761.8,-83763.61,15926.51,-375000,-375000,-139676.5,-119837,0.03,0.00,0.89,-4,0,-2,35,0
'[12:42:00.968 21/01/2026]',-106223.5,-165764.4,-83767.8,15928.39,-375000,-375000,-139673.6,-119833.7,0.03,0.00,0.89,-4,0,-2,35,0
'[12:42:00.972 21/01/2026]',-106224.6,-165769.7,-83774.88,15938.09,-375000,-375000,-139674.6,-119841.2,0.03,0.00,0.89,-4,0,-2,35,0
'[12:42:00.976 21/01/2026]',-106220.2,-165768.9,-83768.26,15932.28,-375000,-375000,-139680.1,-119837.9,0.03,0.00,0.89,-4,0,-2,35,0
'[12:42:00.980 21/01/2026]',-106225.4,-165769.8,-83765.84,15920.16,-375000,-375000,-139685.5,-119841,0.03,0.00,0.89,-4,0,-2,35,0
'[12:42:00.984 21/01/2026]',-106233.6,-165772.3,-83773.3,15922.62,-375000,-375000,-139684.2,-119843.2,0.03,0.00,0.89,-4,0,-2,35,0
'[12:42:00.988 21/01/2026]',-106228.9,-165771.5,-83773.93,15932.5,-375000,-375000,-139676.2,-119839.3,0.03,0.00,0.89,-4,0,-2,35,0
'[12:42:00.992 21/01/2026]',-106221.6,-165773,-83772.81,15924.54,-375000,-375000,-139681.7,-119844.4,0.03,0.00,0.89,-4,0,-2,35,0
'[12:42:00.996 21/01/2026]',-106216.6,-165774,-83774.24,15913.95,-375000,-375000,-139686.6,-119847.1,0.03,0.00,0.89,-4,0,-2,35,0
'[12:42:01.000 21/01/2026]',-106227,-165782.1,-83780.19,15908.63,-375000,-375000,-139687.9,-119852.3,0.03,0.00,0.89,-4,0,-2,35,0
'[12:42:01.004 21/01/2026]',-106241.3,-165786.2,-83782.7,15916.14,-375000,-375000,-139682.9,-119845.1,0.03,0.00,0.89,-4,0,-2,35,0
'[12:42:01.008 21/01/2026]',-106235.4,-165782.5,-83786.14,15917.88,-375000,-375000,-139685.1,-119844.1,0.03,0.00,0.88,-4,0,-2,35,0
'[12:42:01.012 21/01/2026]',-106227.1,-165782.5,-83783.55,15904.88,-375000,-375000,-139690.2,-119848.1,0.03,0.00,0.88,-4,0,-2,35,0
'[12:42:01.016 21/01/2026]',-106229.4,-165780.5,-83787.34,15908.67,-375000,-375000,-139685.5,-119842.9,0.03,0.00,0.88,-4,0,-2,35,0
'[12:42:01.020 21/01/2026]',-106235.5,-165777.5,-83785.65,15925.17,-375000,-375000,-139676.7,-119840.5,0.03,0.00,0.88,-4,0,-2,35,0
'[12:42:01.024 21/01/2026]',-106236.4,-165782,-83780.19,15919.67,-375000,-375000,-139686.2,-119847.7,0.03,0.00,0.88,-4,0,-2,35,0
'[12:42:01.028 21/01/2026]',-106226.1,-165782.9,-83775.45,15907.69,-375000,-375000,-139690.3,-119840.9,0.03,0.00,0.88,-4,0,-2,35,0
'[12:42:01.032 21/01/2026]',-106230.7,-165780.3,-83775.9,15913.5,-375000,-375000,-139680.3,-119833,0.03,0.00,0.88,-4,0,-2,35,0
'[12:42:01.036 21/01/2026]',-106242.3,-165783,-83786.49,15917.26,-375000,-375000,-139682.3,-119843.5,0.03,0.00,0.88,-4,0,-2,35,0
'[12:42:01.040 21/01/2026]',-106242.8,-165787.3,-83785.06,15910.87,-375000,-375000,-139692,-119855.4,0.03,0.00,0.88,-4,0,-2,35,0
'[12:42:01.044 21/01/2026]',-106235.7,-165781.5,-83772.77,15907.83,-375000,-375000,-139694.2,-119850.6,0.03,0.00,0.88,-4,0,-2,35,0
'[12:42:01.048 21/01/2026]',-106235.5,-165777.1,-83776.57,15907.07,-375000,-375000,-139695.6,-119849.9,0.03,0.00,0.88,-4,0,-2,35,0
'[12:42:01.052 21/01/2026]',-106238.8,-165781,-83779.88,15919.4,-375000,-375000,-139687.4,-119847.5,0.03,0.00,0.88,-4,0,-2,35,0
'[12:42:01.056 21/01/2026]',-106235.6,-165789.4,-83783.77,15917.03,-375000,-375000,-139692,-119854.8,0.03,0.00,0.88,-4,0,-2,35,0
'[12:42:01.060 21/01/2026]',-106220.9,-165782,-83780.02,15907.16,-375000,-375000,-139697.2,-119853.5,0.03,0.00,0.88,-4,0,-2,35,0
'[12:42:01.064 21/01/2026]',-106222.7,-165774.1,-83776.84,15906.93,-375000,-375000,-139692.5,-119847,0.03,0.00,0.88,-4,0,-2,35,0
'[12:42:01.068 21/01/2026]',-106228.9,-165777.6,-83778.23,15919.45,-375000,-375000,-139677.1,-119836.9,0.03,0.00,0.88,-4,0,-2,35,0
'[12:42:01.072 21/01/2026]',-106229.6,-165783.7,-83788.06,15923.52,-375000,-375000,-139679.8,-119844.9,0.03,0.00,0.88,-4,0,-2,35,0
'[12:42:01.076 21/01/2026]',-106209.9,-165776.2,-83775.95,15918.46,-375000,-375000,-139681.3,-119835.6,0.03,0.00,0.88,-4,0,-2,35,0
'[12:42:01.080 21/01/2026]',-106224.7,-165773.8,-83764.37,15914.17,-375000,-375000,-139681.4,-119836,0.03,0.00,0.88,-4,0,-2,35,0
'[12:42:01.084 21/01/2026]',-106244.2,-165783.9,-83779.52,15917.62,-375000,-375000,-139682,-119842.7,0.03,0.00,0.88,-4,0,-2,35,0
'[12:42:01.088 21/01/2026]',-106235.7,-165782.9,-83787.03,15930.36,-375000,-375000,-139673.8,-119839.2,0.03,0.00,0.88,-4,0,-2,35,0
'[12:42:01.092 21/01/2026]',-106223.4,-165780.8,-83783.14,15919.49,-375000,-375000,-139680.2,-119842.1,0.03,0.00,0.88,-4,0,-2,35,0
'[12:42:01.096 21/01/2026]',-106214,-165775.4,-83768.93,15913.68,-375000,-375000,-139678.1,-119835.6,0.03,0.00,0.88,-4,0,-2,35,0
'[12:42:01.100 21/01/2026]',-106231.4,-165776.8,-83778.8,15917.88,-375000,-375000,-139673.9,-119830.4,0.03,0.00,0.88,-4,0,-2,35,0
'[12:42:01.104 21/01/2026]',-106252.3,-165782.1,-83789.27,15927.32,-375000,-375000,-139672.1,-119834.5,0.03,0.00,0.88,-4,0,-2,35,0
'[12:42:01.108 21/01/2026]',-106240.4,-165777.2,-83783.77,15920.43,-375000,-375000,-139677.2,-119836,0.03,0.00,0.88,-4,0,-2,35,0
'[12:42:01.112 21/01/2026]',-106214.5,-165769.3,-83772.41,15915.38,-375000,-375000,-139675.5,-119826.9,0.03,0.00,0.88,-4,0,-2,35,0
'[12:42:01.116 21/01/2026]',-106213.9,-165769.8,-83778.63,15913.15,-375000,-375000,-139676.9,-119834.1,0.03,0.00,0.88,-4,0,-2,35,0
'[12:42:01.120 21/01/2026]',-106223.4,-165769.9,-83781.66,15932.9,-375000,-375000,-139670.4,-119834.2,0.03,0.00,0.88,-4,0,-2,35,0
'[12:42:01.124 21/01/2026]',-106219.3,-165767.8,-83776.39,15933.4,-375000,-375000,-139672.9,-119832,0.03,0.00,0.88,-4,0,-2,35,0
'[12:42:01.128 21/01/2026]',-106230.3,-165766.4,-83770.85,15922.09,-375000,-375000,-139675.5,-119829.7,0.03,0.00,0.88,-4,0,-2,35,0
'[12:42:01.132 21/01/2026]',-106232.2,-165770,-83768.93,15921.15,-375000,-375000,-139672.4,-119831.5,0.03,0.00,0.88,-4,0,-2,35,0
'[12:42:01.136 21/01/2026]',-106229.5,-165769.7,-83770.8,15937.64,-375000,-375000,-139663.5,-119826.3,0.03,0.00,0.88,-4,0,-2,35,0
'[12:42:01.140 21/01/2026]',-106229.1,-165776.2,-83774.29,15936.84,-375000,-375000,-139669.8,-119831.8,0.03,0.00,0.88,-4,0,-2,35,0
'[12:42:01.144 21/01/2026]',-106226.5,-165773.1,-83761.86,15921.59,-375000,-375000,-139676.4,-119834.8,0.03,0.00,0.88,-4,0,-2,35,0
'[12:42:01.148 21/01/2026]',-106226.5,-165769,-83763.79,15916.01,-375000,-375000,-139677.3,-119834.9,0.03,0.00,0.88,-4,0,-2,35,0
'[12:42:01.152 21/01/2026]',-106228.7,-165768.9,-83771.02,15933.98,-375000,-375000,-139669.8,-119829.5,0.03,0.00,0.86,-4,0,-2,35,0
'[12:42:01.156 21/01/2026]',-106231.4,-165770.4,-83766.24,15940.95,-375000,-375000,-139663.5,-119825.2,0.03,0.00,0.86,-4,0,-2,35,0
'[12:42:01.160 21/01/2026]',-106225.6,-165771.2,-83769.91,15922.76,-375000,-375000,-139673.6,-119830.7,0.03,0.00,0.86,-4,0,-2,35,0
'[12:42:01.164 21/01/2026]',-106224.3,-165769.8,-83774.83,15915.47,-375000,-375000,-139678.9,-119838,0.03,0.00,0.86,-4,0,-2,35,0
'[12:42:01.168 21/01/2026]',-106235.4,-165773.8,-83782.2,15928.43,-375000,-375000,-139669.3,-119829,0.03,0.00,0.86,-4,0,-2,35,0
'[12:42:01.172 21/01/2026]',-106234.7,-165772.3,-83778.36,15937.69,-375000,-375000,-139664.3,-119825.3,0.03,0.00,0.86,-4,0,-2,35,0
'[12:42:01.176 21/01/2026]',-106222.2,-165767.8,-83770.36,15927.67,-375000,-375000,-139673.3,-119828.6,0.03,0.00,0.86,-4,0,-2,35,0
'[12:42:01.180 21/01/2026]',-106212.9,-165761.8,-83766.96,15927.09,-375000,-375000,-139674.3,-119826.6,0.03,0.00,0.86,-4,0,-2,35,0
'[12:42:01.184 21/01/2026]',-106224.7,-165765.1,-83774.65,15932.32,-375000,-375000,-139674.6,-119830.8,0.03,0.00,0.86,-4,0,-2,35,0
'[12:42:01.188 21/01/2026]',-106226.5,-165766.8,-83776.62,15941.67,-375000,-375000,-139670.1,-119830.1,0.03,0.02,0.88,-4,0,-2,35,0
'[12:42:01.192 21/01/2026]',-106216,-165768.3,-83770.98,15933.93,-375000,-375000,-139678.2,-119835.3,0.03,0.02,0.88,-4,0,-2,35,0
'[12:42:01.196 21/01/2026]',-106201,-165765.3,-83767.36,15920.88,-375000,-375000,-139680.8,-119831.3,0.03,0.02,0.88,-4,0,-2,35,0
'[12:42:01.200 21/01/2026]',-106210.7,-165770.5,-83772.95,15923.61,-375000,-375000,-139681.5,-119838.3,0.03,0.02,0.88,-4,0,-2,35,0
'[12:42:01.204 21/01/2026]',-106219.7,-165764.2,-83772.99,15941.26,-375000,-375000,-139668.7,-119833,0.03,0.02,0.88,-4,0,-2,35,0
'[12:42:01.208 21/01/2026]',-106222.9,-165763.8,-83760.74,15933.89,-375000,-375000,-139672.5,-119831,0.03,0.02,0.88,-4,0,-2,35,0
'[12:42:01.212 21/01/2026]',-106218.8,-165773.1,-83764.68,15913.01,-375000,-375000,-139680.6,-119830.5,0.03,0.02,0.88,-4,0,-2,35,0
'[12:42:01.216 21/01/2026]',-106220.7,-165780.6,-83778.85,15907.42,-375000,-375000,-139686.2,-119836.3,0.03,0.02,0.88,-4,0,-2,35,0
'[12:42:01.220 21/01/2026]',-106230.7,-165776.5,-83783.77,15923.96,-375000,-375000,-139678.8,-119836.9,0.03,0.02,0.88,-4,0,-2,35,0
'[12:42:01.224 21/01/2026]',-106222.4,-165768.4,-83782.43,15924.77,-375000,-375000,-139674.2,-119831.2,0.02,0.00,0.88,-4,0,-2,35,0
'[12:42:01.228 21/01/2026]',-106214,-165765.5,-83770.71,15910.64,-375000,-375000,-139678.1,-119831.5,0.02,0.00,0.88,-4,0,-2,35,0
'[12:42:01.232 21/01/2026]',-106228.5,-165777.3,-83780.33,15902.37,-375000,-375000,-139684.9,-119839.5,0.02,0.00,0.88,-4,0,-2,35,0
'[12:42:01.236 21/01/2026]',-106245.7,-165782,-83784.7,15917.75,-375000,-375000,-139680.7,-119841.2,0.02,0.00,0.88,-4,0,-2,35,0
'[12:42:01.240 21/01/2026]',-106238.3,-165776.3,-83776.84,15914.98,-375000,-375000,-139684.1,-119843.5,0.02,0.00,0.88,-4,0,-2,35,0
'[12:42:01.244 21/01/2026]',-106212.9,-165764.3,-83763.61,15913.06,-375000,-375000,-139681.9,-119833.8,0.02,0.00,0.88,-4,0,-2,35,0
'[12:42:01.248 21/01/2026]',-106211.1,-165765.9,-83768.57,15907.65,-375000,-375000,-139685.8,-119841,0.02,0.00,0.88,-4,0,-2,35,0
'[12:42:01.252 21/01/2026]',-106229.2,-165777,-83778.23,15912.92,-375000,-375000,-139686.2,-119845.4,0.02,0.00,0.88,-4,0,-2,35,0
'[12:42:01.256 21/01/2026]',-106227.4,-165776.1,-83777.82,15923.74,-375000,-375000,-139683.4,-119843.4,0.02,0.00,0.88,-4,0,-2,35,0
'[12:42:01.260 21/01/2026]',-106223.3,-165769.8,-83769.06,15910.15,-375000,-375000,-139689,-119843.7,0.02,0.00,0.88,-4,0,-2,35,0
'[12:42:01.264 21/01/2026]',-106224.1,-165770.3,-83765.44,15904.2,-375000,-375000,-139689.5,-119846.7,0.02,0.00,0.88,-4,0,-2,35,0
'[12:42:01.268 21/01/2026]',-106228.5,-165774.6,-83776.39,15912.97,-375000,-375000,-139683.6,-119844.1,0.02,0.00,0.88,-4,0,-2,35,0
'[12:42:01.272 21/01/2026]',-106219.4,-165777.8,-83779.66,15915.6,-375000,-375000,-139683.6,-119844.8,0.02,0.00,0.88,-4,0,-2,35,0
'[12:42:01.276 21/01/2026]',-106208.5,-165769,-83767.41,15907.65,-375000,-375000,-139684.3,-119837.3,0.02,0.00,0.88,-4,0,-2,35,0
'[12:42:01.280 21/01/2026]',-106219.5,-165775.2,-83777.29,15895.93,-375000,-375000,-139690.3,-119840.6,0.02,0.00,0.88,-4,0,-2,35,0
'[12:42:01.284 21/01/2026]',-106224.8,-165779.1,-83785.02,15901.52,-375000,-375000,-139688.9,-119845,0.02,0.00,0.88,-4,0,-2,35,0
'[12:42:01.288 21/01/2026]',-106225.8,-165779.3,-83787.26,15913.5,-375000,-375000,-139683.6,-119844,0.02,0.00,0.88,-4,0,-2,35,0
'[12:42:01.292 21/01/2026]',-106223.7,-165774.4,-83780.37,15908.67,-375000,-375000,-139687.3,-119840.9,0.02,0.00,0.88,-4,0,-2,35,0
'[12:42:01.296 21/01/2026]',-106214.9,-165762.8,-83766.65,15903.62,-375000,-375000,-139684.4,-119834.6,0.03,0.00,0.88,-4,0,-2,35,0
'[12:42:01.300 21/01/2026]',-106220.1,-165775.2,-83773.98,15895.4,-375000,-375000,-139691.3,-119843.6,0.03,0.00,0.88,-4,0,-2,35,0
'[12:42:01.304 21/01/2026]',-106220.6,-165782.4,-83785.47,15905.05,-375000,-375000,-139689.6,-119847.9,0.03,0.00,0.88,-4,0,-2,35,0
'[12:42:01.308 21/01/2026]',-106224.5,-165780.2,-83783.81,15908.41,-375000,-375000,-139690.3,-119846.4,0.03,0.00,0.88,-4,0,-2,35,0
'[12:42:01.312 21/01/2026]',-106230.3,-165775.5,-83777.2,15900.9,-375000,-375000,-139690,-119845,0.03,0.00,0.88,-4,0,-2,35,0
'[12:42:01.316 21/01/2026]',-106237.2,-165778.8,-83782.6,15903.89,-375000,-375000,-139689.3,-119845.1,0.03,0.00,0.88,-4,0,-2,35,0
'[12:42:01.320 21/01/2026]',-106236.1,-165784.5,-83790.48,15915.96,-375000,-375000,-139684.2,-119845.2,0.03,0.00,0.88,-4,0,-2,35,0
'[12:42:01.324 21/01/2026]',-106229.4,-165784,-83785.29,15911.94,-375000,-375000,-139684.5,-119844.6,0.03,0.00,0.88,-4,0,-2,35,0
'[12:42:01.328 21/01/2026]',-106226.4,-165775.7,-83777.64,15902.86,-375000,-375000,-139686.8,-119842.7,0.03,0.00,0.88,-4,0,-2,35,0
'[12:42:01.332 21/01/2026]',-106231.8,-165772.2,-83774.88,15903.31,-375000,-375000,-139683.7,-119842.8,0.03,0.00,0.89,-4,0,-2,35,0
'[12:42:01.336 21/01/2026]',-106241.6,-165782.8,-83779.92,15911,-375000,-375000,-139679.4,-119847.4,0.03,0.00,0.89,-4,0,-2,35,0
'[12:42:01.340 21/01/2026]',-106232.6,-165788.4,-83779.79,15913.99,-375000,-375000,-139679,-119843.8,0.03,0.00,0.89,-4,0,-2,35,0
'[12:42:01.344 21/01/2026]',-106212.2,-165778.9,-83768.57,15910.37,-375000,-375000,-139681.1,-119841.7,0.03,0.00,0.89,-4,0,-2,35,0
'[12:42:01.348 21/01/2026]',-106209.8,-165781.9,-83768.08,15905.81,-375000,-375000,-139681.1,-119843.1,0.03,0.00,0.89,-4,0,-2,35,0
'[12:42:01.352 21/01/2026]',-106226.6,-165786,-83777.73,15916.36,-375000,-375000,-139677.7,-119844.8,0.03,0.00,0.89,-4,0,-2,35,0
'[12:42:01.356 21/01/2026]',-106225.4,-165782.5,-83777.78,15925.3,-375000,-375000,-139675,-119840.4,0.03,0.00,0.89,-4,0,-2,35,0
'[12:42:01.360 21/01/2026]',-106219.6,-165774.5,-83767,15911.67,-375000,-375000,-139682,-119836.9,0.03,0.00,0.89,-4,0,-2,35,0
'[12:42:01.364 21/01/2026]',-106219.8,-165774.2,-83763.12,15908.27,-375000,-375000,-139681.5,-119839.4,0.03,0.00,0.89,-4,0,-2,35,0
'[12:42:01.368 21/01/2026]',-106219,-165774.2,-83771.56,15922.26,-375000,-375000,-139673.2,-119834.2,0.02,0.00,0.86,-4,0,-2,35,0
'[12:42:01.372 21/01/2026]',-106223,-165775.6,-83778.09,15927.32,-375000,-375000,-139673.6,-119834.9,0.02,0.00,0.86,-4,0,-2,35,0
'[12:42:01.376 21/01/2026]',-106222.6,-165779.6,-83775.81,15911.18,-375000,-375000,-139686.3,-119843,0.02,0.00,0.86,-4,0,-2,35,0
'[12:42:01.380 21/01/2026]',-106219.4,-165782.5,-83774.16,15904.03,-375000,-375000,-139688.2,-119842.4,0.02,0.00,0.86,-4,0,-2,35,0
'[12:42:01.384 21/01/2026]',-106211.4,-165781.4,-83769.95,15918.91,-375000,-375000,-139675.9,-119836.7,0.02,0.00,0.86,-4,0,-2,35,0
'[12:42:01.388 21/01/2026]',-106215.8,-165785.3,-83774.16,15923.61,-375000,-375000,-139674.1,-119840.3,0.02,0.00,0.86,-4,0,-2,35,0
'[12:42:01.392 21/01/2026]',-106217.1,-165780.4,-83772.37,15917.75,-375000,-375000,-139679.4,-119839.5,0.02,0.00,0.86,-4,0,-2,35,0
'[12:42:01.396 21/01/2026]',-106223.4,-165780.1,-83770.63,15904.07,-375000,-375000,-139686.8,-119845.4,0.02,0.00,0.86,-4,0,-2,35,0
'[12:42:01.400 21/01/2026]',-106223.5,-165778.3,-83773.3,15910.82,-375000,-375000,-139680.4,-119845.4,0.02,0.00,0.86,-4,0,-2,35,0
'[12:42:01.404 21/01/2026]',-106233.5,-165784,-83778.36,15917.08,-375000,-375000,-139679,-119845,0.02,0.00,0.88,-4,0,-2,35,0
'[12:42:01.408 21/01/2026]',-106229.4,-165787.8,-83776.39,15911.27,-375000,-375000,-139688.3,-119846.6,0.02,0.00,0.88,-4,0,-2,35,0
'[12:42:01.412 21/01/2026]',-106219.2,-165781.6,-83767,15907.38,-375000,-375000,-139688.1,-119849,0.02,0.00,0.88,-4,0,-2,35,0
'[12:42:01.416 21/01/2026]',-106221.8,-165783.2,-83779.12,15907.96,-375000,-375000,-139686.2,-119849.9,0.02,0.00,0.88,-4,0,-2,35,0
'[12:42:01.420 21/01/2026]',-106222.1,-165782,-83781.45,15919.4,-375000,-375000,-139676.5,-119840.3,0.02,0.00,0.88,-4,0,-2,35,0
'[12:42:01.424 21/01/2026]',-106220.6,-165779.4,-83776.75,15915.74,-375000,-375000,-139682.1,-119846.8,0.02,0.00,0.88,-4,0,-2,35,0
'[12:42:01.428 21/01/2026]',-106223.7,-165774.9,-83772.68,15906.53,-375000,-375000,-139684.4,-119842.3,0.02,0.00,0.88,-4,0,-2,35,0
'[12:42:01.432 21/01/2026]',-106224.6,-165773.9,-83776.17,15903.71,-375000,-375000,-139679.8,-119838.9,0.02,0.00,0.88,-4,0,-2,35,0
'[12:42:01.436 21/01/2026]',-106222.7,-165770.6,-83780.73,15923.56,-375000,-375000,-139669.9,-119833.3,0.02,0.00,0.88,-4,0,-2,35,0
'[12:42:01.440 21/01/2026]',-106229.1,-165769.4,-83773.35,15926.6,-375000,-375000,-139670.8,-119835.1,0.03,0.00,0.88,-4,0,-2,35,0
'[12:42:01.444 21/01/2026]',-106218.7,-165770.9,-83767.59,15914.8,-375000,-375000,-139681,-119840.9,0.03,0.00,0.88,-4,0,-2,35,0
'[12:42:01.448 21/01/2026]',-106222.7,-165779,-83769.41,15906.57,-375000,-375000,-139681.6,-119844,0.03,0.00,0.88,-4,0,-2,35,0
'[12:42:01.452 21/01/2026]',-106228.2,-165779.3,-83773.84,15920.16,-375000,-375000,-139673.8,-119841.6,0.03,0.00,0.88,-4,0,-2,35,0
'[12:42:01.456 21/01/2026]',-106223.7,-165771.7,-83770.13,15929.6,-375000,-375000,-139671.9,-119838.7,0.03,0.00,0.88,-4,0,-2,35,0
'[12:42:01.460 21/01/2026]',-106215.9,-165774.8,-83764.1,15915.92,-375000,-375000,-139679.4,-119839.2,0.03,0.00,0.88,-4,0,-2,35,0
'[12:42:01.464 21/01/2026]',-106205.7,-165769.1,-83762.63,15910.91,-375000,-375000,-139679,-119836.5,0.03,0.00,0.88,-4,0,-2,35,0
'[12:42:01.468 21/01/2026]',-106214,-165777.1,-83778.45,15916.14,-375000,-375000,-139678.8,-119845.2,0.03,0.00,0.88,-4,0,-2,35,0
'[12:42:01.472 21/01/2026]',-106223,-165782,-83777.51,15923.65,-375000,-375000,-139676.8,-119841.1,0.03,0.00,0.88,-4,0,-2,35,0
'[12:42:01.476 21/01/2026]',-106209.8,-165776.6,-83759.09,15911.71,-375000,-375000,-139682.9,-119840.9,0.03,-0.02,0.88,-4,0,-2,35,0
'[12:42:01.480 21/01/2026]',-106211.7,-165778.5,-83765.04,15904.88,-375000,-375000,-139688.9,-119842,0.03,-0.02,0.88,-4,0,-2,35,0
'[12:42:01.484 21/01/2026]',-106226.4,-165779.2,-83777.29,15916.41,-375000,-375000,-139682.5,-119843.1,0.03,-0.02,0.88,-4,0,-2,35,0
'[12:42:01.488 21/01/2026]',-106237.2,-165781.8,-83786,15923.16,-375000,-375000,-139682.1,-119845.3,0.03,-0.02,0.88,-4,0,-2,35,0
'[12:42:01.492 21/01/2026]',-106224,-165772.7,-83775.05,15915.25,-375000,-375000,-139681,-119836.5,0.03,-0.02,0.88,-4,0,-2,35,0
'[12:42:01.496 21/01/2026]',-106219.9,-165772.2,-83765.75,15904.38,-375000,-375000,-139680.6,-119833.5,0.03,-0.02,0.88,-4,0,-2,35,0
'[12:42:01.500 21/01/2026]',-106228.1,-165774.9,-83770.4,15912.12,-375000,-375000,-139678.7,-119839.2,0.03,-0.02,0.88,-4,0,-2,35,0
'[12:42:01.504 21/01/2026]',-106233.6,-165782.3,-83778.59,15915.65,-375000,-375000,-139679.1,-119843.6,0.03,-0.02,0.88,-4,0,-2,35,0
'[12:42:01.508 21/01/2026]',-106222,-165783.1,-83775.27,15907.74,-375000,-375000,-139684.1,-119843.2,0.03,-0.02,0.88,-4,0,-2,35,0
'[12:42:01.512 21/01/2026]',-106207.8,-165775.7,-83767.59,15903.53,-375000,-375000,-139682.9,-119839.4,0.03,0.02,0.88,-4,0,-2,35,0
'[12:42:01.516 21/01/2026]',-106229.6,-165782.5,-83776.21,15905.46,-375000,-375000,-139683.3,-119840.7,0.03,0.02,0.88,-4,0,-2,35,0
'[12:42:01.520 21/01/2026]',-106239.3,-165788.4,-83783.01,15915.51,-375000,-375000,-139679.6,-119843.2,0.03,0.02,0.88,-4,0,-2,35,0
'[12:42:01.524 21/01/2026]',-106229.3,-165790.3,-83778.27,15908.72,-375000,-375000,-139685.9,-119849.8,0.03,0.02,0.88,-4,0,-2,35,0
'[12:42:01.528 21/01/2026]',-106217.6,-165777.8,-83764.77,15904.03,-375000,-375000,-139681.7,-119841.9,0.03,0.02,0.88,-4,0,-2,35,0
'[12:42:01.532 21/01/2026]',-106219.7,-165777.4,-83771.7,15904.79,-375000,-375000,-139675.1,-119836.7,0.03,0.02,0.88,-4,0,-2,35,0
'[12:42:01.536 21/01/2026]',-106220.4,-165781.8,-83780.02,15920.3,-375000,-375000,-139673.1,-119842.5,0.03,0.02,0.88,-4,0,-2,35,0
'[12:42:01.540 21/01/2026]',-106217.9,-165774.7,-83764.91,15926.87,-375000,-375000,-139665.9,-119836.1,0.03,0.02,0.88,-4,0,-2,35,0
'[12:42:01.544 21/01/2026]',-106224.1,-165774.3,-83761.86,15916.32,-375000,-375000,-139669.8,-119829.1,0.03,0.02,0.88,-4,0,-2,35,0
'[12:42:01.548 21/01/2026]',-106224.6,-165773,-83769.91,15910.82,-375000,-375000,-139672.7,-119833.2,0.02,0.00,0.88,-4,0,-2,35,0
'[12:42:01.552 21/01/2026]',-106228,-165774.8,-83776.17,15925.8,-375000,-375000,-139668,-119834.8,0.02,0.00,0.88,-4,0,-2,35,0
'[12:42:01.556 21/01/2026]',-106216.1,-165778.1,-83770.09,15928.84,-375000,-375000,-139668.3,-119835.3,0.02,0.00,0.88,-4,0,-2,35,0
'[12:42:01.560 21/01/2026]',-106214.2,-165778.6,-83761.86,15914.49,-375000,-375000,-139678.1,-119840.8,0.02,0.00,0.88,-4,0,-2,35,0
'[12:42:01.564 21/01/2026]',-106214.2,-165772.3,-83767.77,15909.26,-375000,-375000,-139676.5,-119841.1,0.02,0.00,0.88,-4,0,-2,35,0
'[12:42:01.568 21/01/2026]',-106205.9,-165771.2,-83771.7,15925.44,-375000,-375000,-139665.4,-119832,0.02,0.00,0.88,-4,0,-2,35,0
'[12:42:01.572 21/01/2026]',-106215.1,-165770.7,-83768.93,15932.59,-375000,-375000,-139664.3,-119831.6,0.02,0.00,0.88,-4,0,-2,35,0
'[12:42:01.576 21/01/2026]',-106215.6,-165765.8,-83763.34,15919.76,-375000,-375000,-139673.5,-119829.8,0.02,0.00,0.88,-4,0,-2,35,0
'[12:42:01.580 21/01/2026]',-106216.2,-165765.7,-83760.66,15919.05,-375000,-375000,-139675.7,-119831.8,0.02,0.00,0.88,-4,0,-2,35,0
'[12:42:01.584 21/01/2026]',-106229.2,-165775.4,-83769.59,15917.48,-375000,-375000,-139675.1,-119836.5,0.02,0.00,0.88,-4,0,-2,35,0
'[12:42:01.588 21/01/2026]',-106231.3,-165776.1,-83772.05,15931.29,-375000,-375000,-139670.7,-119836.5,0.02,0.00,0.88,-4,0,-2,35,0
'[12:42:01.592 21/01/2026]',-106220.7,-165773.8,-83767.41,15921.42,-375000,-375000,-139678.9,-119842.6,0.02,0.00,0.88,-4,0,-2,35,0
'[12:42:01.596 21/01/2026]',-106212.3,-165765.8,-83756.9,15912.61,-375000,-375000,-139681,-119841.4,0.02,0.00,0.88,-4,0,-2,35,0
'[12:42:01.600 21/01/2026]',-106219.4,-165764.9,-83764.68,15917.79,-375000,-375000,-139676.1,-119839.1,0.02,0.00,0.88,-4,0,-2,35,0
'[12:42:01.604 21/01/2026]',-106227.6,-165770.1,-83773.3,15925.3,-375000,-375000,-139675.5,-119839.9,0.02,0.00,0.88,-4,0,-2,35,0
'[12:42:01.608 21/01/2026]',-106229.8,-165778.6,-83776.39,15911.36,-375000,-375000,-139688.3,-119848.4,0.02,0.00,0.88,-4,0,-2,35,0
'[12:42:01.612 21/01/2026]',-106221.3,-165772.8,-83773.35,15896.25,-375000,-375000,-139690.4,-119844.5,0.02,0.00,0.88,-4,0,-2,35,0
'[12:42:01.616 21/01/2026]',-106227.1,-165775.4,-83777.78,15900.63,-375000,-375000,-139686.2,-119843,0.02,0.00,0.88,-4,0,-2,35,0
'[12:42:01.620 21/01/2026]',-106233.2,-165782.5,-83782.6,15914.93,-375000,-375000,-139680.8,-119846.6,0.03,0.00,0.88,-4,0,-2,35,0
'[12:42:01.624 21/01/2026]',-106226.8,-165786.1,-83782.12,15902.24,-375000,-375000,-139689.6,-119853.9,0.03,0.00,0.88,-4,0,-2,35,0
'[12:42:01.628 21/01/2026]',-106223.3,-165780,-83770.27,15893.57,-375000,-375000,-139689.5,-119845.8,0.03,0.00,0.88,-4,0,-2,35,0
'[12:42:01.632 21/01/2026]',-106232.6,-165780.9,-83773.48,15895.35,-375000,-375000,-139686.7,-119843.3,0.03,0.00,0.88,-4,0,-2,35,0
'[12:42:01.636 21/01/2026]',-106226.2,-165778.6,-83778.54,15917.08,-375000,-375000,-139677.6,-119841.2,0.03,0.00,0.88,-4,0,-2,35,0
'[12:42:01.640 21/01/2026]',-106213.4,-165775.2,-83776.3,15915.16,-375000,-375000,-139680.2,-119838.7,0.03,0.00,0.88,-4,0,-2,35,0
'[12:42:01.644 21/01/2026]',-106205.5,-165771.1,-83771.7,15903.13,-375000,-375000,-139682.3,-119833.3,0.03,0.00,0.88,-4,0,-2,35,0
'[12:42:01.648 21/01/2026]',-106220.6,-165777.3,-83776.08,15898.93,-375000,-375000,-139684.8,-119840.2,0.03,0.00,0.88,-4,0,-2,35,0
'[12:42:01.652 21/01/2026]',-106235.3,-165777.8,-83779.84,15913.82,-375000,-375000,-139680.4,-119845.5,0.03,0.00,0.88,-4,0,-2,35,0
'[12:42:01.656 21/01/2026]',-106231.2,-165786.1,-83782.7,15906.22,-375000,-375000,-139686.1,-119852,0.02,0.00,0.88,-4,0,-2,35,0
'[12:42:01.660 21/01/2026]',-106211.6,-165782.9,-83775.77,15894.06,-375000,-375000,-139689.1,-119849.9,0.02,0.00,0.88,-4,0,-2,35,0
'[12:42:01.664 21/01/2026]',-106212,-165781.8,-83770.94,15892.49,-375000,-375000,-139688.9,-119850.4,0.02,0.00,0.88,-4,0,-2,35,0
'[12:42:01.668 21/01/2026]',-106238,-165786.1,-83780.68,15901.66,-375000,-375000,-139688.2,-119853.7,0.02,0.00,0.88,-4,0,-2,35,0
'[12:42:01.672 21/01/2026]',-106242.8,-165786.7,-83786.05,15905.41,-375000,-375000,-139686.6,-119852.1,0.02,0.00,0.88,-4,0,-2,35,0
'[12:42:01.676 21/01/2026]',-106228.7,-165783.2,-83776.62,15895.13,-375000,-375000,-139694,-119851.6,0.02,0.00,0.88,-4,0,-2,35,0
'[12:42:01.680 21/01/2026]',-106228.7,-165782.9,-83778.8,15886.23,-375000,-375000,-139699.3,-119857.1,0.02,0.00,0.88,-4,0,-2,35,0
'[12:42:01.684 21/01/2026]',-106235.6,-165784.3,-83790.02,15895.71,-375000,-375000,-139695.8,-119853.6,0.02,0.00,0.88,-4,0,-2,35,0
'[12:42:01.688 21/01/2026]',-106227.8,-165784,-83788.46,15908.58,-375000,-375000,-139687.6,-119849.7,0.02,0.00,0.88,-4,0,-2,35,0
'[12:42:01.692 21/01/2026]',-106219.8,-165786.5,-83780.1,15900.67,-375000,-375000,-139690,-119851.3,0.02,0.00,0.89,-4,0,-2,35,0
'[12:42:01.696 21/01/2026]',-106220.9,-165787.2,-83778.94,15891.02,-375000,-375000,-139693.8,-119848.8,0.02,0.00,0.89,-4,0,-2,35,0
'[12:42:01.700 21/01/2026]',-106238.5,-165792.1,-83784.8,15900.72,-375000,-375000,-139688.9,-119849.7,0.02,0.00,0.89,-4,0,-2,35,0
'[12:42:01.704 21/01/2026]',-106256.7,-165795.1,-83788.02,15909.93,-375000,-375000,-139686.1,-119850.7,0.02,0.00,0.89,-4,0,-2,35,0
'[12:42:01.708 21/01/2026]',-106243.3,-165786,-83782.25,15906.22,-375000,-375000,-139689.2,-119849.8,0.02,0.00,0.89,-4,0,-2,35,0
'[12:42:01.712 21/01/2026]',-106235.6,-165780,-83777.51,15896.38,-375000,-375000,-139689.9,-119844.6,0.02,0.00,0.89,-4,0,-2,35,0
'[12:42:01.716 21/01/2026]',-106237.3,-165779,-83779.43,15902.33,-375000,-375000,-139686.7,-119842,0.02,0.00,0.89,-4,0,-2,35,0
'[12:42:01.720 21/01/2026]',-106239.4,-165783.9,-83786.8,15911.45,-375000,-375000,-139686.8,-119848,0.02,0.00,0.89,-4,0,-2,35,0
'[12:42:01.724 21/01/2026]',-106228.5,-165788.3,-83786.63,15903.94,-375000,-375000,-139693.7,-119852.5,0.02,0.00,0.89,-4,0,-2,35,0
'[12:42:01.728 21/01/2026]',-106217.5,-165787.4,-83782.25,15881.99,-375000,-375000,-139703.7,-119856.1,0.03,0.00,0.88,-4,0,-2,35,0
'[12:42:01.732 21/01/2026]',-106226.6,-165786.8,-83781.27,15890.93,-375000,-375000,-139696.8,-119853.1,0.03,0.00,0.88,-4,0,-2,35,0
'[12:42:01.736 21/01/2026]',-106237.7,-165788.7,-83789.84,15909.43,-375000,-375000,-139687.5,-119851.5,0.03,0.00,0.88,-4,0,-2,35,0
'[12:42:01.740 21/01/2026]',-106223.8,-165784.4,-83785.55,15912.38,-375000,-375000,-139689.5,-119854.1,0.03,0.00,0.88,-4,0,-2,35,0
'[12:42:01.744 21/01/2026]',-106224.4,-165777.6,-83773.3,15900.09,-375000,-375000,-139692.1,-119846.8,0.03,0.00,0.88,-4,0,-2,35,0
'[12:42:01.748 21/01/2026]',-106231.1,-165778.9,-83776.62,15898.66,-375000,-375000,-139691.9,-119850.2,0.03,0.00,0.88,-4,0,-2,35,0
'[12:42:01.752 21/01/2026]',-106239.4,-165784.9,-83786.98,15911.71,-375000,-375000,-139690.6,-119854.5,0.03,0.00,0.88,-4,0,-2,35,0
'[12:42:01.756 21/01/2026]',-106234.9,-165787.6,-83787.66,15911.04,-375000,-375000,-139692.8,-119858.6,0.03,0.00,0.88,-4,0,-2,35,0
'[12:42:01.760 21/01/2026]',-106227.3,-165782.1,-83774.78,15895.04,-375000,-375000,-139699.8,-119858.2,0.03,0.00,0.88,-4,0,-2,35,0
'[12:42:01.764 21/01/2026]',-106229.8,-165779.9,-83778.23,15895.26,-375000,-375000,-139698,-119856.8,0.02,0.00,0.88,-4,0,-2,35,0
'[12:42:01.768 21/01/2026]',-106236.2,-165785.1,-83790.2,15903.09,-375000,-375000,-139696.3,-119864.1,0.02,0.00,0.88,-4,0,-2,35,0
'[12:42:01.772 21/01/2026]',-106244.3,-165790.8,-83795.44,15904.56,-375000,-375000,-139701.8,-119872.1,0.02,0.00,0.88,-4,0,-2,35,0
'[12:42:01.776 21/01/2026]',-106237.9,-165787.2,-83787.12,15891.51,-375000,-375000,-139706.4,-119865.7,0.02,0.00,0.88,-4,0,-2,35,0
'[12:42:01.780 21/01/2026]',-106226.8,-165774.2,-83775.63,15896.29,-375000,-375000,-139697.1,-119854,0.02,0.00,0.88,-4,0,-2,35,0
'[12:42:01.784 21/01/2026]',-106226.4,-165779.4,-83784.35,15907.56,-375000,-375000,-139689.5,-119854.2,0.02,0.00,0.88,-4,0,-2,35,0
'[12:42:01.788 21/01/2026]',-106227.6,-165790.3,-83788.91,15908.54,-375000,-375000,-139694,-119862.2,0.02,0.00,0.88,-4,0,-2,35,0
'[12:42:01.792 21/01/2026]',-106225.1,-165783.6,-83776.84,15905.28,-375000,-375000,-139694,-119860.2,0.02,0.00,0.88,-4,0,-2,35,0
'[12:42:01.796 21/01/2026]',-106220.4,-165774.9,-83771.34,15899.6,-375000,-375000,-139687.5,-119850.3,0.02,0.00,0.88,-4,0,-2,35,0
'[12:42:01.800 21/01/2026]',-106225.8,-165780.7,-83781.27,15906.98,-375000,-375000,-139686.6,-119852.1,0.03,0.00,0.88,-4,0,-2,35,0
'[12:42:01.804 21/01/2026]',-106232.6,-165779.7,-83782.25,15925.39,-375000,-375000,-139678.9,-119846.2,0.03,0.00,0.88,-4,0,-2,35,0
'[12:42:01.808 21/01/2026]',-106225.1,-165776.1,-83774.2,15920.21,-375000,-375000,-139681.4,-119844.5,0.03,0.00,0.88,-4,0,-2,35,0
'[12:42:01.812 21/01/2026]',-106219.2,-165774.6,-83771.16,15908.09,-375000,-375000,-139689.2,-119849.8,0.03,0.00,0.88,-4,0,-2,35,0
'[12:42:01.816 21/01/2026]',-106227.2,-165779.6,-83779.66,15907.65,-375000,-375000,-139692.5,-119856.6,0.03,0.00,0.88,-4,0,-2,35,0
'[12:42:01.820 21/01/2026]',-106237.9,-165788.8,-83792.09,15905.9,-375000,-375000,-139698.4,-119866.3,0.03,0.00,0.88,-4,0,-2,35,0
'[12:42:01.824 21/01/2026]',-106227.9,-165784.9,-83788.73,15902.73,-375000,-375000,-139698.7,-119862.7,0.03,0.00,0.88,-4,0,-2,35,0
'[12:42:01.828 21/01/2026]',-106217.3,-165772.3,-83778.23,15898.3,-375000,-375000,-139689.6,-119845.2,0.03,0.00,0.88,-4,0,-2,35,0
'[12:42:01.832 21/01/2026]',-106223.6,-165777.5,-83786.27,15898.48,-375000,-375000,-139689,-119849.7,0.03,0.00,0.88,-4,0,-2,35,0
'[12:42:01.836 21/01/2026]',-106243.8,-165788.3,-83794.95,15908.58,-375000,-375000,-139684.6,-119850.6,0.02,0.00,0.89,-4,0,-2,35,0
'[12:42:01.840 21/01/2026]',-106243.6,-165790.3,-83790.74,15906.89,-375000,-375000,-139690.3,-119853,0.02,0.00,0.89,-4,0,-2,35,0
'[12:42:01.844 21/01/2026]',-106235.5,-165787,-83786.14,15891.91,-375000,-375000,-139698.5,-119855.6,0.02,0.00,0.89,-4,0,-2,35,0
'[12:42:01.848 21/01/2026]',-106227.8,-165781,-83782.16,15892.85,-375000,-375000,-139695.1,-119855,0.02,0.00,0.89,-4,0,-2,35,0
'[12:42:01.852 21/01/2026]',-106247,-165787,-83791.81,15901.21,-375000,-375000,-139691.5,-119852.9,0.02,0.00,0.89,-4,0,-2,35,0
'[12:42:01.856 21/01/2026]',-106249.6,-165792.2,-83796.42,15900.27,-375000,-375000,-139697.1,-119859.5,0.02,0.00,0.89,-4,0,-2,35,0
'[12:42:01.860 21/01/2026]',-106234.7,-165789,-83787.39,15891.91,-375000,-375000,-139700.6,-119856.4,0.02,0.00,0.89,-4,0,-2,35,0
'[12:42:01.864 21/01/2026]',-106235.6,-165784,-83788.46,15886.1,-375000,-375000,-139696,-119853.9,0.02,0.00,0.89,-4,0,-2,35,0
'[12:42:01.868 21/01/2026]',-106239.6,-165782.3,-83796.06,15898.84,-375000,-375000,-139690.4,-119858.1,0.02,0.00,0.89,-4,0,-2,35,0
'[12:42:01.872 21/01/2026]',-106248.8,-165780.8,-83789.63,15912.65,-375000,-375000,-139684.1,-119848.9,0.03,0.00,0.88,-4,0,-2,35,0
'[12:42:01.876 21/01/2026]',-106243.1,-165771.5,-83783.55,15908.63,-375000,-375000,-139685.6,-119844.1,0.03,0.00,0.88,-4,0,-2,35,0
'[12:42:01.880 21/01/2026]',-106231,-165763.8,-83777.29,15903.76,-375000,-375000,-139682.1,-119839.4,0.03,0.00,0.88,-4,0,-2,35,0
'[12:42:01.884 21/01/2026]',-106239,-165776.9,-83787.08,15911.27,-375000,-375000,-139678.2,-119842.7,0.03,0.00,0.88,-4,0,-2,35,0
'[12:42:01.888 21/01/2026]',-106233.7,-165771.3,-83785.82,15922.58,-375000,-375000,-139670.5,-119837.8,0.03,0.00,0.88,-4,0,-2,35,0
'[12:42:01.892 21/01/2026]',-106230,-165774.7,-83782.07,15907.07,-375000,-375000,-139681.7,-119848.9,0.03,0.00,0.88,-4,0,-2,35,0
'[12:42:01.896 21/01/2026]',-106226.2,-165774.6,-83781.04,15899.38,-375000,-375000,-139681.4,-119844.1,0.03,0.00,0.88,-4,0,-2,35,0
'[12:42:01.900 21/01/2026]',-106238.4,-165777.5,-83787.92,15905.72,-375000,-375000,-139684,-119852.1,0.03,0.00,0.88,-4,0,-2,35,0
'[12:42:01.904 21/01/2026]',-106249.5,-165778.2,-83788.95,15911.36,-375000,-375000,-139676.8,-119844,0.03,0.00,0.88,-4,0,-2,35,0
'[12:42:01.908 21/01/2026]',-106244.7,-165779.8,-83790.65,15895.62,-375000,-375000,-139686.9,-119850.3,0.02,0.00,0.88,-4,0,-2,35,0
'[12:42:01.912 21/01/2026]',-106231.8,-165772.7,-83782.92,15895.62,-375000,-375000,-139684.8,-119840,0.02,0.00,0.88,-4,0,-2,35,0
'[12:42:01.916 21/01/2026]',-106231.8,-165773.4,-83784.7,15900.49,-375000,-375000,-139680.1,-119842,0.02,0.00,0.88,-4,0,-2,35,0
'[12:42:01.920 21/01/2026]',-106245.4,-165779.3,-83789.22,15911.27,-375000,-375000,-139677.6,-119843.6,0.02,0.00,0.88,-4,0,-2,35,0
'[12:42:01.924 21/01/2026]',-106241.5,-165775.7,-83785.47,15908.5,-375000,-375000,-139679.7,-119843.8,0.02,0.00,0.88,-4,0,-2,35,0
'[12:42:01.928 21/01/2026]',-106234.3,-165765.8,-83777.2,15900.09,-375000,-375000,-139678.6,-119838.8,0.02,0.00,0.88,-4,0,-2,35,0
'[12:42:01.932 21/01/2026]',-106244.6,-165767.5,-83780.86,15905.41,-375000,-375000,-139676.9,-119842.5,0.02,0.00,0.88,-4,0,-2,35,0
'[12:42:01.936 21/01/2026]',-106252.9,-165776.7,-83787.52,15911.36,-375000,-375000,-139673.9,-119837,0.02,0.00,0.88,-4,0,-2,35,0
'[12:42:01.940 21/01/2026]',-106245.2,-165778.5,-83783.68,15910.69,-375000,-375000,-139675.1,-119840.9,0.02,0.00,0.88,-4,0,-2,35,0
'[12:42:01.944 21/01/2026]',-106236.1,-165779,-83779.43,15896.92,-375000,-375000,-139689.8,-119852.7,0.05,0.00,0.89,-4,0,-2,35,0
'[12:42:01.948 21/01/2026]',-106231.7,-165775.3,-83780.86,15902.37,-375000,-375000,-139685.2,-119849.6,0.05,0.00,0.89,-4,0,-2,35,0
'[12:42:01.952 21/01/2026]',-106237.9,-165772.9,-83782.74,15916.59,-375000,-375000,-139677.9,-119841.9,0.05,0.00,0.89,-4,0,-2,35,0
'[12:42:01.956 21/01/2026]',-106246.4,-165777.3,-83781.84,15914.04,-375000,-375000,-139686.6,-119849.9,0.05,0.00,0.89,-4,0,-2,35,0
'[12:42:01.960 21/01/2026]',-106237.8,-165774.3,-83780.46,15897.5,-375000,-375000,-139696.8,-119855.5,0.05,0.00,0.89,-4,0,-2,35,0
'[12:42:01.964 21/01/2026]',-106230.1,-165766.6,-83779.88,15901.83,-375000,-375000,-139690,-119848.4,0.05,0.00,0.89,-4,0,-2,35,0
'[12:42:01.968 21/01/2026]',-106239.4,-165766.8,-83790.83,15912.83,-375000,-375000,-139689.3,-119855.7,0.05,0.00,0.89,-4,0,-2,35,0
'[12:42:01.972 21/01/2026]',-106236.8,-165768.8,-83791.5,15915.65,-375000,-375000,-139690.3,-119854.3,0.05,0.00,0.89,-4,0,-2,35,0
'[12:42:01.976 21/01/2026]',-106231.8,-165780.1,-83788.59,15896.87,-375000,-375000,-139703.1,-119860,0.05,0.00,0.89,-4,0,-2,35,0
'[12:42:01.980 21/01/2026]',-106236.5,-165778.4,-83784.84,15889.09,-375000,-375000,-139702.4,-119864.6,0.03,0.00,0.88,-4,0,-2,35,0
'[12:42:01.984 21/01/2026]',-106252.6,-165779.4,-83791.28,15902.33,-375000,-375000,-139696.3,-119858.6,0.03,0.00,0.88,-4,0,-2,35,0
'[12:42:01.988 21/01/2026]',-106251.6,-165776.5,-83791.05,15918.64,-375000,-375000,-139689.5,-119852.2,0.03,0.00,0.88,-4,0,-2,35,0
'[12:42:01.992 21/01/2026]',-106225.7,-165754.5,-83778.41,15910.15,-375000,-375000,-139699.6,-119857.4,0.03,0.00,0.88,-4,0,-2,35,0
'[12:42:01.996 21/01/2026]',-106209.1,-165755.9,-83766.55,15905.9,-375000,-375000,-139690.7,-119848.4,0.03,0.00,0.88,-4,0,-2,35,0
'[12:42:02.000 21/01/2026]',-106227.7,-165782.6,-83773.98,15914.22,-375000,-375000,-139675.9,-119839.8,0.03,0.00,0.88,-4,0,-2,35,0
'[12:42:02.004 21/01/2026]',-106231.8,-165785,-83782.29,15926.33,-375000,-375000,-139674.8,-119841,0.03,0.00,0.88,-4,0,-2,35,0
'[12:42:02.008 21/01/2026]',-106223.8,-165774.8,-83777.38,15911.76,-375000,-375000,-139689.5,-119849.2,0.03,0.00,0.88,-4,0,-2,35,0
'[12:42:02.012 21/01/2026]',-106220.4,-165779.3,-83773.48,15897.72,-375000,-375000,-139693.1,-119849.5,0.03,0.00,0.88,-4,0,-2,35,0
'[12:42:02.016 21/01/2026]',-106237.7,-165784.7,-83777.24,15910.11,-375000,-375000,-139686.3,-119849.6,0.03,0.00,0.88,-4,0,-2,35,0
'[12:42:02.020 21/01/2026]',-106242.8,-165785.6,-83785.29,15919.18,-375000,-375000,-139686.6,-119856.7,0.03,0.00,0.88,-4,0,-2,35,0
'[12:42:02.024 21/01/2026]',-106243.4,-165790.6,-83784.8,15905.14,-375000,-375000,-139699.3,-119868.6,0.03,0.00,0.88,-4,0,-2,35,0
'[12:42:02.028 21/01/2026]',-106232,-165778.3,-83770.09,15902.06,-375000,-375000,-139692.6,-119850.1,0.03,0.00,0.88,-4,0,-2,35,0
'[12:42:02.032 21/01/2026]',-106226.3,-165774.2,-83770.27,15901.16,-375000,-375000,-139692.4,-119850.9,0.03,0.00,0.88,-4,0,-2,35,0
'[12:42:02.036 21/01/2026]',-106233.9,-165779.7,-83776.84,15915.69,-375000,-375000,-139683.3,-119848.8,0.03,0.00,0.88,-4,0,-2,35,0
'[12:42:02.040 21/01/2026]',-106235.7,-165785.9,-83779.88,15905.81,-375000,-375000,-139693.9,-119860.7,0.03,0.00,0.88,-4,0,-2,35,0
'[12:42:02.044 21/01/2026]',-106223.7,-165779.1,-83779.88,15884.45,-375000,-375000,-139700.4,-119858.3,0.03,0.00,0.88,-4,0,-2,35,0
'[12:42:02.048 21/01/2026]',-106221.2,-165776.6,-83779.88,15894.15,-375000,-375000,-139693.2,-119849.9,0.03,0.00,0.88,-4,0,-2,35,0
'[12:42:02.052 21/01/2026]',-106226,-165785.2,-83788.91,15898.57,-375000,-375000,-139692.5,-119856.3,0.03,0.00,0.88,-4,0,-2,35,0
'[12:42:02.056 21/01/2026]',-106232.9,-165792.4,-83794.59,15893.21,-375000,-375000,-139704.7,-119867.7,0.03,0.00,0.88,-4,0,-2,35,0
'[12:42:02.060 21/01/2026]',-106228.3,-165793.6,-83783.9,15885.61,-375000,-375000,-139709.8,-119872.1,0.03,0.00,0.88,-4,0,-2,35,0
'[12:42:02.064 21/01/2026]',-106229.4,-165793.2,-83779.34,15885.74,-375000,-375000,-139707.2,-119869.3,0.03,0.00,0.88,-4,0,-2,35,0
'[12:42:02.068 21/01/2026]',-106240.7,-165788.8,-83784.62,15900.63,-375000,-375000,-139698.3,-119861.8,0.03,0.00,0.88,-4,0,-2,35,0
'[12:42:02.072 21/01/2026]',-106245.9,-165791.7,-83786.8,15903.89,-375000,-375000,-139701.7,-119870.4,0.03,0.00,0.88,-4,0,-2,35,0
'[12:42:02.076 21/01/2026]',-106239.2,-165788.5,-83778.72,15892.94,-375000,-375000,-139705.9,-119865.4,0.03,0.00,0.88,-4,0,-2,35,0
'[12:42:02.080 21/01/2026]',-106233.3,-165786.1,-83774.29,15885.97,-375000,-375000,-139706.3,-119860.6,0.03,0.00,0.88,-4,0,-2,35,0
'[12:42:02.084 21/01/2026]',-106237.3,-165788.5,-83776.44,15899.51,-375000,-375000,-139700,-119859,0.03,0.00,0.88,-4,0,-2,35,0
'[12:42:02.088 21/01/2026]',-106233.9,-165789.5,-83784.57,15907.65,-375000,-375000,-139697.7,-119863.5,0.03,0.00,0.89,-4,0,-2,35,0
'[12:42:02.092 21/01/2026]',-106221.3,-165787.6,-83782.2,15897.23,-375000,-375000,-139702.7,-119862.3,0.03,0.00,0.89,-4,0,-2,35,0
'[12:42:02.096 21/01/2026]',-106224,-165781,-83776.8,15897.32,-375000,-375000,-139700.8,-119858.3,0.03,0.00,0.89,-4,0,-2,35,0
'[12:42:02.100 21/01/2026]',-106232.6,-165780.2,-83781.8,15907.92,-375000,-375000,-139694.7,-119857.9,0.03,0.00,0.89,-4,0,-2,35,0
'[12:42:02.104 21/01/2026]',-106234.6,-165781.4,-83787.03,15915.42,-375000,-375000,-139691.9,-119857.5,0.03,0.00,0.89,-4,0,-2,35,0
'[12:42:02.108 21/01/2026]',-106222.8,-165780.8,-83781.48,15905.1,-375000,-375000,-139695.4,-119858.7,0.03,0.00,0.89,-4,0,-2,35,0
'[12:42:02.112 21/01/2026]',-106220.9,-165767.5,-83769.64,15899.64,-375000,-375000,-139692.5,-119850.3,0.03,0.00,0.89,-4,0,-2,35,0
'[12:42:02.116 21/01/2026]',-106233.8,-165768.8,-83767.9,15906.71,-375000,-375000,-139688.9,-119851,0.03,0.00,0.89,-4,0,-2,35,0
'[12:42:02.120 21/01/2026]',-106238.1,-165776.6,-83782.07,15920.66,-375000,-375000,-139681.4,-119849.4,0.03,0.00,0.89,-4,0,-2,35,0
'[12:42:02.124 21/01/2026]',-106228.8,-165777.8,-83781.66,15911.71,-375000,-375000,-139687.7,-119855.3,0.03,0.00,0.88,-4,0,-2,35,0
'[12:42:02.128 21/01/2026]',-106222.3,-165779.4,-83775.54,15893.43,-375000,-375000,-139698.5,-119862.9,0.03,0.00,0.88,-4,0,-2,35,0
'[12:42:02.132 21/01/2026]',-106237,-165788.6,-83783.73,15887.98,-375000,-375000,-139703.7,-119868.6,0.03,0.00,0.88,-4,0,-2,35,0
'[12:42:02.136 21/01/2026]',-106241.4,-165793.8,-83788.02,15907.78,-375000,-375000,-139697.6,-119866.8,0.03,0.00,0.88,-4,0,-2,35,0
'[12:42:02.140 21/01/2026]',-106225.1,-165785.2,-83780.19,15913.23,-375000,-375000,-139692,-119856,0.03,0.00,0.88,-4,0,-2,35,0
'[12:42:02.144 21/01/2026]',-106215.1,-165780.2,-83776.84,15899.82,-375000,-375000,-139698.4,-119854.8,0.03,0.00,0.88,-4,0,-2,35,0
'[12:42:02.148 21/01/2026]',-106218.4,-165781.8,-83780.55,15898.93,-375000,-375000,-139695.6,-119860.9,0.03,0.00,0.88,-4,0,-2,35,0
'[12:42:02.152 21/01/2026]',-106237.4,-165779.6,-83785.55,15918.02,-375000,-375000,-139685.7,-119852,0.03,0.00,0.88,-4,0,-2,35,0
'[12:42:02.156 21/01/2026]',-106239.5,-165780.2,-83783.14,15911.13,-375000,-375000,-139694.2,-119856.5,0.03,0.00,0.88,-4,0,-2,35,0
'[12:42:02.160 21/01/2026]',-106231.2,-165783.3,-83778.41,15892.18,-375000,-375000,-139704.9,-119861.9,0.02,0.02,0.88,-4,0,-2,35,0
'[12:42:02.164 21/01/2026]',-106239.2,-165783.3,-83779.61,15897.9,-375000,-375000,-139701.9,-119860.2,0.02,0.02,0.88,-4,0,-2,35,0
'[12:42:02.168 21/01/2026]',-106250.1,-165785.8,-83786.45,15909.66,-375000,-375000,-139699.1,-119864.6,0.02,0.02,0.88,-4,0,-2,35,0
'[12:42:02.172 21/01/2026]',-106244.6,-165784.1,-83783.9,15915.25,-375000,-375000,-139695.2,-119861.7,0.02,0.02,0.88,-4,0,-2,35,0
'[12:42:02.176 21/01/2026]',-106228.7,-165781.3,-83775.99,15904.74,-375000,-375000,-139697.3,-119853.3,0.02,0.02,0.88,-4,0,-2,35,0
'[12:42:02.180 21/01/2026]',-106225.1,-165784.6,-83773.44,15894.01,-375000,-375000,-139702.5,-119859.8,0.02,0.02,0.88,-4,0,-2,35,0
'[12:42:02.184 21/01/2026]',-106231.4,-165788.2,-83779.43,15905.19,-375000,-375000,-139698.8,-119861.4,0.02,0.02,0.88,-4,0,-2,35,0
'[12:42:02.188 21/01/2026]',-106239.8,-165790.8,-83787.97,15909.12,-375000,-375000,-139697.8,-119865.6,0.02,0.02,0.88,-4,0,-2,35,0
'[12:42:02.192 21/01/2026]',-106233.1,-165786.3,-83783.73,15900.49,-375000,-375000,-139704.8,-119867.6,0.02,0.02,0.88,-4,0,-2,35,0
'[12:42:02.196 21/01/2026]',-106234.7,-165781.9,-83775.81,15891.82,-375000,-375000,-139707,-119864.9,0.02,0.00,0.89,-4,0,-2,35,0
'[12:42:02.200 21/01/2026]',-106238.8,-165784.5,-83784.26,15905.41,-375000,-375000,-139700.3,-119861.1,0.02,0.00,0.89,-4,0,-2,35,0
'[12:42:02.204 21/01/2026]',-106242.9,-165784.2,-83786.95,15918.06,-375000,-375000,-139695,-119855.6,0.02,0.00,0.89,-4,0,-2,35,0
'[12:42:02.208 21/01/2026]',-106232.3,-165780.7,-83778.85,15909.12,-375000,-375000,-139698.4,-119856.2,0.02,0.00,0.89,-4,0,-2,35,0
'[12:42:02.212 21/01/2026]',-106225.6,-165773.5,-83772.59,15901.43,-375000,-375000,-139698.6,-119854.7,0.02,0.00,0.89,-4,0,-2,35,0
'[12:42:02.216 21/01/2026]',-106227,-165774.9,-83778.45,15909.48,-375000,-375000,-139694,-119854,0.02,0.00,0.89,-4,0,-2,35,0
'[12:42:02.220 21/01/2026]',-106225.1,-165777.9,-83783.45,15920.43,-375000,-375000,-139689.5,-119854.6,0.02,0.00,0.89,-4,0,-2,35,0
'[12:42:02.224 21/01/2026]',-106222.7,-165775.2,-83780.02,15914.17,-375000,-375000,-139691.2,-119855,0.02,0.00,0.89,-4,0,-2,35,0
'[12:42:02.228 21/01/2026]',-106213.6,-165763.5,-83771.48,15913.01,-375000,-375000,-139688.5,-119851.2,0.02,0.00,0.89,-4,0,-2,35,0
'[12:42:02.232 21/01/2026]',-106229.4,-165765,-83774.11,15909.43,-375000,-375000,-139687.7,-119849.2,0.02,0.00,0.88,-4,0,-2,35,0
'[12:42:02.236 21/01/2026]',-106239.4,-165777.6,-83781.66,15919.49,-375000,-375000,-139685.9,-119852.7,0.02,0.00,0.88,-4,0,-2,35,0
'[12:42:02.240 21/01/2026]',-106233.7,-165781.1,-83780.77,15912.79,-375000,-375000,-139694,-119855.1,0.02,0.00,0.88,-4,0,-2,35,0
'[12:42:02.244 21/01/2026]',-106230.7,-165772.1,-83778.05,15899.82,-375000,-375000,-139697.8,-119855.7,0.02,0.00,0.88,-4,0,-2,35,0
'[12:42:02.248 21/01/2026]',-106237.4,-165777.6,-83787.7,15903.98,-375000,-375000,-139695,-119854,0.02,0.00,0.88,-4,0,-2,35,0
'[12:42:02.252 21/01/2026]',-106243.5,-165783.3,-83793.29,15909.26,-375000,-375000,-139691.4,-119856.4,0.02,0.00,0.88,-4,0,-2,35,0
'[12:42:02.256 21/01/2026]',-106243.6,-165784.4,-83786.72,15910.87,-375000,-375000,-139696.1,-119861.8,0.02,0.00,0.88,-4,0,-2,35,0
'[12:42:02.260 21/01/2026]',-106235,-165785.4,-83782.12,15893.92,-375000,-375000,-139701.6,-119861.1,0.02,0.00,0.88,-4,0,-2,35,0
'[12:42:02.264 21/01/2026]',-106222.1,-165782.5,-83783.68,15899.96,-375000,-375000,-139698.6,-119860.4,0.02,0.00,0.88,-4,0,-2,35,0
'[12:42:02.268 21/01/2026]',-106230.8,-165785.8,-83798.48,15905.46,-375000,-375000,-139698.1,-119864.2,0.03,0.00,0.88,-4,0,-2,35,0
'[12:42:02.272 21/01/2026]',-106250.8,-165786.8,-83798.52,15904.07,-375000,-375000,-139699.7,-119867,0.03,0.00,0.88,-4,0,-2,35,0
'[12:42:02.276 21/01/2026]',-106252.3,-165789.4,-83791.73,15894.73,-375000,-375000,-139707.8,-119872.2,0.03,0.00,0.88,-4,0,-2,35,0
'[12:42:02.280 21/01/2026]',-106255.5,-165789.9,-83789.18,15892.13,-375000,-375000,-139703,-119858.5,0.03,0.00,0.88,-4,0,-2,35,0
'[12:42:02.284 21/01/2026]',-106252.7,-165785.2,-83790.3,15907.2,-375000,-375000,-139688.9,-119851.8,0.03,0.00,0.88,-4,0,-2,35,0
'[12:42:02.288 21/01/2026]',-106243.5,-165788.3,-83792.71,15909.03,-375000,-375000,-139692,-119857.6,0.03,0.00,0.88,-4,0,-2,35,0
'[12:42:02.292 21/01/2026]',-106239.9,-165790,-83788.95,15894.24,-375000,-375000,-139701.7,-119861.4,0.03,0.00,0.88,-4,0,-2,35,0
'[12:42:02.296 21/01/2026]',-106241.1,-165793.3,-83790.48,15877.52,-375000,-375000,-139712.3,-119867.2,0.03,0.00,0.88,-4,0,-2,35,0
'[12:42:02.300 21/01/2026]',-106249.4,-165794.5,-83799.1,15889.81,-375000,-375000,-139709.2,-119868.4,0.03,0.00,0.88,-4,0,-2,35,0
'[12:42:02.304 21/01/2026]',-106260.3,-165799.9,-83804.51,15895.71,-375000,-375000,-139712,-119873.5,0.03,0.00,0.88,-4,0,-2,35,0
'[12:42:02.308 21/01/2026]',-106243.2,-165803.8,-83798.84,15883.64,-375000,-375000,-139723.6,-119881.7,0.03,0.00,0.88,-4,0,-2,35,0
'[12:42:02.312 21/01/2026]',-106235,-165800.3,-83795.26,15875.19,-375000,-375000,-139727,-119882.1,0.03,0.00,0.88,-4,0,-2,35,0
'[12:42:02.316 21/01/2026]',-106256,-165805.9,-83804.02,15876.04,-375000,-375000,-139730.1,-119892.1,0.03,0.00,0.88,-4,0,-2,35,0
'[12:42:02.320 21/01/2026]',-106260.7,-165805.7,-83802.81,15891.11,-375000,-375000,-139718.3,-119884.8,0.03,0.00,0.88,-4,0,-2,35,0
'[12:42:02.324 21/01/2026]',-106250.4,-165799.6,-83793.42,15884.31,-375000,-375000,-139720.1,-119881.4,0.03,0.00,0.88,-4,0,-2,35,0
'[12:42:02.328 21/01/2026]',-106242.1,-165791.1,-83783.9,15879.08,-375000,-375000,-139719.6,-119876,0.03,0.00,0.88,-4,0,-2,35,0
'[12:42:02.332 21/01/2026]',-106244.5,-165791.4,-83787.21,15890.57,-375000,-375000,-139710.9,-119868,0.03,0.00,0.88,-4,0,-2,35,0
'[12:42:02.336 21/01/2026]',-106251.2,-165796.2,-83797.54,15903.94,-375000,-375000,-139705.5,-119870.8,0.03,0.00,0.88,-4,0,-2,35,0
'[12:42:02.340 21/01/2026]',-106249.3,-165795.4,-83797.72,15898.3,-375000,-375000,-139711.2,-119876.4,0.03,0.00,0.88,-4,0,-2,35,0
'[12:42:02.344 21/01/2026]',-106237.2,-165786.8,-83786.18,15889.32,-375000,-375000,-139712.2,-119871.7,0.03,0.00,0.88,-4,0,-2,35,0
'[12:42:02.348 21/01/2026]',-106240.1,-165789.6,-83790.25,15889.41,-375000,-375000,-139710.7,-119871.3,0.03,0.00,0.88,-4,0,-2,35,0
'[12:42:02.352 21/01/2026]',-106244.4,-165788.3,-83798.12,15902.95,-375000,-375000,-139703.8,-119868.7,0.03,0.00,0.88,-4,0,-2,35,0
'[12:42:02.356 21/01/2026]',-106237.7,-165786.9,-83796.42,15902.77,-375000,-375000,-139702.7,-119866.6,0.03,0.00,0.88,-4,0,-2,35,0
'[12:42:02.360 21/01/2026]',-106217.5,-165779.8,-83780.95,15894.68,-375000,-375000,-139702.4,-119864,0.03,0.00,0.88,-4,0,-2,35,0
'[12:42:02.364 21/01/2026]',-106237.3,-165788.1,-83785.47,15891.51,-375000,-375000,-139705.5,-119867.8,0.03,0.00,0.88,-4,0,-2,35,0
'[12:42:02.368 21/01/2026]',-106253,-165791.9,-83793.52,15903.31,-375000,-375000,-139701,-119866.6,0.03,0.00,0.88,-4,0,-2,35,0
'[12:42:02.372 21/01/2026]',-106247.9,-165791.5,-83793.52,15909.21,-375000,-375000,-139702.2,-119867.4,0.03,0.00,0.88,-4,0,-2,35,0
'[12:42:02.376 21/01/2026]',-106242.1,-165789.8,-83790.52,15888.92,-375000,-375000,-139712.9,-119870.9,0.03,0.00,0.89,-4,0,-2,35,0
'[12:42:02.380 21/01/2026]',-106238.9,-165783.9,-83787.03,15890.84,-375000,-375000,-139707.7,-119866.3,0.03,0.00,0.89,-4,0,-2,35,0
'[12:42:02.384 21/01/2026]',-106240.5,-165787.5,-83796.11,15904.47,-375000,-375000,-139700.3,-119865,0.03,0.00,0.89,-4,0,-2,35,0
'[12:42:02.388 21/01/2026]',-106239.4,-165791.6,-83797,15909.03,-375000,-375000,-139700.7,-119866.2,0.03,0.00,0.89,-4,0,-2,35,0
'[12:42:02.392 21/01/2026]',-106233.1,-165793.7,-83790.61,15892.22,-375000,-375000,-139708.6,-119868,0.03,0.00,0.89,-4,0,-2,35,0
'[12:42:02.396 21/01/2026]',-106221.3,-165792.1,-83785.2,15879.44,-375000,-375000,-139708.6,-119863.5,0.03,0.00,0.89,-4,0,-2,35,0
'[12:42:02.400 21/01/2026]',-106241.7,-165799.8,-83795.62,15886.86,-375000,-375000,-139710.3,-119871.7,0.03,0.00,0.89,-4,0,-2,35,0
'[12:42:02.404 21/01/2026]',-106252.5,-165799.3,-83801.56,15893.7,-375000,-375000,-139709.9,-119873.1,0.03,0.00,0.89,-4,0,-2,35,0
'[12:42:02.408 21/01/2026]',-106241.2,-165794.1,-83786.41,15885.7,-375000,-375000,-139714.8,-119871.3,0.03,0.00,0.89,-4,0,-2,35,0
'[12:42:02.412 21/01/2026]',-106250.6,-165794.3,-83787.79,15876.8,-375000,-375000,-139722.7,-119877.5,0.02,0.00,0.89,-4,0,-2,35,0
'[12:42:02.416 21/01/2026]',-106265.8,-165793.7,-83797.67,15887.26,-375000,-375000,-139718.3,-119873.9,0.02,0.00,0.89,-4,0,-2,35,0
'[12:42:02.420 21/01/2026]',-106264.5,-165794.2,-83797.45,15904.88,-375000,-375000,-139707.1,-119872,0.02,0.00,0.89,-4,0,-2,35,0
'[12:42:02.424 21/01/2026]',-106254.1,-165798.4,-83797.18,15894.59,-375000,-375000,-139713.6,-119880.3,0.02,0.00,0.89,-4,0,-2,35,0
'[12:42:02.428 21/01/2026]',-106248.1,-165798.5,-83789.58,15881.09,-375000,-375000,-139717.1,-119877.8,0.02,0.00,0.89,-4,0,-2,35,0
'[12:42:02.432 21/01/2026]',-106247,-165803.7,-83802.77,15877.29,-375000,-375000,-139719.1,-119882.4,0.02,0.00,0.89,-4,0,-2,35,0
'[12:42:02.436 21/01/2026]',-106252.6,-165804.6,-83807.46,15892.13,-375000,-375000,-139714,-119882.5,0.02,0.00,0.89,-4,0,-2,35,0
'[12:42:02.440 21/01/2026]',-106254.6,-165805.6,-83800.62,15887.13,-375000,-375000,-139721,-119887.4,0.02,0.00,0.89,-4,0,-2,35,0
'[12:42:02.444 21/01/2026]',-106257,-165799.2,-83788.59,15878.81,-375000,-375000,-139722.6,-119882.3,0.02,0.00,0.89,-4,0,-2,35,0
'[12:42:02.448 21/01/2026]',-106254.4,-165788.5,-83780.77,15886.01,-375000,-375000,-139713.7,-119874.6,0.03,0.00,0.88,-4,0,-2,35,0
'[12:42:02.452 21/01/2026]',-106262.1,-165792.2,-83789.31,15905.19,-375000,-375000,-139707.9,-119874.4,0.03,0.00,0.88,-4,0,-2,35,0
'[12:42:02.456 21/01/2026]',-106256.3,-165791.4,-83789.04,15906.75,-375000,-375000,-139707,-119876.2,0.03,0.00,0.88,-4,0,-2,35,0
'[12:42:02.460 21/01/2026]',-106244.6,-165782.8,-83776.8,15897.37,-375000,-375000,-139708.3,-119874.6,0.03,0.00,0.88,-4,0,-2,35,0
'[12:42:02.464 21/01/2026]',-106251.7,-165784.9,-83780.55,15898.04,-375000,-375000,-139702.1,-119869.2,0.03,0.00,0.88,-4,0,-2,35,0
'[12:42:02.468 21/01/2026]',-106240.2,-165787.8,-83789.49,15910.15,-375000,-375000,-139695.9,-119866.5,0.03,0.00,0.88,-4,0,-2,35,0
'[12:42:02.472 21/01/2026]',-106233.7,-165790.8,-83789.04,15913.99,-375000,-375000,-139695.7,-119867.6,0.03,0.00,0.88,-4,0,-2,35,0
'[12:42:02.476 21/01/2026]',-106236.4,-165784.9,-83781.66,15903.76,-375000,-375000,-139696.8,-119862.7,0.03,0.00,0.88,-4,0,-2,35,0
'[12:42:02.480 21/01/2026]',-106238.3,-165779,-83780.51,15903.4,-375000,-375000,-139689.9,-119855.7,0.03,0.00,0.88,-4,0,-2,35,0
'[12:42:02.484 21/01/2026]',-106244.4,-165781.9,-83786.05,15917.48,-375000,-375000,-139684.4,-119853.3,0.02,0.00,0.88,-4,0,-2,35,0
'[12:42:02.488 21/01/2026]',-106250.9,-165785.4,-83790.92,15922.98,-375000,-375000,-139684.6,-119854.6,0.02,0.00,0.88,-4,0,-2,35,0
'[12:42:02.492 21/01/2026]',-106241.3,-165789.8,-83786.8,15910.91,-375000,-375000,-139697,-119863.3,0.02,0.00,0.88,-4,0,-2,35,0
'[12:42:02.496 21/01/2026]',-106232.2,-165796.8,-83783.09,15900.27,-375000,-375000,-139701.7,-119867,0.02,0.00,0.88,-4,0,-2,35,0
'[12:42:02.500 21/01/2026]',-106251.2,-165797.1,-83794.85,15902.24,-375000,-375000,-139701.5,-119870.6,0.02,0.00,0.88,-4,0,-2,35,0
'[12:42:02.504 21/01/2026]',-106263.1,-165794.1,-83798.34,15908.81,-375000,-375000,-139700,-119869.4,0.02,0.00,0.88,-4,0,-2,35,0
'[12:42:02.508 21/01/2026]',-106245.8,-165788.2,-83789.84,15908.32,-375000,-375000,-139699.7,-119865,0.02,0.00,0.88,-4,0,-2,35,0
'[12:42:02.512 21/01/2026]',-106242.7,-165786.2,-83792.66,15897.37,-375000,-375000,-139702.8,-119864.7,0.02,0.00,0.88,-4,0,-2,35,0
'[12:42:02.516 21/01/2026]',-106248.9,-165796.3,-83803.66,15894.59,-375000,-375000,-139707.2,-119873.6,0.02,0.00,0.88,-4,0,-2,35,0
'[12:42:02.520 21/01/2026]',-106254.2,-165799.2,-83805,15912.07,-375000,-375000,-139703.2,-119877.2,0.03,0.00,0.88,-4,0,-2,35,0
'[12:42:02.524 21/01/2026]',-106256.6,-165794.9,-83796.06,15911.27,-375000,-375000,-139707.4,-119873.3,0.03,0.00,0.88,-4,0,-2,35,0
'[12:42:02.528 21/01/2026]',-106260,-165793.9,-83793.06,15894.91,-375000,-375000,-139714.7,-119878,0.03,0.00,0.88,-4,0,-2,35,0
'[12:42:02.532 21/01/2026]',-106269,-165799.3,-83797.31,15899.24,-375000,-375000,-139709.5,-119876.8,0.03,0.00,0.88,-4,0,-2,35,0
'[12:42:02.536 21/01/2026]',-106275.1,-165804.1,-83805.77,15908.76,-375000,-375000,-139703.4,-119873.3,0.03,0.00,0.88,-4,0,-2,35,0
'[12:42:02.540 21/01/2026]',-106259.2,-165795.4,-83798.88,15911.4,-375000,-375000,-139702.2,-119872.9,0.03,0.00,0.88,-4,0,-2,35,0
'[12:42:02.544 21/01/2026]',-106243.4,-165794.3,-83792.09,15902.28,-375000,-375000,-139709.7,-119878.2,0.03,0.00,0.88,-4,0,-2,35,0
'[12:42:02.548 21/01/2026]',-106250.1,-165798.4,-83796.59,15902.19,-375000,-375000,-139706.3,-119875,0.03,0.00,0.88,-4,0,-2,35,0
'[12:42:02.552 21/01/2026]',-106257.5,-165796.9,-83800.22,15917.62,-375000,-375000,-139693.3,-119868.9,0.03,0.00,0.88,-4,0,-2,35,0
'[12:42:02.556 21/01/2026]',-106255.1,-165802.4,-83800.13,15916.14,-375000,-375000,-139698.7,-119874.7,0.03,0.00,0.88,-4,0,-2,35,0
'[12:42:02.560 21/01/2026]',-106250.9,-165803.2,-83793.87,15893.12,-375000,-375000,-139711.7,-119882.8,0.03,0.00,0.88,-4,0,-2,35,0
'[12:42:02.564 21/01/2026]',-106253,-165803.5,-83798.84,15894.1,-375000,-375000,-139710.7,-119880.9,0.03,0.00,0.88,-4,0,-2,35,0
'[12:42:02.568 21/01/2026]',-106268.3,-165808.9,-83804.78,15903.62,-375000,-375000,-139704,-119877.8,0.03,0.00,0.88,-4,0,-2,35,0
'[12:42:02.572 21/01/2026]',-106276.8,-165812.3,-83811.84,15901.21,-375000,-375000,-139707.4,-119883.9,0.03,0.00,0.88,-4,0,-2,35,0
'[12:42:02.576 21/01/2026]',-106261.9,-165806.3,-83802.55,15892.94,-375000,-375000,-139708.3,-119876,0.03,0.00,0.88,-4,0,-2,35,0
'[12:42:02.580 21/01/2026]',-106255.7,-165800.4,-83797.4,15890.17,-375000,-375000,-139706.6,-119873.3,0.03,0.00,0.88,-4,0,-2,35,0
'[12:42:02.584 21/01/2026]',-106267.3,-165803.5,-83805.59,15897.72,-375000,-375000,-139700.7,-119873.6,0.03,0.00,0.88,-4,0,-2,35,0
'[12:42:02.588 21/01/2026]',-106264.8,-165805.3,-83807.69,15903.09,-375000,-375000,-139699.2,-119873.9,0.03,0.00,0.88,-4,0,-2,35,0
'[12:42:02.592 21/01/2026]',-106254.4,-165803.3,-83801.2,15891.55,-375000,-375000,-139708.5,-119882.1,0.03,0.00,0.88,-4,0,-2,35,0
'[12:42:02.596 21/01/2026]',-106256.8,-165802.6,-83801.91,15880.47,-375000,-375000,-139713.2,-119888.5,0.03,0.00,0.88,-4,0,-2,35,0
'[12:42:02.600 21/01/2026]',-106277.3,-165806.5,-83814.44,15886.99,-375000,-375000,-139709.4,-119880.6,0.03,0.00,0.88,-4,0,-2,35,0
'[12:42:02.604 21/01/2026]',-106282.4,-165812.8,-83819.13,15892.98,-375000,-375000,-139710,-119886.3,0.03,0.00,0.88,-4,0,-2,35,0
'[12:42:02.608 21/01/2026]',-106258.7,-165805,-83805.72,15892.58,-375000,-375000,-139707.7,-119881.7,0.03,0.00,0.88,-4,0,-2,35,0
'[12:42:02.612 21/01/2026]',-106259.4,-165806.1,-83805.13,15881.99,-375000,-375000,-139713.7,-119884.7,0.03,0.00,0.88,-4,0,-2,35,0
'[12:42:02.616 21/01/2026]',-106277,-165811,-83814.75,15883.86,-375000,-375000,-139714.5,-119890.7,0.03,0.00,0.88,-4,0,-2,35,0
'[12:42:02.620 21/01/2026]',-106278.3,-165814.4,-83819.13,15893.83,-375000,-375000,-139713.3,-119893.5,0.03,0.00,0.88,-4,0,-2,35,0
'[12:42:02.624 21/01/2026]',-106270,-165811.8,-83813.9,15881.76,-375000,-375000,-139719.3,-119893.8,0.03,0.00,0.88,-4,0,-2,35,0
'[12:42:02.628 21/01/2026]',-106264.8,-165807.2,-83805.23,15872.38,-375000,-375000,-139718.4,-119887.7,0.03,0.00,0.88,-4,0,-2,35,0
'[12:42:02.632 21/01/2026]',-106278.5,-165815.8,-83816.4,15867.19,-375000,-375000,-139722.8,-119895.5,0.03,0.00,0.88,-4,0,-2,35,0
'[12:42:02.636 21/01/2026]',-106286.4,-165823.6,-83828.2,15878.46,-375000,-375000,-139721.4,-119896.1,0.03,0.00,0.88,-4,0,-2,35,0
'[12:42:02.640 21/01/2026]',-106276.9,-165827.5,-83824.13,15873.76,-375000,-375000,-139726.3,-119900.5,0.03,0.00,0.88,-4,0,-2,35,0
'[12:42:02.644 21/01/2026]',-106272.5,-165824.3,-83813.98,15860.04,-375000,-375000,-139730.5,-119900.1,0.03,0.00,0.88,-4,0,-2,35,0
'[12:42:02.648 21/01/2026]',-106273,-165822.1,-83816.85,15861.6,-375000,-375000,-139727.4,-119900.1,0.03,0.00,0.88,-4,0,-2,35,0
'[12:42:02.652 21/01/2026]',-106273.8,-165822,-83824.54,15872.38,-375000,-375000,-139720,-119897.3,0.03,0.00,0.88,-4,0,-2,35,0
'[12:42:02.656 21/01/2026]',-106271.2,-165821.1,-83824.45,15871.17,-375000,-375000,-139721.3,-119890.8,0.03,0.00,0.88,-4,0,-2,35,0
'[12:42:02.660 21/01/2026]',-106269.2,-165813.8,-83814.03,15862.63,-375000,-375000,-139726.7,-119892.7,0.03,0.00,0.88,-4,0,-2,35,0
'[12:42:02.664 21/01/2026]',-106279,-165821.2,-83816.22,15854.67,-375000,-375000,-139733.1,-119897.8,0.03,0.00,0.88,-4,0,-2,35,0
'[12:42:02.668 21/01/2026]',-106297.2,-165832.5,-83827.27,15858.47,-375000,-375000,-139737.7,-119907.8,0.03,0.00,0.88,-4,0,-2,35,0
'[12:42:02.672 21/01/2026]',-106292.6,-165831.2,-83824.58,15859.28,-375000,-375000,-139742.7,-119912.8,0.03,0.00,0.88,-4,0,-2,35,0
'[12:42:02.676 21/01/2026]',-106274.5,-165821.1,-83815.41,15852.97,-375000,-375000,-139742.7,-119906.9,0.03,0.00,0.88,-4,0,-2,35,0
'[12:42:02.680 21/01/2026]',-106271,-165812.6,-83811.71,15854,-375000,-375000,-139735.3,-119899.8,0.03,0.00,0.88,-4,0,-2,35,0
'[12:42:02.684 21/01/2026]',-106278.8,-165819.8,-83820.52,15862.23,-375000,-375000,-139731.9,-119900.3,0.03,0.00,0.88,-4,0,-2,35,0
'[12:42:02.688 21/01/2026]',-106279.9,-165831,-83826.1,15858.29,-375000,-375000,-139736.4,-119904.6,0.03,0.00,0.88,-4,0,-2,35,0
'[12:42:02.692 21/01/2026]',-106268.5,-165826.5,-83817.16,15845.2,-375000,-375000,-139744,-119905.5,0.03,0.00,0.88,-4,0,-2,35,0
'[12:42:02.696 21/01/2026]',-106274.2,-165827,-83818.41,15838.62,-375000,-375000,-139747.4,-119906.5,0.03,0.00,0.88,-4,0,-2,35,0
'[12:42:02.700 21/01/2026]',-106286.9,-165826.1,-83823.69,15846.18,-375000,-375000,-139743.3,-119907.5,0.03,-0.02,0.88,-4,0,-2,35,0
'[12:42:02.704 21/01/2026]',-106294.1,-165830,-83826.82,15841.89,-375000,-375000,-139746.5,-119909.5,0.03,-0.02,0.88,-4,0,-2,35,0
'[12:42:02.708 21/01/2026]',-106286.6,-165827.9,-83819.44,15837.28,-375000,-375000,-139750.9,-119906.8,0.03,-0.02,0.88,-4,0,-2,35,0
'[12:42:02.712 21/01/2026]',-106285.9,-165827.4,-83817.83,15834.2,-375000,-375000,-139753,-119908.6,0.03,-0.02,0.88,-4,0,-2,35,0
'[12:42:02.716 21/01/2026]',-106287.1,-165827.4,-83822.44,15842.51,-375000,-375000,-139745.6,-119906.3,0.03,-0.02,0.88,-4,0,-2,35,0
'[12:42:02.720 21/01/2026]',-106280.9,-165822.1,-83821.54,15864.87,-375000,-375000,-139731.4,-119900.4,0.03,-0.02,0.88,-4,0,-2,35,0
'[12:42:02.724 21/01/2026]',-106272.1,-165822.3,-83818.86,15856.59,-375000,-375000,-139736.3,-119898.4,0.03,-0.02,0.88,-4,0,-2,35,0
'[12:42:02.728 21/01/2026]',-106260.7,-165812.7,-83810.37,15849.4,-375000,-375000,-139731,-119891.6,0.03,-0.02,0.88,-4,0,-2,35,0
'[12:42:02.732 21/01/2026]',-106277,-165820.8,-83817.07,15853.29,-375000,-375000,-139735.4,-119902.8,0.03,-0.02,0.88,-4,0,-2,35,0
'[12:42:02.736 21/01/2026]',-106281.7,-165826.9,-83823.15,15861.96,-375000,-375000,-139734.3,-119906.9,0.03,0.00,0.88,-4,0,-2,35,0
'[12:42:02.740 21/01/2026]',-106261.7,-165819.5,-83821.14,15858.61,-375000,-375000,-139736.2,-119903.9,0.03,0.00,0.88,-4,0,-2,35,0
'[12:42:02.744 21/01/2026]',-106257.5,-165814.1,-83810.37,15854.09,-375000,-375000,-139735.6,-119896.9,0.03,0.00,0.88,-4,0,-2,35,0
'[12:42:02.748 21/01/2026]',-106277.5,-165819.7,-83818.91,15854.09,-375000,-375000,-139739.2,-119903,0.03,0.00,0.88,-4,0,-2,35,0
'[12:42:02.752 21/01/2026]',-106289.8,-165823.2,-83826.51,15866.56,-375000,-375000,-139733.2,-119900.5,0.03,0.00,0.88,-4,0,-2,35,0
'[12:42:02.756 21/01/2026]',-106278.3,-165818.3,-83816.27,15868.71,-375000,-375000,-139731.4,-119898.1,0.03,0.00,0.88,-4,0,-2,35,0
'[12:42:02.760 21/01/2026]',-106266.7,-165811.7,-83803.93,15861.29,-375000,-375000,-139736.7,-119899,0.03,0.00,0.88,-4,0,-2,35,0
'[12:42:02.764 21/01/2026]',-106274.1,-165816.8,-83813.09,15852.04,-375000,-375000,-139743.1,-119905.6,0.03,0.00,0.88,-4,0,-2,35,0
'[12:42:02.768 21/01/2026]',-106276.5,-165820.9,-83820.88,15865.13,-375000,-375000,-139736.3,-119905.1,0.03,0.00,0.88,-4,0,-2,35,0
'[12:42:02.772 21/01/2026]',-106273.4,-165819.2,-83818.46,15863.75,-375000,-375000,-139735.8,-119908.6,0.02,0.00,0.88,-4,0,-2,35,0
'[12:42:02.776 21/01/2026]',-106269.4,-165812.2,-83810.63,15858.79,-375000,-375000,-139741.7,-119905.7,0.02,0.00,0.88,-4,0,-2,35,0
'[12:42:02.780 21/01/2026]',-106269.3,-165815.2,-83809.52,15850.34,-375000,-375000,-139743.6,-119910.3,0.02,0.00,0.88,-4,0,-2,35,0
'[12:42:02.784 21/01/2026]',-106289.9,-165829.2,-83818.46,15855.48,-375000,-375000,-139745.2,-119915,0.02,0.00,0.88,-4,0,-2,35,0
'[12:42:02.788 21/01/2026]',-106289.8,-165830.8,-83819.53,15859.77,-375000,-375000,-139744.4,-119915.8,0.02,0.00,0.88,-4,0,-2,35,0
'[12:42:02.792 21/01/2026]',-106274.6,-165819.8,-83808.49,15857.76,-375000,-375000,-139739.8,-119905.9,0.02,0.00,0.88,-4,0,-2,35,0
'[12:42:02.796 21/01/2026]',-106271.6,-165815.9,-83804.78,15855.17,-375000,-375000,-139734.9,-119900.9,0.02,0.00,0.88,-4,0,-2,35,0
'[12:42:02.800 21/01/2026]',-106271.9,-165813,-83807.64,15865.63,-375000,-375000,-139729.1,-119900.4,0.02,0.00,0.88,-4,0,-2,35,0
'[12:42:02.804 21/01/2026]',-106262.7,-165812.9,-83811.75,15874.92,-375000,-375000,-139727,-119900.2,0.02,0.00,0.88,-4,0,-2,35,0
'[12:42:02.808 21/01/2026]',-106266.1,-165811.7,-83807.37,15867.46,-375000,-375000,-139732.8,-119900.7,0.03,0.00,0.88,-4,0,-2,35,0
'[12:42:02.812 21/01/2026]',-106274.4,-165810.7,-83800.58,15852.66,-375000,-375000,-139738.9,-119906.6,0.03,0.00,0.88,-4,0,-2,35,0
'[12:42:02.816 21/01/2026]',-106278.6,-165812.9,-83807.1,15863.79,-375000,-375000,-139734.7,-119905.3,0.03,0.00,0.88,-4,0,-2,35,0
'[12:42:02.820 21/01/2026]',-106275.8,-165812.6,-83815.2,15879.39,-375000,-375000,-139726.2,-119898.2,0.03,0.00,0.88,-4,0,-2,35,0
'[12:42:02.824 21/01/2026]',-106260.2,-165809.1,-83810.23,15873,-375000,-375000,-139730.2,-119900.6,0.03,0.00,0.88,-4,0,-2,35,0
'[12:42:02.828 21/01/2026]',-106255.9,-165805.2,-83802.09,15860.89,-375000,-375000,-139730,-119898.3,0.03,0.00,0.88,-4,0,-2,35,0
'[12:42:02.832 21/01/2026]',-106275.3,-165813.8,-83810.86,15860.98,-375000,-375000,-139733.3,-119905.8,0.03,0.00,0.88,-4,0,-2,35,0
'[12:42:02.836 21/01/2026]',-106283.7,-165815.9,-83817.43,15871.79,-375000,-375000,-139728.7,-119905.6,0.03,0.00,0.88,-4,0,-2,35,0
'[12:42:02.840 21/01/2026]',-106274,-165807.7,-83812.06,15867.46,-375000,-375000,-139726.7,-119899.4,0.03,0.00,0.88,-4,0,-2,35,0
'[12:42:02.844 21/01/2026]',-106260.4,-165803.8,-83803.93,15862.63,-375000,-375000,-139724,-119889.6,0.00,0.00,0.89,-4,0,-2,35,0
'[12:42:02.848 21/01/2026]',-106266.6,-165806.5,-83814.61,15863.52,-375000,-375000,-139726.7,-119894.5,0.00,0.00,0.89,-4,0,-2,35,0
'[12:42:02.852 21/01/2026]',-106270.8,-165806.2,-83820.24,15874.79,-375000,-375000,-139724.1,-119896.3,0.00,0.00,0.89,-4,0,-2,35,0
'[12:42:02.856 21/01/2026]',-106275.9,-165805,-83816.76,15872.46,-375000,-375000,-139724.8,-119896.5,0.00,0.00,0.89,-4,0,-2,35,0
'[12:42:02.860 21/01/2026]',-106269.1,-165801.8,-83810.14,15863.48,-375000,-375000,-139727.1,-119894.5,0.00,0.00,0.89,-4,0,-2,35,0
'[12:42:02.864 21/01/2026]',-106267.4,-165799.5,-83807.1,15867.32,-375000,-375000,-139719.9,-119888.8,0.00,0.00,0.89,-4,0,-2,35,0
'[12:42:02.868 21/01/2026]',-106265.1,-165802.1,-83815.73,15879.35,-375000,-375000,-139715.5,-119886.9,0.00,0.00,0.89,-4,0,-2,35,0
'[12:42:02.872 21/01/2026]',-106270.8,-165805.6,-83821.27,15880.38,-375000,-375000,-139719.6,-119891.6,0.00,0.00,0.89,-4,0,-2,35,0
'[12:42:02.876 21/01/2026]',-106268.5,-165798,-83811.17,15872.91,-375000,-375000,-139722.2,-119889.9,0.00,0.00,0.89,-4,0,-2,35,0
'[12:42:02.880 21/01/2026]',-106264.6,-165795,-83806.21,15865.89,-375000,-375000,-139721.6,-119890.1,0.02,0.00,0.88,-4,0,-2,35,0
'[12:42:02.884 21/01/2026]',-106275.4,-165800.5,-83811.53,15876.62,-375000,-375000,-139718.8,-119893,0.02,0.00,0.88,-4,0,-2,35,0
'[12:42:02.888 21/01/2026]',-106277.7,-165808.5,-83816.45,15881.72,-375000,-375000,-139723.2,-119899.6,0.02,0.00,0.88,-4,0,-2,35,0
'[12:42:02.892 21/01/2026]',-106261.6,-165802.6,-83805.77,15876.13,-375000,-375000,-139720,-119892.1,0.02,0.00,0.88,-4,0,-2,35,0
'[12:42:02.896 21/01/2026]',-106260,-165799.2,-83799.68,15864.02,-375000,-375000,-139721.7,-119895,0.02,0.00,0.88,-4,0,-2,35,0
'[12:42:02.900 21/01/2026]',-106273.9,-165806.3,-83811.17,15869.02,-375000,-375000,-139723.5,-119896.6,0.02,0.00,0.88,-4,0,-2,35,0
'[12:42:02.904 21/01/2026]',-106274.1,-165808.1,-83817.43,15879.97,-375000,-375000,-139721.7,-119898.1,0.02,0.00,0.88,-4,0,-2,35,0
'[12:42:02.908 21/01/2026]',-106269.2,-165804.7,-83812.65,15874.3,-375000,-375000,-139726,-119896.9,0.02,0.00,0.88,-4,0,-2,35,0
'[12:42:02.912 21/01/2026]',-106256.9,-165806.8,-83811.17,15860.89,-375000,-375000,-139730.6,-119901.3,0.02,0.00,0.88,-4,0,-2,35,0
'[12:42:02.916 21/01/2026]',-106260.7,-165811.5,-83819.27,15871.71,-375000,-375000,-139729.8,-119905.4,0.03,0.00,0.88,-4,0,-2,35,0
'[12:42:02.920 21/01/2026]',-106265.1,-165814.4,-83824.36,15873.45,-375000,-375000,-139728.3,-119906,0.03,0.00,0.88,-4,0,-2,35,0
'[12:42:02.924 21/01/2026]',-106263.7,-165809.8,-83814.84,15871.08,-375000,-375000,-139729.9,-119903.1,0.03,0.00,0.88,-4,0,-2,35,0
'[12:42:02.928 21/01/2026]',-106268.3,-165800.9,-83805.59,15861.6,-375000,-375000,-139730.2,-119902.1,0.03,0.00,0.88,-4,0,-2,35,0
'[12:42:02.932 21/01/2026]',-106270.7,-165800.2,-83810.59,15867.95,-375000,-375000,-139726.9,-119903.3,0.03,0.00,0.88,-4,0,-2,35,0
'[12:42:02.936 21/01/2026]',-106272,-165802,-83814.88,15884.62,-375000,-375000,-139720.3,-119901.1,0.03,0.00,0.88,-4,0,-2,35,0
'[12:42:02.940 21/01/2026]',-106263.4,-165800.1,-83810.5,15880.6,-375000,-375000,-139724.6,-119903.4,0.03,0.00,0.88,-4,0,-2,35,0
'[12:42:02.944 21/01/2026]',-106243.7,-165794.8,-83801.11,15870.68,-375000,-375000,-139721.3,-119896.5,0.03,0.00,0.88,-4,0,-2,35,0
'[12:42:02.948 21/01/2026]',-106255.6,-165791.6,-83799.5,15874.92,-375000,-375000,-139714.1,-119890.9,0.03,0.00,0.88,-4,0,-2,35,0
'[12:42:02.952 21/01/2026]',-106283.5,-165790.6,-83811.62,15888.96,-375000,-375000,-139711.3,-119895.5,0.02,0.00,0.88,-4,0,-2,35,0
'[12:42:02.956 21/01/2026]',-106282.4,-165793.5,-83809.2,15891.46,-375000,-375000,-139712.8,-119895.7,0.02,0.00,0.88,-4,0,-2,35,0
'[12:42:02.960 21/01/2026]',-106271.8,-165791.7,-83801.38,15873.27,-375000,-375000,-139717.4,-119890.8,0.02,0.00,0.88,-4,0,-2,35,0
'[12:42:02.964 21/01/2026]',-106273.5,-165793.3,-83805.98,15872.42,-375000,-375000,-139717.4,-119891.5,0.02,0.00,0.88,-4,0,-2,35,0
'[12:42:02.968 21/01/2026]',-106275.1,-165799,-83813.54,15884.4,-375000,-375000,-139715.4,-119894.3,0.02,0.00,0.88,-4,0,-2,35,0
'[12:42:02.972 21/01/2026]',-106267.6,-165795.9,-83811.75,15891.46,-375000,-375000,-139709.5,-119886.3,0.02,0.00,0.88,-4,0,-2,35,0
'[12:42:02.976 21/01/2026]',-106261.4,-165794.8,-83803.39,15878.01,-375000,-375000,-139713.5,-119887.7,0.02,0.00,0.88,-4,0,-2,35,0
'[12:42:02.980 21/01/2026]',-106266.8,-165798.1,-83801.88,15872.91,-375000,-375000,-139712.9,-119887.7,0.02,0.00,0.88,-4,0,-2,35,0
'[12:42:02.984 21/01/2026]',-106274.2,-165808.5,-83817.48,15884.54,-375000,-375000,-139714.9,-119894.3,0.02,0.00,0.88,-4,0,-2,35,0
'[12:42:02.988 21/01/2026]',-106262,-165808,-83821.09,15882.66,-375000,-375000,-139717.6,-119896.1,0.03,0.00,0.88,-4,0,-2,35,0
'[12:42:02.992 21/01/2026]',-106258.7,-165803.3,-83813.18,15876.62,-375000,-375000,-139722.4,-119893.6,0.03,0.00,0.88,-4,0,-2,35,0
'[12:42:02.996 21/01/2026]',-106271.8,-165805.3,-83810.05,15872.6,-375000,-375000,-139725.8,-119897.6,0.03,0.00,0.88,-4,0,-2,35,0
'[12:42:03.000 21/01/2026]',-106277.7,-165811.1,-83818.55,15871.62,-375000,-375000,-139728.4,-119906.5,0.03,0.00,0.88,-4,0,-2,35,0
'[12:42:03.004 21/01/2026]',-106269.2,-165807.3,-83815.87,15881.05,-375000,-375000,-139723.9,-119897.9,0.03,0.00,0.88,-4,0,-2,35,0
'[12:42:03.008 21/01/2026]',-106263.4,-165810.3,-83810.23,15866.88,-375000,-375000,-139732.5,-119904.5,0.03,0.00,0.88,-4,0,-2,35,0
'[12:42:03.012 21/01/2026]',-106265.3,-165811,-83810.01,15858.38,-375000,-375000,-139735.1,-119904.3,0.03,0.00,0.88,-4,0,-2,35,0
'[12:42:03.016 21/01/2026]',-106275.8,-165812.3,-83815.1,15866.34,-375000,-375000,-139728.6,-119900.4,0.03,0.00,0.88,-4,0,-2,35,0
'[12:42:03.020 21/01/2026]',-106284.2,-165814.7,-83818.23,15880.69,-375000,-375000,-139723,-119897.7,0.03,0.00,0.88,-4,0,-2,35,0
'[12:42:03.024 21/01/2026]',-106272.8,-165807.5,-83809.96,15873.72,-375000,-375000,-139725,-119896.3,0.02,0.00,0.88,-4,0,-2,35,0
'[12:42:03.028 21/01/2026]',-106264,-165808.1,-83811.04,15861.24,-375000,-375000,-139729,-119898.4,0.02,0.00,0.88,-4,0,-2,35,0
'[12:42:03.032 21/01/2026]',-106258.5,-165807.7,-83808.22,15869.51,-375000,-375000,-139720.1,-119892.3,0.02,0.00,0.88,-4,0,-2,35,0
'[12:42:03.036 21/01/2026]',-106260.6,-165809.1,-83813.36,15880.2,-375000,-375000,-139714.8,-119892.3,0.02,0.00,0.88,-4,0,-2,35,0
'[12:42:03.040 21/01/2026]',-106271.1,-165805.5,-83811.84,15879.04,-375000,-375000,-139714.3,-119886.3,0.02,0.00,0.88,-4,0,-2,35,0
'[12:42:03.044 21/01/2026]',-106269.5,-165796.1,-83800.98,15874.92,-375000,-375000,-139715.5,-119885.6,0.02,0.00,0.88,-4,0,-2,35,0
'[12:42:03.048 21/01/2026]',-106276.1,-165798.7,-83804.87,15876.62,-375000,-375000,-139716.5,-119890.2,0.02,0.00,0.88,-4,0,-2,35,0
'[12:42:03.052 21/01/2026]',-106281.2,-165804.2,-83813.77,15883.86,-375000,-375000,-139714.2,-119889.5,0.02,0.00,0.88,-4,0,-2,35,0
'[12:42:03.056 21/01/2026]',-106272.6,-165807.6,-83812.16,15881.14,-375000,-375000,-139720.8,-119893.9,0.02,0.00,0.88,-4,0,-2,35,0
'[12:42:03.060 21/01/2026]',-106264.3,-165806.4,-83805.8,15865.76,-375000,-375000,-139726.1,-119899,0.02,0.00,0.89,-4,0,-2,35,0
'[12:42:03.064 21/01/2026]',-106259.9,-165800.6,-83804.24,15874.03,-375000,-375000,-139719.9,-119893.7,0.02,0.00,0.89,-4,0,-2,35,0
'[12:42:03.068 21/01/2026]',-106266.4,-165801.9,-83811.62,15888.56,-375000,-375000,-139712.9,-119888.5,0.02,0.00,0.89,-4,0,-2,35,0
'[12:42:03.072 21/01/2026]',-106265.9,-165807.1,-83814.08,15885.29,-375000,-375000,-139716.9,-119893.5,0.02,0.00,0.89,-4,0,-2,35,0
'[12:42:03.076 21/01/2026]',-106263.6,-165801.3,-83808.53,15872.24,-375000,-375000,-139721.4,-119892,0.02,0.00,0.89,-4,0,-2,35,0
'[12:42:03.080 21/01/2026]',-106259.7,-165798.9,-83807.82,15870.95,-375000,-375000,-139718.7,-119890,0.02,0.00,0.89,-4,0,-2,35,0
'[12:42:03.084 21/01/2026]',-106267.4,-165804.1,-83819.35,15880.82,-375000,-375000,-139717,-119892.6,0.02,0.00,0.89,-4,0,-2,35,0
'[12:42:03.088 21/01/2026]',-106269.7,-165805.1,-83819.98,15885.65,-375000,-375000,-139715.3,-119896.5,0.02,0.00,0.89,-4,0,-2,35,0
'[12:42:03.092 21/01/2026]',-106263.1,-165800.1,-83806.39,15874.79,-375000,-375000,-139713.1,-119888.3,0.02,0.00,0.89,-4,0,-2,35,0
'[12:42:03.096 21/01/2026]',-106263.7,-165801.6,-83804.6,15870.14,-375000,-375000,-139714.8,-119887,0.02,0.02,0.88,-4,0,-2,35,0
'[12:42:03.100 21/01/2026]',-106269.2,-165808.5,-83814.66,15879.66,-375000,-375000,-139713.2,-119891.4,0.02,0.02,0.88,-4,0,-2,35,0
'[12:42:03.104 21/01/2026]',-106269.5,-165809.4,-83817.92,15884,-375000,-375000,-139712.3,-119894.8,0.02,0.02,0.88,-4,0,-2,35,0
'[12:42:03.108 21/01/2026]',-106264.7,-165803.6,-83808.53,15874.97,-375000,-375000,-139714,-119889.9,0.02,0.02,0.88,-4,0,-2,35,0
'[12:42:03.112 21/01/2026]',-106259.4,-165801.8,-83805.85,15868.67,-375000,-375000,-139714.7,-119888.2,0.02,0.02,0.88,-4,0,-2,35,0
'[12:42:03.116 21/01/2026]',-106262,-165806.2,-83813.45,15876.85,-375000,-375000,-139712.3,-119891,0.02,0.02,0.88,-4,0,-2,35,0
'[12:42:03.120 21/01/2026]',-106260.9,-165799.7,-83808.53,15892.27,-375000,-375000,-139703.5,-119878,0.02,0.02,0.88,-4,0,-2,35,0
'[12:42:03.124 21/01/2026]',-106258,-165805.3,-83810.19,15875.73,-375000,-375000,-139719.7,-119890,0.02,0.02,0.88,-4,0,-2,35,0
'[12:42:03.128 21/01/2026]',-106251.5,-165806.3,-83804.64,15864.55,-375000,-375000,-139726,-119894.4,0.02,0.02,0.88,-4,0,-2,35,0
'[12:42:03.132 21/01/2026]',-106264.9,-165809.7,-83809.96,15872.91,-375000,-375000,-139720.7,-119889.3,0.03,0.00,0.88,-4,0,-2,35,0
'[12:42:03.136 21/01/2026]',-106274.1,-165809.6,-83815.73,15880.65,-375000,-375000,-139718.9,-119894,0.03,0.00,0.88,-4,0,-2,35,0
'[12:42:03.140 21/01/2026]',-106270.2,-165809.6,-83816.09,15871.08,-375000,-375000,-139725.9,-119897.6,0.03,0.00,0.88,-4,0,-2,35,0
'[12:42:03.144 21/01/2026]',-106262.8,-165808.4,-83812.96,15864.78,-375000,-375000,-139727.5,-119897.6,0.03,0.00,0.88,-4,0,-2,35,0
'[12:42:03.148 21/01/2026]',-106265.1,-165808.8,-83813.41,15870.86,-375000,-375000,-139720.9,-119894.4,0.03,0.00,0.88,-4,0,-2,35,0
'[12:42:03.152 21/01/2026]',-106268.5,-165814.7,-83820.2,15880.96,-375000,-375000,-139720.3,-119902.9,0.03,0.00,0.88,-4,0,-2,35,0
'[12:42:03.156 21/01/2026]',-106261.9,-165809.1,-83811.53,15882.3,-375000,-375000,-139715.9,-119895.1,0.03,0.00,0.88,-4,0,-2,35,0
'[12:42:03.160 21/01/2026]',-106263.9,-165806.5,-83808.4,15865.85,-375000,-375000,-139725.3,-119898.1,0.03,0.00,0.88,-4,0,-2,35,0
'[12:42:03.164 21/01/2026]',-106263.9,-165805.1,-83811.57,15870.18,-375000,-375000,-139721.4,-119895.3,0.03,0.00,0.88,-4,0,-2,35,0
'[12:42:03.168 21/01/2026]',-106272.1,-165813.3,-83820.83,15877.02,-375000,-375000,-139720.9,-119901.2,0.02,0.00,0.88,-4,0,-2,35,0
'[12:42:03.172 21/01/2026]',-106266.8,-165811.3,-83816.4,15885.83,-375000,-375000,-139718,-119895,0.02,0.00,0.88,-4,0,-2,35,0
'[12:42:03.176 21/01/2026]',-106254.9,-165805.9,-83808.04,15877.7,-375000,-375000,-139720.3,-119893.9,0.02,0.00,0.88,-4,0,-2,35,0
'[12:42:03.180 21/01/2026]',-106251,-165803.6,-83807.02,15877.96,-375000,-375000,-139714.9,-119888.1,0.02,0.00,0.88,-4,0,-2,35,0
'[12:42:03.184 21/01/2026]',-106257.9,-165802.2,-83812.52,15890.57,-375000,-375000,-139708,-119883.6,0.02,0.00,0.88,-4,0,-2,35,0
'[12:42:03.188 21/01/2026]',-106262.1,-165801.5,-83811.08,15898.13,-375000,-375000,-139704,-119879.6,0.02,0.00,0.88,-4,0,-2,35,0
'[12:42:03.192 21/01/2026]',-106255.4,-165803.9,-83806.25,15878.54,-375000,-375000,-139715.6,-119888.7,0.02,0.00,0.88,-4,0,-2,35,0
'[12:42:03.196 21/01/2026]',-106249.3,-165803,-83804.69,15879.26,-375000,-375000,-139712.6,-119888.4,0.02,0.00,0.88,-4,0,-2,35,0
'[12:42:03.200 21/01/2026]',-106250.5,-165806.9,-83816.4,15889.36,-375000,-375000,-139710.1,-119893.5,0.02,0.00,0.88,-4,0,-2,35,0
'[12:42:03.204 21/01/2026]',-106243.9,-165807.3,-83809.3,15897.45,-375000,-375000,-139706.9,-119889.1,0.03,0.00,0.88,-4,0,-2,35,0
'[12:42:03.208 21/01/2026]',-106249.1,-165811.6,-83807.51,15881.05,-375000,-375000,-139719,-119895.8,0.03,0.00,0.88,-4,0,-2,35,0
'[12:42:03.212 21/01/2026]',-106263.3,-165813.5,-83813.59,15867.86,-375000,-375000,-139722.2,-119897.6,0.03,0.00,0.88,-4,0,-2,35,0
'[12:42:03.216 21/01/2026]',-106272.4,-165816.5,-83822.34,15872.33,-375000,-375000,-139722.1,-119901,0.03,0.00,0.88,-4,0,-2,35,0
'[12:42:03.220 21/01/2026]',-106267.5,-165812.7,-83820.16,15883.91,-375000,-375000,-139715.6,-119895.7,0.03,0.00,0.88,-4,0,-2,35,0
'[12:42:03.224 21/01/2026]',-106259.8,-165809.5,-83808.8,15880.87,-375000,-375000,-139719.7,-119896.2,0.03,0.00,0.88,-4,0,-2,35,0
'[12:42:03.228 21/01/2026]',-106256.8,-165807.4,-83809.61,15870.99,-375000,-375000,-139722.8,-119897.2,0.03,0.00,0.88,-4,0,-2,35,0
'[12:42:03.232 21/01/2026]',-106267.2,-165809.7,-83820.65,15865.63,-375000,-375000,-139724.5,-119902.5,0.03,0.00,0.88,-4,0,-2,35,0
'[12:42:03.236 21/01/2026]',-106268.4,-165810.1,-83825.21,15881,-375000,-375000,-139717.4,-119896.1,0.03,0.00,0.88,-4,0,-2,35,0
'[12:42:03.240 21/01/2026]',-106263.6,-165817.3,-83824.54,15871.71,-375000,-375000,-139724.4,-119902.1,0.03,0.00,0.88,-4,0,-2,35,0
'[12:42:03.244 21/01/2026]',-106257.3,-165810.2,-83813.09,15867.86,-375000,-375000,-139723,-119901.5,0.03,0.00,0.88,-4,0,-2,35,0
'[12:42:03.248 21/01/2026]',-106268.5,-165813.1,-83813.45,15869.11,-375000,-375000,-139720.8,-119897.3,0.03,0.00,0.88,-4,0,-2,35,0
'[12:42:03.252 21/01/2026]',-106270.6,-165812.2,-83819.13,15883.06,-375000,-375000,-139712.8,-119895.5,0.03,0.00,0.88,-4,0,-2,35,0
'[12:42:03.256 21/01/2026]',-106270.4,-165808.1,-83813.14,15884.98,-375000,-375000,-139712.1,-119893.2,0.03,0.00,0.88,-4,0,-2,35,0
'[12:42:03.260 21/01/2026]',-106269.2,-165802.9,-83807.51,15872.91,-375000,-375000,-139716.1,-119892.9,0.03,0.00,0.88,-4,0,-2,35,0
'[12:42:03.264 21/01/2026]',-106262.2,-165800.6,-83811.04,15872.02,-375000,-375000,-139707.7,-119888.8,0.03,0.00,0.88,-4,0,-2,35,0
'[12:42:03.268 21/01/2026]',-106257.2,-165799.3,-83818.95,15897.14,-375000,-375000,-139694.4,-119882.1,0.03,0.00,0.88,-4,0,-2,35,0
'[12:42:03.272 21/01/2026]',-106256.7,-165793.5,-83815.91,15894.28,-375000,-375000,-139693.5,-119877.5,0.03,0.00,0.88,-4,0,-2,35,0
'[12:42:03.276 21/01/2026]',-106252.5,-165791,-83800.76,15886.9,-375000,-375000,-139696.6,-119875.8,0.02,0.00,0.88,-4,0,-2,35,0
'[12:42:03.280 21/01/2026]',-106254.6,-165796.1,-83799.46,15884.76,-375000,-375000,-139693.9,-119870.3,0.02,0.00,0.88,-4,0,-2,35,0
'[12:42:03.284 21/01/2026]',-106264.5,-165807,-83819.89,15892.54,-375000,-375000,-139693.3,-119879.9,0.02,0.00,0.88,-4,0,-2,35,0
'[12:42:03.288 21/01/2026]',-106257.3,-165806.8,-83821.01,15895.62,-375000,-375000,-139689.4,-119878,0.02,0.00,0.88,-4,0,-2,35,0
'[12:42:03.292 21/01/2026]',-106249.1,-165797.4,-83807.05,15888.65,-375000,-375000,-139686.2,-119870.3,0.02,0.00,0.88,-4,0,-2,35,0
'[12:42:03.296 21/01/2026]',-106252.9,-165792.1,-83803.44,15890.66,-375000,-375000,-139681.7,-119861.5,0.02,0.00,0.88,-4,0,-2,35,0
'[12:42:03.300 21/01/2026]',-106258.8,-165795.1,-83808.35,15902.64,-375000,-375000,-139679.6,-119865.4,0.02,0.00,0.88,-4,0,-2,35,0
'[12:42:03.304 21/01/2026]',-106263.5,-165804.1,-83813.63,15897.99,-375000,-375000,-139684.6,-119873.9,0.02,0.00,0.88,-4,0,-2,35,0
'[12:42:03.308 21/01/2026]',-106255.5,-165802.2,-83807.02,15892.13,-375000,-375000,-139688.7,-119873.5,0.02,0.00,0.88,-4,0,-2,35,0
'[12:42:03.312 21/01/2026]',-106245.7,-165801.4,-83805.67,15888.65,-375000,-375000,-139689.6,-119870.1,0.02,0.00,0.88,-4,0,-2,35,0
'[12:42:03.316 21/01/2026]',-106250,-165803.3,-83814.52,15895.89,-375000,-375000,-139689.1,-119877.3,0.02,0.00,0.88,-4,0,-2,35,0
'[12:42:03.320 21/01/2026]',-106258,-165797.5,-83815.73,15903.62,-375000,-375000,-139687,-119877.4,0.02,0.00,0.88,-4,0,-2,35,0
'[12:42:03.324 21/01/2026]',-106253.5,-165795.9,-83806.48,15901.52,-375000,-375000,-139688.2,-119872,0.02,0.00,0.88,-4,0,-2,35,0
'[12:42:03.328 21/01/2026]',-106250.5,-165789.9,-83799.77,15894.15,-375000,-375000,-139689,-119872.4,0.02,0.00,0.88,-4,0,-2,35,0
'[12:42:03.332 21/01/2026]',-106253.9,-165793.3,-83805.77,15898.71,-375000,-375000,-139689.1,-119875,0.02,0.00,0.88,-4,0,-2,35,0
'[12:42:03.336 21/01/2026]',-106250.3,-165802.1,-83813.72,15902.28,-375000,-375000,-139690.6,-119879.2,0.02,0.00,0.88,-4,0,-2,35,0
'[12:42:03.340 21/01/2026]',-106242.1,-165798.6,-83803.7,15890.57,-375000,-375000,-139694,-119879.6,0.02,0.00,0.88,-4,0,-2,35,0
'[12:42:03.344 21/01/2026]',-106250,-165790,-83797.89,15884.49,-375000,-375000,-139694.4,-119870.8,0.02,0.00,0.88,-4,0,-2,35,0
'[12:42:03.348 21/01/2026]',-106256.5,-165793.3,-83801.42,15888.65,-375000,-375000,-139694.2,-119874,0.03,0.00,0.88,-4,0,-2,35,0
'[12:42:03.352 21/01/2026]',-106271.9,-165803.8,-83812.16,15896.96,-375000,-375000,-139698.1,-119885.4,0.03,0.00,0.88,-4,0,-2,35,0
'[12:42:03.356 21/01/2026]',-106267.7,-165804.3,-83811.98,15883.77,-375000,-375000,-139707.8,-119889.2,0.03,0.00,0.88,-4,0,-2,35,0
'[12:42:03.360 21/01/2026]',-106256.1,-165802,-83805.94,15869.47,-375000,-375000,-139713.5,-119889.2,0.03,0.00,0.88,-4,0,-2,35,0
'[12:42:03.364 21/01/2026]',-106255.8,-165804.3,-83807.2,15868.75,-375000,-375000,-139710.4,-119886.1,0.03,0.00,0.88,-4,0,-2,35,0
'[12:42:03.368 21/01/2026]',-106276.4,-165805.6,-83817.97,15880.15,-375000,-375000,-139709.8,-119890.4,0.03,0.00,0.88,-4,0,-2,35,0
'[12:42:03.372 21/01/2026]',-106276.7,-165807.7,-83818.81,15877.38,-375000,-375000,-139714.8,-119894.1,0.03,0.00,0.88,-4,0,-2,35,0
'[12:42:03.376 21/01/2026]',-106255,-165805.3,-83813.63,15863.97,-375000,-375000,-139721.5,-119894.6,0.03,0.00,0.88,-4,0,-2,35,0
'[12:42:03.380 21/01/2026]',-106253.8,-165802.5,-83812.16,15860.04,-375000,-375000,-139721.5,-119891.9,0.03,0.00,0.88,-4,0,-2,35,0
'[12:42:03.384 21/01/2026]',-106279.1,-165805.1,-83819.22,15867.55,-375000,-375000,-139724.1,-119902,0.02,0.00,0.88,-4,0,-2,35,0
'[12:42:03.388 21/01/2026]',-106288.2,-165814.1,-83824.36,15863.97,-375000,-375000,-139732.6,-119914.4,0.02,0.00,0.88,-4,0,-2,35,0
'[12:42:03.392 21/01/2026]',-106280.1,-165809.6,-83817.34,15855.88,-375000,-375000,-139735.6,-119908.6,0.02,0.00,0.88,-4,0,-2,35,0
'[12:42:03.396 21/01/2026]',-106278.3,-165805.2,-83812.96,15856.37,-375000,-375000,-139727.6,-119897.3,0.02,0.00,0.88,-4,0,-2,35,0
'[12:42:03.400 21/01/2026]',-106282.5,-165809.2,-83820.88,15864.82,-375000,-375000,-139723.3,-119899.3,0.02,0.00,0.88,-4,0,-2,35,0
'[12:42:03.404 21/01/2026]',-106278.3,-165811.6,-83822.13,15868.22,-375000,-375000,-139724.4,-119903.7,0.02,0.00,0.88,-4,0,-2,35,0
'[12:42:03.408 21/01/2026]',-106268.1,-165808.4,-83813.09,15859.37,-375000,-375000,-139726,-119898.6,0.02,0.00,0.88,-4,0,-2,35,0
'[12:42:03.412 21/01/2026]',-106262.1,-165806.9,-83810.95,15854.9,-375000,-375000,-139725.8,-119893.1,0.02,0.00,0.88,-4,0,-2,35,0
'[12:42:03.416 21/01/2026]',-106258.9,-165807.2,-83820.56,15860.57,-375000,-375000,-139725.8,-119897,0.02,0.00,0.88,-4,0,-2,35,0
'[12:42:03.420 21/01/2026]',-106265.1,-165804.1,-83818.37,15874.83,-375000,-375000,-139717,-119892.6,0.03,0.00,0.86,-4,0,-2,35,0
'[12:42:03.424 21/01/2026]',-106273.6,-165805.1,-83811.48,15863.84,-375000,-375000,-139723.6,-119896.8,0.03,0.00,0.86,-4,0,-2,35,0
'[12:42:03.428 21/01/2026]',-106277.7,-165805,-83811.98,15851.28,-375000,-375000,-139729.8,-119897.2,0.03,0.00,0.86,-4,0,-2,35,0
'[12:42:03.432 21/01/2026]',-106284.9,-165806.8,-83821.77,15850.74,-375000,-375000,-139730,-119902.7,0.03,0.00,0.86,-4,0,-2,35,0
'[12:42:03.436 21/01/2026]',-106279.9,-165809.8,-83826.46,15865.67,-375000,-375000,-139722.8,-119897.5,0.03,0.00,0.86,-4,0,-2,35,0
'[12:42:03.440 21/01/2026]',-106269,-165803.2,-83818.77,15861.42,-375000,-375000,-139726.4,-119894.9,0.03,0.00,0.86,-4,0,-2,35,0
'[12:42:03.444 21/01/2026]',-106262,-165792.5,-83808.17,15855.79,-375000,-375000,-139728.2,-119892.9,0.03,0.00,0.86,-4,0,-2,35,0
'[12:42:03.448 21/01/2026]',-106269.3,-165799,-83814.34,15859.28,-375000,-375000,-139731.2,-119900.3,0.03,0.00,0.86,-4,0,-2,35,0
'[12:42:03.452 21/01/2026]',-106275.3,-165808.5,-83824.09,15868.93,-375000,-375000,-139731,-119907.8,0.03,0.00,0.86,-4,0,-2,35,0
'[12:42:03.456 21/01/2026]',-106269.7,-165809.2,-83820.56,15860.89,-375000,-375000,-139735.1,-119910.3,0.03,0.00,0.89,-4,0,-2,35,0
'[12:42:03.460 21/01/2026]',-106256.8,-165798.9,-83809.7,15851.1,-375000,-375000,-139732.7,-119905.6,0.03,0.00,0.89,-4,0,-2,35,0
'[12:42:03.464 21/01/2026]',-106252.4,-165799,-83811.39,15860.93,-375000,-375000,-139725.2,-119895.3,0.03,0.00,0.89,-4,0,-2,35,0
'[12:42:03.468 21/01/2026]',-106269.2,-165810.4,-83819.53,15868.8,-375000,-375000,-139723.7,-119896.1,0.03,0.00,0.89,-4,0,-2,35,0
'[12:42:03.472 21/01/2026]',-106272.4,-165810.8,-83815.1,15867.15,-375000,-375000,-139722,-119894.9,0.03,0.00,0.89,-4,0,-2,35,0
'[12:42:03.476 21/01/2026]',-106258.7,-165801.6,-83807.82,15859.28,-375000,-375000,-139718.2,-119886.5,0.03,0.00,0.89,-4,0,-2,35,0
'[12:42:03.480 21/01/2026]',-106259.6,-165798.4,-83811.44,15868.4,-375000,-375000,-139711.9,-119884.2,0.03,0.00,0.89,-4,0,-2,35,0
'[12:42:03.484 21/01/2026]',-106269.5,-165806.5,-83815.55,15887.8,-375000,-375000,-139703.5,-119882,0.03,0.00,0.89,-4,0,-2,35,0
'[12:42:03.488 21/01/2026]',-106261.8,-165805.5,-83812.91,15884.27,-375000,-375000,-139705.8,-119884.8,0.03,0.00,0.89,-4,0,-2,35,0
'[12:42:03.492 21/01/2026]',-106250.4,-165797,-83807.73,15876.8,-375000,-375000,-139705.4,-119879.6,0.03,0.02,0.88,-4,0,-2,35,0
'[12:42:03.496 21/01/2026]',-106253.9,-165804.9,-83808.89,15874.12,-375000,-375000,-139708.4,-119884.8,0.03,0.02,0.88,-4,0,-2,35,0
'[12:42:03.500 21/01/2026]',-106255.1,-165807.8,-83812.06,15885.61,-375000,-375000,-139706,-119890.8,0.03,0.02,0.88,-4,0,-2,35,0
'[12:42:03.504 21/01/2026]',-106266.7,-165808.5,-83813.72,15887.57,-375000,-375000,-139703.8,-119889.3,0.03,0.02,0.88,-4,0,-2,35,0
'[12:42:03.508 21/01/2026]',-106265.3,-165803.5,-83810.45,15877.96,-375000,-375000,-139707.2,-119890.7,0.03,0.02,0.88,-4,0,-2,35,0
'[12:42:03.512 21/01/2026]',-106257.9,-165794.5,-83803.35,15879.84,-375000,-375000,-139699.6,-119876.7,0.03,0.02,0.88,-4,0,-2,35,0
'[12:42:03.516 21/01/2026]',-106274.2,-165806.3,-83816.49,15884.04,-375000,-375000,-139703.4,-119888.1,0.03,0.02,0.88,-4,0,-2,35,0
'[12:42:03.520 21/01/2026]',-106272.3,-165811.7,-83821.32,15891.69,-375000,-375000,-139701,-119882.8,0.03,0.02,0.88,-4,0,-2,35,0
'[12:42:03.524 21/01/2026]',-106263.7,-165809.5,-83814.34,15878.05,-375000,-375000,-139706.1,-119886.2,0.03,0.02,0.88,-4,0,-2,35,0
'[12:42:03.528 21/01/2026]',-106263.1,-165811.3,-83810.32,15878.05,-375000,-375000,-139705.6,-119887.8,0.02,0.00,0.89,-4,0,-2,35,0
'[12:42:03.532 21/01/2026]',-106270,-165814,-83815.64,15877.52,-375000,-375000,-139709.4,-119897.4,0.02,0.00,0.89,-4,0,-2,35,0
'[12:42:03.536 21/01/2026]',-106264.2,-165809.5,-83819.22,15892.98,-375000,-375000,-139706.5,-119893.3,0.02,0.00,0.89,-4,0,-2,35,0
'[12:42:03.540 21/01/2026]',-106259.6,-165815.7,-83821.14,15875.46,-375000,-375000,-139719.8,-119905,0.02,0.00,0.89,-4,0,-2,35,0
'[12:42:03.544 21/01/2026]',-106253.4,-165806.8,-83808.09,15867.46,-375000,-375000,-139715.4,-119892.3,0.02,0.00,0.89,-4,0,-2,35,0
'[12:42:03.548 21/01/2026]',-106259.3,-165802,-83807.33,15881.32,-375000,-375000,-139707.1,-119889.1,0.02,0.00,0.89,-4,0,-2,35,0
'[12:42:03.552 21/01/2026]',-106261.9,-165806.2,-83811.22,15892.89,-375000,-375000,-139705.7,-119889.9,0.02,0.00,0.89,-4,0,-2,35,0
'[12:42:03.556 21/01/2026]',-106251,-165811.1,-83811.84,15878.72,-375000,-375000,-139713.2,-119894.6,0.02,0.00,0.89,-4,0,-2,35,0
'[12:42:03.560 21/01/2026]',-106244.7,-165803.9,-83800.45,15875.59,-375000,-375000,-139709.8,-119887,0.02,0.00,0.89,-4,0,-2,35,0
'[12:42:03.564 21/01/2026]',-106258,-165807.3,-83804.47,15874.25,-375000,-375000,-139709.9,-119889.3,0.03,0.00,0.89,-4,0,-2,35,0
'[12:42:03.568 21/01/2026]',-106268,-165812.8,-83817.34,15888.74,-375000,-375000,-139706.4,-119894.7,0.03,0.00,0.89,-4,0,-2,35,0
'[12:42:03.572 21/01/2026]',-106260.9,-165810.1,-83815.69,15888.11,-375000,-375000,-139708.9,-119894.8,0.03,0.00,0.89,-4,0,-2,35,0
'[12:42:03.576 21/01/2026]',-106247.6,-165804.4,-83803.8,15882.21,-375000,-375000,-139705.3,-119884.3,0.03,0.00,0.89,-4,0,-2,35,0
'[12:42:03.580 21/01/2026]',-106251.5,-165804.5,-83807.86,15875.46,-375000,-375000,-139706.9,-119885.5,0.03,0.00,0.89,-4,0,-2,35,0
'[12:42:03.584 21/01/2026]',-106261.4,-165811.8,-83814.48,15885.43,-375000,-375000,-139704.7,-119889.3,0.03,0.00,0.89,-4,0,-2,35,0
'[12:42:03.588 21/01/2026]',-106265.2,-165814.2,-83813.23,15886.73,-375000,-375000,-139703.1,-119888.2,0.03,0.00,0.89,-4,0,-2,35,0
'[12:42:03.592 21/01/2026]',-106249.2,-165805.8,-83804.33,15874.52,-375000,-375000,-139707.7,-119888,0.03,0.00,0.89,-4,0,-2,35,0
'[12:42:03.596 21/01/2026]',-106234.4,-165796.1,-83802.32,15879.84,-375000,-375000,-139702.9,-119880.4,0.03,0.00,0.89,-4,0,-2,35,0
'[12:42:03.600 21/01/2026]',-106263.5,-165804.8,-83813.85,15886.59,-375000,-375000,-139699.9,-119882.1,0.02,0.00,0.88,-4,0,-2,35,0
'[12:42:03.604 21/01/2026]',-106260.4,-165801.9,-83812.65,15894.91,-375000,-375000,-139695.7,-119879.2,0.02,0.00,0.88,-4,0,-2,35,0
'[12:42:03.608 21/01/2026]',-106250.3,-165798.3,-83802.37,15884.62,-375000,-375000,-139702,-119880.9,0.02,0.00,0.88,-4,0,-2,35,0
'[12:42:03.612 21/01/2026]',-106257.1,-165800.1,-83800.17,15878.9,-375000,-375000,-139703.5,-119881.8,0.02,0.00,0.88,-4,0,-2,35,0
'[12:42:03.616 21/01/2026]',-106260.2,-165799.5,-83803.52,15891.46,-375000,-375000,-139696,-119875.1,0.02,0.00,0.88,-4,0,-2,35,0
'[12:42:03.620 21/01/2026]',-106268.9,-165808.9,-83811.8,15889.59,-375000,-375000,-139703.6,-119889.3,0.02,0.00,0.88,-4,0,-2,35,0
'[12:42:03.624 21/01/2026]',-106257.7,-165804.8,-83803.93,15883.37,-375000,-375000,-139706.7,-119885.5,0.02,0.00,0.88,-4,0,-2,35,0
'[12:42:03.628 21/01/2026]',-106244.7,-165791.8,-83798.2,15882.21,-375000,-375000,-139702.1,-119879.7,0.02,0.00,0.88,-4,0,-2,35,0
'[12:42:03.632 21/01/2026]',-106244.8,-165794.6,-83809.92,15885.34,-375000,-375000,-139700.5,-119878.3,0.02,0.00,0.88,-4,0,-2,35,0
'[12:42:03.636 21/01/2026]',-106246,-165801.6,-83813.85,15890.39,-375000,-375000,-139702,-119882.2,0.02,0.00,0.88,-4,0,-2,35,0
'[12:42:03.640 21/01/2026]',-106248.1,-165803,-83805.72,15882.79,-375000,-375000,-139707.3,-119886.4,0.02,0.00,0.88,-4,0,-2,35,0
'[12:42:03.644 21/01/2026]',-106259.6,-165806.1,-83809.83,15871.12,-375000,-375000,-139712.8,-119886.5,0.02,0.00,0.88,-4,0,-2,35,0
'[12:42:03.648 21/01/2026]',-106273.8,-165804.7,-83813.85,15880.74,-375000,-375000,-139708.8,-119883.1,0.02,0.00,0.88,-4,0,-2,35,0
'[12:42:03.652 21/01/2026]',-106275.1,-165803.8,-83815.95,15891.91,-375000,-375000,-139702.6,-119883.6,0.02,0.00,0.88,-4,0,-2,35,0
'[12:42:03.656 21/01/2026]',-106263.1,-165802.2,-83811.48,15888.42,-375000,-375000,-139705.7,-119885.9,0.02,0.00,0.88,-4,0,-2,35,0
'[12:42:03.660 21/01/2026]',-106257.7,-165799.5,-83805.67,15872.64,-375000,-375000,-139711.4,-119887.6,0.02,0.00,0.88,-4,0,-2,35,0
'[12:42:03.664 21/01/2026]',-106267.6,-165800.9,-83803.62,15875.01,-375000,-375000,-139704.5,-119879,0.02,0.00,0.88,-4,0,-2,35,0
'[12:42:03.668 21/01/2026]',-106276,-165804.3,-83811.08,15882.84,-375000,-375000,-139698,-119875.5,0.02,0.00,0.88,-4,0,-2,35,0
'[12:42:03.672 21/01/2026]',-106271.4,-165806.5,-83815.33,15882.66,-375000,-375000,-139701.9,-119882.4,0.02,0.00,0.89,-4,0,-2,35,0
'[12:42:03.676 21/01/2026]',-106255.9,-165806,-83813.95,15872.55,-375000,-375000,-139707.5,-119886.4,0.02,0.00,0.89,-4,0,-2,35,0
'[12:42:03.680 21/01/2026]',-106265.6,-165809.9,-83817.7,15868.89,-375000,-375000,-139712,-119894.1,0.02,0.00,0.89,-4,0,-2,35,0
