'Time and date','Fp1','Fp2','F3','Fz','F4','P3','Pz','P4','AccX','AccY','AccZ','GyroX','GyroY','GyroZ','Battery','Event'
'[hh:mm:ss.mmm dd/mm/yyyy]','uV','uV','uV','uV','uV','uV','uV','uV','G','G','G','Deg/s','Deg/s','Deg/s','%','Button'
'[14:14:00.000 20/01/2026]',-109989.6,-161365.5,-90374.49,-103590.9,-375000,-375000,-193752.7,-122788.1,0.05,0.00,0.89,-4,0,-2,40,0
'[14:14:00.004 20/01/2026]',-110471.8,-161888.8,-90910.58,-103864.1,-375000,-375000,-192170.8,-123273.7,0.05,0.00,0.89,-4,0,-2,40,0
'[14:14:00.008 20/01/2026]',-110463.9,-161819.9,-90837.13,-104157.4,-375000,-375000,-193311.1,-123243.3,0.05,0.00,0.89,-4,0,-2,40,0
'[14:14:00.012 20/01/2026]',-109960.8,-161271.7,-90313.61,-103834.8,-375000,-375000,-194867.7,-122724.6,0.05,0.00,0.89,-4,0,-2,40,0
'[14:14:00.016 20/01/2026]',-109947.6,-161307.6,-90344.14,-103593.3,-375000,-375000,-194030.8,-122758,0.05,0.00,0.89,-4,0,-2,40,0
'[14:14:00.020 20/01/2026]',-110386.5,-161791.6,-90802.93,-103774.9,-375000,-375000,-192308.6,-123216.4,0.05,0.00,0.89,-4,0,-2,40,0
'[14:14:00.024 20/01/2026]',-110525.7,-161885,-90881.84,-104121,-375000,-375000,-192936,-123316.4,0.05,0.00,0.89,-4,0,-2,40,0
'[14:14:00.028 20/01/2026]',-110033.3,-161336.7,-90399.21,-103913.9,-375000,-375000,-194806.4,-122825.6,0.05,0.00,0.89,-4,0,-2,40,0
'[14:14:00.032 20/01/2026]',-109893.3,-161243.2,-90294.25,-103585,-375000,-375000,-194302.9,-122633.2,0.05,0.00,0.89,-4,0,-2,40,0
'[14:14:00.036 20/01/2026]',-109989.6,-161365.5,-90374.49,-103590.9,-375000,-375000,-193752.7,-122788.1,0.05,0.00,0.89,-4,0,-2,40,0
'[14:14:00.040 20/01/2026]',-110471.8,-161888.8,-90910.58,-103864.1,-375000,-375000,-192170.8,-123273.7,0.05,0.00,0.89,-4,0,-2,40,0
'[14:14:00.044 20/01/2026]',-110463.9,-161819.9,-90837.13,-104157.4,-375000,-375000,-193311.1,-123243.3,0.05,0.00,0.89,-4,0,-2,40,0
'[14:14:00.048 20/01/2026]',-109960.8,-161271.7,-90313.61,-103834.8,-375000,-375000,-194867.7,-122724.6,0.05,0.00,0.89,-4,0,-2,40,0
'[14:14:00.052 20/01/2026]',-109947.6,-161307.6,-90344.14,-103593.3,-375000,-375000,-194030.8,-122758,0.05,0.00,0.89,-4,0,-2,40,0
'[14:14:00.056 20/01/2026]',-110386.5,-161791.6,-90802.93,-103774.9,-375000,-375000,-192308.6,-123216.4,0.05,0.00,0.89,-4,0,-2,40,0
'[14:14:00.060 20/01/2026]',-110525.7,-161885,-90881.84,-104121,-375000,-375000,-192936,-123316.4,0.05,0.00,0.89,-4,0,-2,40,0
'[14:14:00.064 20/01/2026]',-110033.3,-161336.7,-90399.21,-103913.9,-375000,-375000,-194806.4,-122825.6,0.05,0.00,0.89,-4,0,-2,40,0
'[14:14:00.068 20/01/2026]',-109893.3,-161243.2,-90294.25,-103585,-375000,-375000,-194302.9,-122633.2,0.05,0.00,0.89,-4,0,-2,40,0
'[14:14:00.072 20/01/2026]',-110308.9,-161705.6,-90739.45,-103710,-375000,-375000,-192500.4,-123077.5,0.03,0.00,0.89,-4,0,-2,40,0
'[14:14:00.076 20/01/2026]',-110554.5,-161905.5,-90952.91,-104090,-375000,-375000,-192593.6,-123348.8,0.03,0.00,0.89,-4,0,-2,40,0
'[14:14:00.080 20/01/2026]',-110056.2,-161343.6,-90447.36,-103946.9,-375000,-375000,-194568.4,-122871.4,0.03,0.00,0.89,-4,0,-2,40,0
'[14:14:00.084 20/01/2026]',-109842.4,-161158.8,-90264.84,-103606.5,-375000,-375000,-194503.9,-122627.4,0.03,0.00,0.89,-4,0,-2,40,0
'[14:14:00.088 20/01/2026]',-110226.5,-161622.9,-90672.27,-103673.7,-375000,-375000,-192796.6,-123000,0.03,0.00,0.89,-4,0,-2,40,0
'[14:14:00.092 20/01/2026]',-110607.9,-162027.3,-91020.05,-104085,-375000,-375000,-192389.1,-123414.5,0.03,0.00,0.89,-4,0,-2,40,0
'[14:14:00.096 20/01/2026]',-110241.5,-161610.8,-90580.58,-104070,-375000,-375000,-194328.6,-123034,0.03,0.00,0.89,-4,0,-2,40,0
'[14:14:00.100 20/01/2026]',-109936.5,-161335.7,-90295.45,-103715.9,-375000,-375000,-194690.1,-122742.2,0.03,0.00,0.89,-4,0,-2,40,0
'[14:14:00.104 20/01/2026]',-110199.9,-161656.4,-90591.35,-103674.4,-375000,-375000,-193094.8,-122916.4,0.03,0.00,0.89,-4,0,-2,40,0
'[14:14:00.108 20/01/2026]',-110638.5,-162139.9,-91016.39,-104050,-375000,-375000,-192258.3,-123329.5,0.02,0.00,0.88,-4,0,-2,40,0
'[14:14:00.112 20/01/2026]',-110387.1,-161858.2,-90684.87,-104155.7,-375000,-375000,-194033.8,-123096.2,0.02,0.00,0.88,-4,0,-2,40,0
'[14:14:00.116 20/01/2026]',-110013.5,-161494.5,-90310.79,-103801,-375000,-375000,-194806.7,-122709.9,0.02,0.00,0.88,-4,0,-2,40,0
'[14:14:00.120 20/01/2026]',-110196.2,-161737.9,-90530.38,-103696.2,-375000,-375000,-193424.6,-122892.1,0.02,0.00,0.88,-4,0,-2,40,0
'[14:14:00.124 20/01/2026]',-110666.1,-162272.8,-91001.81,-104030,-375000,-375000,-192191.3,-123383.6,0.02,0.00,0.88,-4,0,-2,40,0
'[14:14:00.128 20/01/2026]',-110564.6,-162134.1,-90829.8,-104266.5,-375000,-375000,-193727.4,-123273.7,0.02,0.00,0.88,-4,0,-2,40,0
'[14:14:00.132 20/01/2026]',-110103.2,-161666.5,-90352.63,-103910.4,-375000,-375000,-194865,-122774.8,0.02,0.00,0.88,-4,0,-2,40,0
'[14:14:00.136 20/01/2026]',-110198.5,-161827.6,-90467.52,-103735.7,-375000,-375000,-193749.5,-122882.1,0.02,0.00,0.88,-4,0,-2,40,0
'[14:14:00.140 20/01/2026]',-110669.3,-162366.3,-90962.74,-104001.9,-375000,-375000,-192217.2,-123294.3,0.02,0.00,0.88,-4,0,-2,40,0
'[14:14:00.144 20/01/2026]',-110695.5,-162362.7,-90926.85,-104318.9,-375000,-375000,-193339.4,-123349,0.03,0.00,0.89,-4,0,-2,40,0
'[14:14:00.148 20/01/2026]',-110210.6,-161872.2,-90425.59,-104031.4,-375000,-375000,-194866.3,-122851.6,0.03,0.00,0.89,-4,0,-2,40,0
'[14:14:00.152 20/01/2026]',-110194.8,-161919.3,-90446.87,-103806.5,-375000,-375000,-194103.3,-122881.3,0.03,0.00,0.89,-4,0,-2,40,0
'[14:14:00.156 20/01/2026]',-110653.7,-162444.1,-90948.66,-104019.3,-375000,-375000,-192455.8,-123345.5,0.03,0.00,0.89,-4,0,-2,40,0
'[14:14:00.160 20/01/2026]',-110780.9,-162564.3,-91035.08,-104371.8,-375000,-375000,-193062.8,-123468.1,0.03,0.00,0.89,-4,0,-2,40,0
'[14:14:00.164 20/01/2026]',-110278.7,-162034.2,-90512.89,-104148.8,-375000,-375000,-194819.7,-122968.5,0.03,0.00,0.89,-4,0,-2,40,0
'[14:14:00.168 20/01/2026]',-110126.2,-161925.3,-90397.56,-103814.6,-375000,-375000,-194293.5,-122774.8,0.03,0.00,0.89,-4,0,-2,40,0
'[14:14:00.172 20/01/2026]',-110529.9,-162404.2,-90845,-103961.9,-375000,-375000,-192642.4,-123279,0.03,0.00,0.89,-4,0,-2,40,0
'[14:14:00.176 20/01/2026]',-110797,-162668.7,-91081.66,-104360.9,-375000,-375000,-192776.7,-123554.1,0.03,0.00,0.89,-4,0,-2,40,0
'[14:14:00.180 20/01/2026]',-110321.6,-162156.4,-90564.3,-104227,-375000,-375000,-194673.8,-123057.6,0.03,0.00,0.88,-4,0,-2,40,0
'[14:14:00.184 20/01/2026]',-110065.4,-161939.1,-90350.48,-103869.8,-375000,-375000,-194629.1,-122839.6,0.03,0.00,0.88,-4,0,-2,40,0
'[14:14:00.188 20/01/2026]',-110384.6,-162317.1,-90721.44,-103905.7,-375000,-375000,-192948.6,-123230.2,0.03,0.00,0.88,-4,0,-2,40,0
'[14:14:00.192 20/01/2026]',-110742.3,-162677.7,-91082.41,-104304.8,-375000,-375000,-192530.5,-123636.7,0.03,0.00,0.88,-4,0,-2,40,0
'[14:14:00.196 20/01/2026]',-110344.1,-162209.6,-90649.46,-104278.1,-375000,-375000,-194418.2,-123166.6,0.03,0.00,0.88,-4,0,-2,40,0
'[14:14:00.200 20/01/2026]',-109995.8,-161880.9,-90332.74,-103899.5,-375000,-375000,-194759.5,-122833.1,0.03,0.00,0.88,-4,0,-2,40,0
'[14:14:00.204 20/01/2026]',-110229.9,-162167.9,-90629.03,-103843.6,-375000,-375000,-193196.5,-123072.5,0.03,0.00,0.88,-4,0,-2,40,0
'[14:14:00.208 20/01/2026]',-110655.1,-162609.7,-91051.35,-104204.8,-375000,-375000,-192318.1,-123523.2,0.03,0.00,0.88,-4,0,-2,40,0
'[14:14:00.212 20/01/2026]',-110402.3,-162296.1,-90750.85,-104338.3,-375000,-375000,-194135.5,-123317,0.03,0.00,0.88,-4,0,-2,40,0
'[14:14:00.216 20/01/2026]',-109980.2,-161860.4,-90340.02,-103951.7,-375000,-375000,-194944.5,-122890.7,0.03,0.00,0.88,-4,0,-2,40,0
'[14:14:00.220 20/01/2026]',-110110.1,-162032.4,-90516.47,-103784.9,-375000,-375000,-193532.6,-122952.1,0.03,0.00,0.88,-4,0,-2,40,0
'[14:14:00.224 20/01/2026]',-110589.1,-162533.3,-91018.09,-104119.3,-375000,-375000,-192307.2,-123491.5,0.03,0.00,0.88,-4,0,-2,40,0
'[14:14:00.228 20/01/2026]',-110454,-162326.5,-90823.67,-104331,-375000,-375000,-193783.5,-123357.4,0.03,0.00,0.88,-4,0,-2,40,0
'[14:14:00.232 20/01/2026]',-109999.6,-161837.3,-90367.52,-103994.3,-375000,-375000,-194983,-122878.6,0.03,0.00,0.88,-4,0,-2,40,0
'[14:14:00.236 20/01/2026]',-110062.7,-161956.4,-90482.98,-103804.5,-375000,-375000,-193894,-122965.2,0.03,0.00,0.88,-4,0,-2,40,0
'[14:14:00.240 20/01/2026]',-110514,-162459.7,-90959.66,-104053.7,-375000,-375000,-192382.9,-123441.1,0.03,0.00,0.88,-4,0,-2,40,0
'[14:14:00.244 20/01/2026]',-110531.9,-162421.8,-90922.6,-104362.5,-375000,-375000,-193486.6,-123489.9,0.03,0.00,0.88,-4,0,-2,40,0
'[14:14:00.248 20/01/2026]',-110028.3,-161869.6,-90396.66,-104047,-375000,-375000,-194968.9,-122927.3,0.03,0.00,0.88,-4,0,-2,40,0
'[14:14:00.252 20/01/2026]',-109982.9,-161858,-90408.73,-103790.7,-375000,-375000,-194190.3,-122879.4,0.03,0.00,0.88,-4,0,-2,40,0
'[14:14:00.256 20/01/2026]',-110439.8,-162361.5,-90900.16,-103998.5,-375000,-375000,-192601.9,-123402.1,0.03,0.00,0.88,-4,0,-2,40,0
'[14:14:00.260 20/01/2026]',-110585,-162469.7,-90985.99,-104348,-375000,-375000,-193177.8,-123569.7,0.03,0.00,0.88,-4,0,-2,40,0
'[14:14:00.264 20/01/2026]',-110093.7,-161918.3,-90480.13,-104122.9,-375000,-375000,-194943.7,-123005.4,0.03,0.00,0.88,-4,0,-2,40,0
'[14:14:00.268 20/01/2026]',-109942.5,-161808.8,-90320.31,-103810.1,-375000,-375000,-194489.9,-122869.6,0.03,0.00,0.88,-4,0,-2,40,0
'[14:14:00.272 20/01/2026]',-110303.2,-162223.4,-90775.17,-103905.3,-375000,-375000,-192756.6,-123227.1,0.03,0.00,0.88,-4,0,-2,40,0
'[14:14:00.276 20/01/2026]',-110571.7,-162466.8,-91020.77,-104306.5,-375000,-375000,-192858.3,-123525.9,0.03,0.00,0.88,-4,0,-2,40,0
'[14:14:00.280 20/01/2026]',-110142.6,-161977,-90542.63,-104199.5,-375000,-375000,-194780.3,-123064.5,0.03,0.00,0.88,-4,0,-2,40,0
'[14:14:00.284 20/01/2026]',-109915.3,-161766.8,-90361.88,-103836.6,-375000,-375000,-194730.5,-122836.1,0.03,0.00,0.88,-4,0,-2,40,0
'[14:14:00.288 20/01/2026]',-110235,-162138.8,-90703.64,-103858,-375000,-375000,-193048.4,-123233.7,0.03,0.00,0.88,-4,0,-2,40,0
'[14:14:00.292 20/01/2026]',-110603.9,-162491.3,-91030.56,-104252.2,-375000,-375000,-192633.9,-123540.4,0.03,0.00,0.88,-4,0,-2,40,0
'[14:14:00.296 20/01/2026]',-110236.3,-162056.3,-90615.49,-104252.6,-375000,-375000,-194611.9,-123122.5,0.03,0.00,0.88,-4,0,-2,40,0
'[14:14:00.300 20/01/2026]',-109913.5,-161736.1,-90359.65,-103873.5,-375000,-375000,-194969.1,-122795.4,0.03,0.00,0.88,-4,0,-2,40,0
'[14:14:00.304 20/01/2026]',-110185.6,-162051.4,-90673.6,-103851,-375000,-375000,-193436.9,-123104.2,0.03,0.00,0.88,-4,0,-2,40,0
'[14:14:00.308 20/01/2026]',-110640.9,-162518.5,-91106.6,-104250.9,-375000,-375000,-192626.6,-123606.9,0.03,0.00,0.88,-4,0,-2,40,0
'[14:14:00.312 20/01/2026]',-110318.3,-162149.7,-90742.31,-104312.3,-375000,-375000,-194333,-123260.3,0.03,0.00,0.88,-4,0,-2,40,0
'[14:14:00.316 20/01/2026]',-109914.1,-161733.7,-90350.4,-103939.5,-375000,-375000,-195130.4,-122827.6,0.03,0.00,0.88,-4,0,-2,40,0
'[14:14:00.320 20/01/2026]',-110072.5,-161936.1,-90530.24,-103808.9,-375000,-375000,-193791.6,-122973.1,0.03,0.00,0.88,-4,0,-2,40,0
'[14:14:00.324 20/01/2026]',-110541.6,-162437.5,-90988.9,-104147.2,-375000,-375000,-192616.2,-123507.8,0.03,0.00,0.89,-4,0,-2,40,0
'[14:14:00.328 20/01/2026]',-110431.3,-162260.7,-90833.59,-104366.7,-375000,-375000,-194083.5,-123405.7,0.03,0.00,0.89,-4,0,-2,40,0
'[14:14:00.332 20/01/2026]',-109973.3,-161767.8,-90398.09,-104025.2,-375000,-375000,-195287.3,-122916.4,0.03,0.00,0.89,-4,0,-2,40,0
'[14:14:00.336 20/01/2026]',-110016.1,-161858.8,-90482.45,-103806.1,-375000,-375000,-194179.2,-122937.1,0.03,0.00,0.89,-4,0,-2,40,0
'[14:14:00.340 20/01/2026]',-110478.5,-162380.1,-90960.87,-104076.2,-375000,-375000,-192702.8,-123464,0.03,0.00,0.89,-4,0,-2,40,0
'[14:14:00.344 20/01/2026]',-110495.5,-162344.9,-90900.12,-104383.1,-375000,-375000,-193779.6,-123453,0.03,0.00,0.89,-4,0,-2,40,0
'[14:14:00.348 20/01/2026]',-109968.9,-161777.3,-90387.32,-104048.1,-375000,-375000,-195261.3,-122877.1,0.03,0.00,0.89,-4,0,-2,40,0
'[14:14:00.352 20/01/2026]',-109941.4,-161778,-90402.66,-103794.1,-375000,-375000,-194506.7,-122877.1,0.03,0.00,0.89,-4,0,-2,40,0
'[14:14:00.356 20/01/2026]',-110405.7,-162282.9,-90898.06,-103991.3,-375000,-375000,-192851.2,-123364.8,0.03,0.00,0.89,-4,0,-2,40,0
'[14:14:00.360 20/01/2026]',-110561.6,-162405.6,-90990.55,-104346.3,-375000,-375000,-193430.2,-123493.5,0.03,0.00,0.88,-4,0,-2,40,0
'[14:14:00.364 20/01/2026]',-110065.2,-161858,-90450.48,-104131.1,-375000,-375000,-195256,-122985.6,0.03,0.00,0.88,-4,0,-2,40,0
'[14:14:00.368 20/01/2026]',-109919.7,-161741.6,-90356.66,-103799.1,-375000,-375000,-194797.5,-122873.7,0.03,0.00,0.88,-4,0,-2,40,0
'[14:14:00.372 20/01/2026]',-110317.6,-162191.3,-90794.48,-103917.1,-375000,-375000,-193047.7,-123284.4,0.03,0.00,0.88,-4,0,-2,40,0
'[14:14:00.376 20/01/2026]',-110574.8,-162423.7,-91012.68,-104297.9,-375000,-375000,-193104.5,-123553.5,0.03,0.00,0.88,-4,0,-2,40,0
'[14:14:00.380 20/01/2026]',-110128.6,-161901.1,-90521.52,-104169.2,-375000,-375000,-195009.8,-123024.5,0.03,0.00,0.88,-4,0,-2,40,0
'[14:14:00.384 20/01/2026]',-109919.1,-161709.9,-90374.41,-103853.2,-375000,-375000,-195005.2,-122850.2,0.03,0.00,0.88,-4,0,-2,40,0
'[14:14:00.388 20/01/2026]',-110260.4,-162112.2,-90752.41,-103894.7,-375000,-375000,-193276.8,-123221.1,0.03,0.00,0.88,-4,0,-2,40,0
'[14:14:00.392 20/01/2026]',-110617.8,-162476.1,-91057.02,-104278.8,-375000,-375000,-192820.4,-123570.8,0.03,0.00,0.88,-4,0,-2,40,0
'[14:14:00.396 20/01/2026]',-110241.7,-162029.2,-90628.68,-104260.3,-375000,-375000,-194765.5,-123130.3,0.03,0.00,0.88,-4,0,-2,40,0
'[14:14:00.400 20/01/2026]',-109913.7,-161708.5,-90331.31,-103881.3,-375000,-375000,-195142.5,-122788.1,0.03,0.00,0.88,-4,0,-2,40,0
'[14:14:00.404 20/01/2026]',-110163.3,-162014.9,-90624.52,-103831.5,-375000,-375000,-193546.8,-123076.9,0.03,0.00,0.88,-4,0,-2,40,0
'[14:14:00.408 20/01/2026]',-110612.5,-162490.1,-91064.18,-104211.9,-375000,-375000,-192625,-123595.9,0.03,0.00,0.88,-4,0,-2,40,0
'[14:14:00.412 20/01/2026]',-110377.4,-162170.8,-90770.48,-104331.1,-375000,-375000,-194406.5,-123285.1,0.03,0.00,0.88,-4,0,-2,40,0
'[14:14:00.416 20/01/2026]',-109970.8,-161750,-90368.28,-103948.3,-375000,-375000,-195236.3,-122879.2,0.03,0.00,0.88,-4,0,-2,40,0
'[14:14:00.420 20/01/2026]',-110122.4,-161962.1,-90533.19,-103803,-375000,-375000,-193826.3,-123005.7,0.03,0.00,0.88,-4,0,-2,40,0
'[14:14:00.424 20/01/2026]',-110601.6,-162483.5,-91028.23,-104121.1,-375000,-375000,-192478.7,-123483,0.03,0.00,0.88,-4,0,-2,40,0
'[14:14:00.428 20/01/2026]',-110502.1,-162312.9,-90874.73,-104348,-375000,-375000,-193943.9,-123330.4,0.03,0.00,0.88,-4,0,-2,40,0
'[14:14:00.432 20/01/2026]',-110038.8,-161837.2,-90395.81,-103998.4,-375000,-375000,-195207.1,-122839.6,0.05,-0.02,0.89,-4,0,-2,40,0
'[14:14:00.436 20/01/2026]',-110118.5,-161969,-90516.7,-103812.6,-375000,-375000,-194114.1,-122950.1,0.05,-0.02,0.89,-4,0,-2,40,0
'[14:14:00.440 20/01/2026]',-110596.6,-162476.6,-91005.13,-104069.6,-375000,-375000,-192553.7,-123483.4,0.05,-0.02,0.89,-4,0,-2,40,0
'[14:14:00.444 20/01/2026]',-110673.6,-162466.2,-90968.2,-104376.7,-375000,-375000,-193611.9,-123423.6,0.05,-0.02,0.89,-4,0,-2,40,0
'[14:14:00.448 20/01/2026]',-110208.9,-161946.8,-90471.19,-104071.2,-375000,-375000,-195192.3,-122849.5,0.05,-0.02,0.89,-4,0,-2,40,0
'[14:14:00.452 20/01/2026]',-110204.4,-161975.3,-90491.57,-103815.5,-375000,-375000,-194393.1,-122836.6,0.05,-0.02,0.89,-4,0,-2,40,0
'[14:14:00.456 20/01/2026]',-110740.9,-162548.9,-91039.86,-104064.2,-375000,-375000,-192688.2,-123427.7,0.05,-0.02,0.89,-4,0,-2,40,0
'[14:14:00.460 20/01/2026]',-110919.2,-162658.9,-91134.27,-104416.3,-375000,-375000,-193212.9,-123531.3,0.05,-0.02,0.89,-4,0,-2,40,0
'[14:14:00.464 20/01/2026]',-110469.2,-162120.8,-90646.11,-104223.9,-375000,-375000,-195109.8,-123017,0.05,-0.02,0.89,-4,0,-2,40,0
'[14:14:00.468 20/01/2026]',-110369.5,-162032.4,-90570.79,-103932.8,-375000,-375000,-194743,-122970.5,0.03,0.00,0.89,-4,0,-2,40,0
'[14:14:00.472 20/01/2026]',-110732.4,-162419,-90936.02,-103970.7,-375000,-375000,-192854.4,-123204.9,0.03,0.00,0.89,-4,0,-2,40,0
'[14:14:00.476 20/01/2026]',-111030.1,-162683.8,-91175.09,-104365.3,-375000,-375000,-192875.3,-123529.2,0.03,0.00,0.89,-4,0,-2,40,0
'[14:14:00.480 20/01/2026]',-110586.7,-162165.6,-90682.41,-104275.9,-375000,-375000,-194965.4,-123080.4,0.03,0.00,0.89,-4,0,-2,40,0
'[14:14:00.484 20/01/2026]',-110346.8,-161931.5,-90507.93,-103910.2,-375000,-375000,-194973.5,-122807.3,0.03,0.00,0.89,-4,0,-2,40,0
'[14:14:00.488 20/01/2026]',-110671.8,-162301.1,-90886.98,-103928.4,-375000,-375000,-193188.5,-123145.4,0.03,0.00,0.89,-4,0,-2,40,0
'[14:14:00.492 20/01/2026]',-111032.9,-162668.8,-91229.85,-104329.3,-375000,-375000,-192674.9,-123561.1,0.03,0.00,0.89,-4,0,-2,40,0
'[14:14:00.496 20/01/2026]',-110662.1,-162218.3,-90810.09,-104325.7,-375000,-375000,-194672.9,-123148.4,0.03,0.00,0.89,-4,0,-2,40,0
'[14:14:00.500 20/01/2026]',-110296.5,-161836.3,-90494.39,-103937.1,-375000,-375000,-195148.1,-122797.4,0.03,0.00,0.89,-4,0,-2,40,0
'[14:14:00.504 20/01/2026]',-110538.3,-162134.8,-90778.52,-103877.2,-375000,-375000,-193547.7,-123080.5,0.03,-0.02,0.89,-4,0,-2,40,0
'[14:14:00.508 20/01/2026]',-110975.5,-162590.5,-91205.93,-104235.2,-375000,-375000,-192498.6,-123519.9,0.03,-0.02,0.89,-4,0,-2,40,0
'[14:14:00.512 20/01/2026]',-110684,-162206,-90848.39,-104337.4,-375000,-375000,-194327.5,-123227,0.03,-0.02,0.89,-4,0,-2,40,0
'[14:14:00.516 20/01/2026]',-110221,-161713.9,-90429.66,-103927.8,-375000,-375000,-195244.8,-122735.1,0.03,-0.02,0.89,-4,0,-2,40,0
'[14:14:00.520 20/01/2026]',-110357.6,-161879,-90632.38,-103790.7,-375000,-375000,-193911.7,-122924,0.03,-0.02,0.89,-4,0,-2,40,0
'[14:14:00.524 20/01/2026]',-110814.5,-162376.8,-91093.15,-104079.1,-375000,-375000,-192433.3,-123431.7,0.03,-0.02,0.89,-4,0,-2,40,0
'[14:14:00.528 20/01/2026]',-110648.8,-162147.8,-90881.52,-104279.6,-375000,-375000,-193878.4,-123280.7,0.03,-0.02,0.89,-4,0,-2,40,0
'[14:14:00.532 20/01/2026]',-110189.4,-161638.7,-90458.98,-103966.6,-375000,-375000,-195338.3,-122778.1,0.03,-0.02,0.89,-4,0,-2,40,0
'[14:14:00.536 20/01/2026]',-110263.8,-161754.5,-90582.5,-103786.9,-375000,-375000,-194267.8,-122887.8,0.03,-0.02,0.89,-4,0,-2,40,0
'[14:14:00.540 20/01/2026]',-110738.7,-162281,-91071.95,-104028.7,-375000,-375000,-192473.8,-123417,0.03,-0.02,0.89,-4,0,-2,40,0
'[14:14:00.544 20/01/2026]',-110749.6,-162226,-91046.07,-104337.6,-375000,-375000,-193444.8,-123402.8,0.03,-0.02,0.89,-4,0,-2,40,0
'[14:14:00.548 20/01/2026]',-110219,-161630.2,-90506.63,-104049.9,-375000,-375000,-195308.7,-122861.9,0.03,-0.02,0.89,-4,0,-2,40,0
'[14:14:00.552 20/01/2026]',-110154.1,-161600.1,-90492.06,-103757.6,-375000,-375000,-194560.9,-122802.9,0.03,-0.02,0.89,-4,0,-2,40,0
'[14:14:00.556 20/01/2026]',-110590.2,-162108.6,-90973.79,-103910.8,-375000,-375000,-192567.2,-123333.6,0.03,-0.02,0.89,-4,0,-2,40,0
'[14:14:00.560 20/01/2026]',-110750.4,-162218,-91099.9,-104277.4,-375000,-375000,-192940.4,-123437.4,0.03,-0.02,0.89,-4,0,-2,40,0
'[14:14:00.564 20/01/2026]',-110223,-161617,-90545.08,-104088.2,-375000,-375000,-195118.4,-122869.1,0.03,-0.02,0.89,-4,0,-2,40,0
'[14:14:00.568 20/01/2026]',-110079.6,-161509.6,-90458.8,-103773.4,-375000,-375000,-194860.6,-122766.3,0.03,-0.02,0.89,-4,0,-2,40,0
'[14:14:00.572 20/01/2026]',-110474.5,-161978.7,-90896.41,-103846.3,-375000,-375000,-192828.2,-123240,0.03,-0.02,0.89,-4,0,-2,40,0
'[14:14:00.576 20/01/2026]',-110751.9,-162241.6,-91107.32,-104221.8,-375000,-375000,-192554.6,-123505,0.03,0.00,0.89,-4,0,-2,40,0
'[14:14:00.580 20/01/2026]',-110273.8,-161690.7,-90587.46,-104142.1,-375000,-375000,-194849.4,-122960.1,0.03,0.00,0.89,-4,0,-2,40,0
'[14:14:00.584 20/01/2026]',-109999,-161440.2,-90387.37,-103771.1,-375000,-375000,-195051.3,-122684.1,0.03,0.00,0.89,-4,0,-2,40,0
'[14:14:00.588 20/01/2026]',-110344.7,-161840.2,-90781.48,-103782.2,-375000,-375000,-193133.9,-123078.8,0.03,0.00,0.89,-4,0,-2,40,0
'[14:14:00.592 20/01/2026]',-110745,-162253,-91177.19,-104185.4,-375000,-375000,-192320.3,-123541.1,0.03,0.00,0.89,-4,0,-2,40,0
'[14:14:00.596 20/01/2026]',-110368.4,-161804.1,-90720.63,-104226.5,-375000,-375000,-194552,-123112.5,0.03,0.00,0.89,-4,0,-2,40,0
'[14:14:00.600 20/01/2026]',-109999.1,-161432.7,-90379.63,-103835.5,-375000,-375000,-195268.9,-122704.5,0.03,0.00,0.89,-4,0,-2,40,0
'[14:14:00.604 20/01/2026]',-110217.1,-161717.3,-90639.54,-103721.8,-375000,-375000,-193485.5,-122963.8,0.03,0.00,0.89,-4,0,-2,40,0
'[14:14:00.608 20/01/2026]',-110669.5,-162187.4,-91104.41,-104059.2,-375000,-375000,-192083.2,-123497.7,0.03,0.00,0.89,-4,0,-2,40,0
'[14:14:00.612 20/01/2026]',-110416.8,-161862.4,-90799,-104241.9,-375000,-375000,-194117.1,-123189.6,0.03,-0.02,0.88,-4,0,-2,40,0
'[14:14:00.616 20/01/2026]',-109997.4,-161431.4,-90391.08,-103896.5,-375000,-375000,-195361,-122732.7,0.03,-0.02,0.88,-4,0,-2,40,0
'[14:14:00.620 20/01/2026]',-110142.2,-161642.3,-90567.88,-103731.3,-375000,-375000,-193877.6,-122883.7,0.03,-0.02,0.88,-4,0,-2,40,0
'[14:14:00.624 20/01/2026]',-110632.5,-162163.6,-91085.1,-104015.7,-375000,-375000,-192107.2,-123406.8,0.03,-0.02,0.88,-4,0,-2,40,0
'[14:14:00.628 20/01/2026]',-110564,-162022.6,-90950.41,-104324.2,-375000,-375000,-193704.3,-123350.2,0.03,-0.02,0.88,-4,0,-2,40,0
'[14:14:00.632 20/01/2026]',-110079.6,-161495.3,-90462.96,-104010.3,-375000,-375000,-195457.3,-122847.6,0.03,-0.02,0.88,-4,0,-2,40,0
'[14:14:00.636 20/01/2026]',-110109.6,-161578.2,-90547.09,-103760.4,-375000,-375000,-194328.8,-122862,0.03,-0.02,0.88,-4,0,-2,40,0
'[14:14:00.640 20/01/2026]',-110582.4,-162122.1,-91050.77,-103964.9,-375000,-375000,-192278.9,-123373.7,0.03,-0.02,0.88,-4,0,-2,40,0
'[14:14:00.644 20/01/2026]',-110628,-162107.7,-91040.89,-104311.7,-375000,-375000,-193223.3,-123445.1,0.03,-0.02,0.88,-4,0,-2,40,0
'[14:14:00.648 20/01/2026]',-110119.2,-161543.3,-90507.71,-104073.8,-375000,-375000,-195360.6,-122859.4,0.03,0.00,0.88,-4,0,-2,40,0
'[14:14:00.652 20/01/2026]',-110034.5,-161510.5,-90456.88,-103753.9,-375000,-375000,-194645.7,-122775,0.03,0.00,0.88,-4,0,-2,40,0
'[14:14:00.656 20/01/2026]',-110490.4,-162011.6,-90937.98,-103884.9,-375000,-375000,-192484,-123250.3,0.03,0.00,0.88,-4,0,-2,40,0
'[14:14:00.660 20/01/2026]',-110673.9,-162167.4,-91080.98,-104268.5,-375000,-375000,-192749.5,-123469.4,0.03,0.00,0.88,-4,0,-2,40,0
'[14:14:00.664 20/01/2026]',-110176.7,-161618.3,-90566.41,-104138.6,-375000,-375000,-195117.9,-122965.1,0.03,0.00,0.88,-4,0,-2,40,0
'[14:14:00.668 20/01/2026]',-110004,-161472.6,-90432.88,-103795.6,-375000,-375000,-194929.8,-122778.8,0.03,0.00,0.88,-4,0,-2,40,0
'[14:14:00.672 20/01/2026]',-110384.9,-161907.4,-90838.47,-103821.8,-375000,-375000,-192762.9,-123161.4,0.03,0.00,0.88,-4,0,-2,40,0
'[14:14:00.676 20/01/2026]',-110699.7,-162213.2,-91116.03,-104226.6,-375000,-375000,-192392.2,-123508.7,0.03,0.00,0.88,-4,0,-2,40,0
'[14:14:00.680 20/01/2026]',-110248.6,-161689.1,-90630.38,-104179.3,-375000,-375000,-194793.9,-122986.4,0.03,0.00,0.88,-4,0,-2,40,0
'[14:14:00.684 20/01/2026]',-109985.1,-161439.7,-90402.56,-103814.8,-375000,-375000,-195102.7,-122739.1,0.03,-0.02,0.89,-4,0,-2,40,0
'[14:14:00.688 20/01/2026]',-110314.5,-161825.5,-90769.36,-103788.6,-375000,-375000,-193100.5,-123095.2,0.03,-0.02,0.89,-4,0,-2,40,0
'[14:14:00.692 20/01/2026]',-110725,-162236,-91158.73,-104182.9,-375000,-375000,-192180.7,-123550.4,0.03,-0.02,0.89,-4,0,-2,40,0
'[14:14:00.696 20/01/2026]',-110363.7,-161795.6,-90727.83,-104259.1,-375000,-375000,-194539,-123130.2,0.03,-0.02,0.89,-4,0,-2,40,0
'[14:14:00.700 20/01/2026]',-110017.6,-161464.4,-90428.13,-103897,-375000,-375000,-195338.8,-122758.7,0.03,-0.02,0.89,-4,0,-2,40,0
'[14:14:00.704 20/01/2026]',-110242.1,-161746.5,-90701.01,-103783.9,-375000,-375000,-193554,-123038.8,0.03,-0.02,0.89,-4,0,-2,40,0
'[14:14:00.708 20/01/2026]',-110677.7,-162208.3,-91125.2,-104089.5,-375000,-375000,-192074.9,-123448.9,0.03,-0.02,0.89,-4,0,-2,40,0
'[14:14:00.712 20/01/2026]',-110474.1,-161918.4,-90859.75,-104297.1,-375000,-375000,-194082.8,-123225.6,0.03,-0.02,0.89,-4,0,-2,40,0
'[14:14:00.716 20/01/2026]',-110017.7,-161462,-90405.83,-103929.6,-375000,-375000,-195373.8,-122787.3,0.03,-0.02,0.89,-4,0,-2,40,0
'[14:14:00.720 20/01/2026]',-110127.2,-161629.6,-90557.38,-103722.1,-375000,-375000,-193835.6,-122896.7,0.02,-0.02,0.88,-4,0,-2,40,0
'[14:14:00.724 20/01/2026]',-110616.1,-162158,-91076.25,-104006.4,-375000,-375000,-192031.1,-123394.4,0.02,-0.02,0.88,-4,0,-2,40,0
'[14:14:00.728 20/01/2026]',-110563.2,-162037.2,-90961.98,-104335.4,-375000,-375000,-193648,-123372.6,0.02,-0.02,0.88,-4,0,-2,40,0
'[14:14:00.732 20/01/2026]',-110092.7,-161529.2,-90490.68,-104042.3,-375000,-375000,-195430.2,-122843.4,0.02,-0.02,0.88,-4,0,-2,40,0
'[14:14:00.736 20/01/2026]',-110133.2,-161614.1,-90563.77,-103801.4,-375000,-375000,-194300.7,-122895.1,0.02,-0.02,0.88,-4,0,-2,40,0
'[14:14:00.740 20/01/2026]',-110595.7,-162142.3,-91054.92,-103994.7,-375000,-375000,-192253,-123401.4,0.02,-0.02,0.88,-4,0,-2,40,0
'[14:14:00.744 20/01/2026]',-110650.9,-162144.5,-91049.6,-104344.6,-375000,-375000,-193223.2,-123412.1,0.02,-0.02,0.88,-4,0,-2,40,0
'[14:14:00.748 20/01/2026]',-110133.8,-161585.8,-90515.94,-104099.6,-375000,-375000,-195357.6,-122917.2,0.02,-0.02,0.88,-4,0,-2,40,0
'[14:14:00.752 20/01/2026]',-110053,-161547,-90497.2,-103782.4,-375000,-375000,-194629.5,-122852.3,0.02,-0.02,0.88,-4,0,-2,40,0
'[14:14:00.756 20/01/2026]',-110492.2,-162049.7,-90968.73,-103907.5,-375000,-375000,-192480.1,-123313,0.05,0.00,0.88,-4,0,-2,40,0
'[14:14:00.760 20/01/2026]',-110673.3,-162195.9,-91095.91,-104282.3,-375000,-375000,-192771.5,-123446.3,0.05,0.00,0.88,-4,0,-2,40,0
'[14:14:00.764 20/01/2026]',-110175.4,-161632.4,-90562.16,-104123.6,-375000,-375000,-195070.9,-122935.4,0.05,0.00,0.88,-4,0,-2,40,0
'[14:14:00.768 20/01/2026]',-110007.1,-161491.4,-90447.49,-103781.7,-375000,-375000,-194816.9,-122759.8,0.05,0.00,0.88,-4,0,-2,40,0
'[14:14:00.772 20/01/2026]',-110397.2,-161949.6,-90886.03,-103848.4,-375000,-375000,-192758.8,-123185.6,0.05,0.00,0.88,-4,0,-2,40,0
'[14:14:00.776 20/01/2026]',-110710.7,-162256.5,-91170.52,-104261,-375000,-375000,-192486.6,-123559.6,0.05,0.00,0.88,-4,0,-2,40,0
'[14:14:00.780 20/01/2026]',-110296,-161767.4,-90704.9,-104237.7,-375000,-375000,-194858,-123176.8,0.05,0.00,0.88,-4,0,-2,40,0
'[14:14:00.784 20/01/2026]',-109986.5,-161468.9,-90417.81,-103816.6,-375000,-375000,-195031.9,-122747.3,0.05,0.00,0.88,-4,0,-2,40,0
'[14:14:00.788 20/01/2026]',-110291.5,-161823.6,-90769.54,-103780.1,-375000,-375000,-193069.8,-123016.1,0.05,0.00,0.88,-4,0,-2,40,0
'[14:14:00.792 20/01/2026]',-110721.1,-162258.6,-91178.53,-104204.5,-375000,-375000,-192317.9,-123518.1,0.03,-0.02,0.88,-4,0,-2,40,0
'[14:14:00.796 20/01/2026]',-110378.5,-161859.6,-90789.66,-104272.9,-375000,-375000,-194497,-123173.1,0.03,-0.02,0.88,-4,0,-2,40,0
'[14:14:00.800 20/01/2026]',-110025.6,-161502.8,-90466.41,-103897.3,-375000,-375000,-195167.6,-122847.3,0.03,-0.02,0.88,-4,0,-2,40,0
'[14:14:00.804 20/01/2026]',-110249.8,-161769.9,-90724.25,-103793.4,-375000,-375000,-193484.8,-123098.5,0.03,-0.02,0.88,-4,0,-2,40,0
'[14:14:00.808 20/01/2026]',-110687.2,-162231.3,-91163.11,-104130.9,-375000,-375000,-192245.6,-123515.2,0.03,-0.02,0.88,-4,0,-2,40,0
'[14:14:00.812 20/01/2026]',-110440.6,-161923,-90837.13,-104270.9,-375000,-375000,-194101,-123194.8,0.03,-0.02,0.88,-4,0,-2,40,0
'[14:14:00.816 20/01/2026]',-110016.7,-161478.6,-90422.37,-103909.9,-375000,-375000,-195200.3,-122807.1,0.03,-0.02,0.88,-4,0,-2,40,0
'[14:14:00.820 20/01/2026]',-110140.7,-161653.9,-90605.7,-103744.5,-375000,-375000,-193779.9,-122956.5,0.03,-0.02,0.88,-4,0,-2,40,0
'[14:14:00.824 20/01/2026]',-110618.2,-162164.7,-91102.31,-104036.7,-375000,-375000,-192224.8,-123384.6,0.03,-0.02,0.88,-4,0,-2,40,0
'[14:14:00.828 20/01/2026]',-110542.8,-162021.7,-90965.07,-104309.6,-375000,-375000,-193721.5,-123366.5,0.03,0.00,0.88,-4,0,-2,40,0
'[14:14:00.832 20/01/2026]',-110072.3,-161526.3,-90482.32,-103988.8,-375000,-375000,-195211.8,-122882.8,0.03,0.00,0.88,-4,0,-2,40,0
'[14:14:00.836 20/01/2026]',-110075.9,-161589.3,-90508.52,-103722.6,-375000,-375000,-194069.5,-122820.6,0.03,0.00,0.88,-4,0,-2,40,0
'[14:14:00.840 20/01/2026]',-110561.2,-162116.7,-91022.16,-103976.9,-375000,-375000,-192356.9,-123404.7,0.03,0.00,0.88,-4,0,-2,40,0
'[14:14:00.844 20/01/2026]',-110619.3,-162107.9,-91012.37,-104309.1,-375000,-375000,-193356.1,-123405.8,0.03,0.00,0.88,-4,0,-2,40,0
'[14:14:00.848 20/01/2026]',-110110.2,-161551.1,-90478.7,-104024.4,-375000,-375000,-195095.2,-122852.1,0.03,0.00,0.88,-4,0,-2,40,0
'[14:14:00.852 20/01/2026]',-110058.8,-161545.4,-90477.66,-103767.2,-375000,-375000,-194419.8,-122875.8,0.03,0.00,0.88,-4,0,-2,40,0
'[14:14:00.856 20/01/2026]',-110486.4,-162031.9,-90936.28,-103928.8,-375000,-375000,-192624.2,-123329.9,0.03,0.00,0.88,-4,0,-2,40,0
'[14:14:00.860 20/01/2026]',-110645,-162163.1,-91036.91,-104271.7,-375000,-375000,-193008.5,-123438.6,0.03,0.00,0.88,-4,0,-2,40,0
'[14:14:00.864 20/01/2026]',-110167.5,-161620.3,-90531.13,-104088.2,-375000,-375000,-194923.3,-122958.8,0.03,0.00,0.88,-4,0,-2,40,0
'[14:14:00.868 20/01/2026]',-110011.8,-161479.7,-90415.89,-103757.6,-375000,-375000,-194570,-122763.7,0.03,0.00,0.88,-4,0,-2,40,0
'[14:14:00.872 20/01/2026]',-110396.7,-161916.4,-90837.53,-103850.8,-375000,-375000,-192788.1,-123219.6,0.03,0.00,0.88,-4,0,-2,40,0
'[14:14:00.876 20/01/2026]',-110684.7,-162163,-91104.19,-104249.8,-375000,-375000,-192742.9,-123545.1,0.03,0.00,0.88,-4,0,-2,40,0
'[14:14:00.880 20/01/2026]',-110214.9,-161627.5,-90601.27,-104141.3,-375000,-375000,-194699.6,-123019.7,0.03,0.00,0.88,-4,0,-2,40,0
'[14:14:00.884 20/01/2026]',-109940,-161408.2,-90363.27,-103766.8,-375000,-375000,-194740,-122719.3,0.03,0.00,0.88,-4,0,-2,40,0
'[14:14:00.888 20/01/2026]',-110284.2,-161827.3,-90716.43,-103786.1,-375000,-375000,-193050.4,-123078.6,0.03,0.00,0.88,-4,0,-2,40,0
'[14:14:00.892 20/01/2026]',-110681.5,-162230.6,-91078.98,-104174.7,-375000,-375000,-192481.5,-123481.2,0.03,0.00,0.88,-4,0,-2,40,0
'[14:14:00.896 20/01/2026]',-110333.9,-161815.8,-90680.27,-104196.6,-375000,-375000,-194393.3,-123100.8,0.03,0.00,0.88,-4,0,-2,40,0
'[14:14:00.900 20/01/2026]',-109985.2,-161487.4,-90351.91,-103822.8,-375000,-375000,-194884,-122739.4,0.02,0.00,0.88,-4,0,-2,40,0
'[14:14:00.904 20/01/2026]',-110235.7,-161819.3,-90640.92,-103787.5,-375000,-375000,-193378.5,-123041.8,0.02,0.00,0.88,-4,0,-2,40,0
'[14:14:00.908 20/01/2026]',-110691.4,-162307.8,-91098.82,-104163.7,-375000,-375000,-192399.7,-123554,0.02,0.00,0.88,-4,0,-2,40,0
'[14:14:00.912 20/01/2026]',-110455.9,-162029.9,-90787.38,-104295.3,-375000,-375000,-194139.2,-123280.2,0.02,0.00,0.88,-4,0,-2,40,0
'[14:14:00.916 20/01/2026]',-110009.3,-161597.9,-90362.24,-103904,-375000,-375000,-194990.4,-122778.8,0.02,0.00,0.88,-4,0,-2,40,0
'[14:14:00.920 20/01/2026]',-110150.2,-161816.1,-90565.42,-103783.3,-375000,-375000,-193689.3,-122955.6,0.02,0.00,0.88,-4,0,-2,40,0
'[14:14:00.924 20/01/2026]',-110612.9,-162333.6,-91055.51,-104095.6,-375000,-375000,-192369.9,-123431.5,0.02,0.00,0.88,-4,0,-2,40,0
'[14:14:00.928 20/01/2026]',-110529.2,-162198.8,-90911.78,-104343.4,-375000,-375000,-193769,-123347.8,0.02,0.00,0.88,-4,0,-2,40,0
'[14:14:00.932 20/01/2026]',-110047.2,-161698.8,-90436.14,-103997.5,-375000,-375000,-194987.3,-122838,0.02,0.00,0.88,-4,0,-2,40,0
'[14:14:00.936 20/01/2026]',-110067,-161780.9,-90507.09,-103780.8,-375000,-375000,-193946.5,-122895,0.05,0.00,0.88,-4,0,-2,40,0
'[14:14:00.940 20/01/2026]',-110537.8,-162315.6,-91007.67,-104052,-375000,-375000,-192458.9,-123456.8,0.05,0.00,0.88,-4,0,-2,40,0
'[14:14:00.944 20/01/2026]',-110583.5,-162330.3,-91001.59,-104376.7,-375000,-375000,-193453.1,-123511.7,0.05,0.00,0.88,-4,0,-2,40,0
'[14:14:00.948 20/01/2026]',-110076.4,-161784,-90489.73,-104090.5,-375000,-375000,-194981.1,-122935,0.05,0.00,0.88,-4,0,-2,40,0
'[14:14:00.952 20/01/2026]',-109980.6,-161738.1,-90458.09,-103814.2,-375000,-375000,-194260.7,-122910.9,0.05,0.00,0.88,-4,0,-2,40,0
'[14:14:00.956 20/01/2026]',-110405.8,-162210.8,-90914.78,-103982.2,-375000,-375000,-192628,-123328.7,0.05,0.00,0.88,-4,0,-2,40,0
'[14:14:00.960 20/01/2026]',-110595,-162363.4,-91053.05,-104348,-375000,-375000,-193119.9,-123520.2,0.05,0.00,0.88,-4,0,-2,40,0
'[14:14:00.964 20/01/2026]',-110110.1,-161816.8,-90519.91,-104132.7,-375000,-375000,-194833.6,-122977.4,0.05,0.00,0.88,-4,0,-2,40,0
'[14:14:00.968 20/01/2026]',-109931.2,-161660.8,-90384.23,-103796.6,-375000,-375000,-194447.1,-122801.2,0.05,0.00,0.88,-4,0,-2,40,0
'[14:14:00.972 20/01/2026]',-110305.5,-162102.5,-90811.73,-103911,-375000,-375000,-192796.3,-123246.7,0.05,0.00,0.88,-4,0,-2,40,0
'[14:14:00.976 20/01/2026]',-110622,-162403.7,-91098.29,-104329.1,-375000,-375000,-192855.9,-123584.4,0.05,0.00,0.88,-4,0,-2,40,0
'[14:14:00.980 20/01/2026]',-110193.1,-161900.8,-90636.19,-104215.9,-375000,-375000,-194665.3,-123115.2,0.05,0.00,0.88,-4,0,-2,40,0
'[14:14:00.984 20/01/2026]',-109929.4,-161648.3,-90412.27,-103859.7,-375000,-375000,-194704.5,-122874.9,0.05,0.00,0.88,-4,0,-2,40,0
'[14:14:00.988 20/01/2026]',-110238,-162007.9,-90765.34,-103885.4,-375000,-375000,-193125.4,-123197.5,0.05,0.00,0.88,-4,0,-2,40,0
'[14:14:00.992 20/01/2026]',-110602.3,-162396.2,-91095.47,-104258.9,-375000,-375000,-192612.2,-123619.2,0.05,0.00,0.88,-4,0,-2,40,0
'[14:14:00.996 20/01/2026]',-110245.9,-161950,-90690.32,-104230.4,-375000,-375000,-194331.3,-123071.8,0.05,0.00,0.88,-4,0,-2,40,0
'[14:14:01.000 20/01/2026]',-109901.7,-161612.8,-90378.6,-103873.3,-375000,-375000,-194794.5,-122761.5,0.05,0.00,0.88,-4,0,-2,40,0
'[14:14:01.004 20/01/2026]',-110141,-161913.3,-90679.1,-103839.7,-375000,-375000,-193402,-123091.3,0.05,0.00,0.88,-4,0,-2,40,0
'[14:14:01.008 20/01/2026]',-110592.3,-162391.7,-91127.57,-104216.3,-375000,-375000,-192520.5,-123619.9,0.03,0.00,0.88,-4,0,-2,40,0
'[14:14:01.012 20/01/2026]',-110345.1,-162075.8,-90798.05,-104301.6,-375000,-375000,-194055.4,-123262.1,0.03,0.00,0.88,-4,0,-2,40,0
'[14:14:01.016 20/01/2026]',-109931.9,-161635.1,-90401.8,-103948.4,-375000,-375000,-194911.5,-122801.6,0.03,0.00,0.88,-4,0,-2,40,0
'[14:14:01.020 20/01/2026]',-110064.3,-161825.8,-90586.79,-103825.9,-375000,-375000,-193721.1,-123006.5,0.03,0.00,0.88,-4,0,-2,40,0
'[14:14:01.024 20/01/2026]',-110517.9,-162312.2,-91052.02,-104126.3,-375000,-375000,-192492.7,-123498.9,0.03,0.00,0.88,-4,0,-2,40,0
'[14:14:01.028 20/01/2026]',-110459.5,-162184.8,-90937.94,-104364.5,-375000,-375000,-193787.6,-123387.4,0.03,0.00,0.88,-4,0,-2,40,0
'[14:14:01.032 20/01/2026]',-109981.6,-161681.3,-90449.55,-104017.5,-375000,-375000,-194940.3,-122893.2,0.03,0.00,0.88,-4,0,-2,40,0
'[14:14:01.036 20/01/2026]',-109995.2,-161740.2,-90500.51,-103791.8,-375000,-375000,-193933.4,-122939.6,0.03,0.00,0.88,-4,0,-2,40,0
'[14:14:01.040 20/01/2026]',-110475.9,-162264,-91011.65,-104060.2,-375000,-375000,-192503.9,-123428.7,0.03,0.00,0.88,-4,0,-2,40,0
'[14:14:01.044 20/01/2026]',-110535.7,-162275.5,-91022.2,-104372.5,-375000,-375000,-193414.6,-123470.3,0.02,-0.02,0.88,-4,0,-2,40,0
'[14:14:01.048 20/01/2026]',-110035.4,-161746.1,-90505.97,-104099.5,-375000,-375000,-194946,-122969.2,0.02,-0.02,0.88,-4,0,-2,40,0
'[14:14:01.052 20/01/2026]',-109968.8,-161716.4,-90483.39,-103825.5,-375000,-375000,-194284.8,-122940.3,0.02,-0.02,0.88,-4,0,-2,40,0
'[14:14:01.056 20/01/2026]',-110383.6,-162175,-90929.17,-103986.4,-375000,-375000,-192718.7,-123290.1,0.02,-0.02,0.88,-4,0,-2,40,0
'[14:14:01.060 20/01/2026]',-110586.9,-162337.3,-91085.32,-104358.7,-375000,-375000,-193168.5,-123498.3,0.02,-0.02,0.88,-4,0,-2,40,0
'[14:14:01.064 20/01/2026]',-110120.4,-161810.2,-90586.56,-104164.4,-375000,-375000,-194855.3,-123009.7,0.02,-0.02,0.88,-4,0,-2,40,0
'[14:14:01.068 20/01/2026]',-109958.4,-161678.2,-90462.24,-103863.5,-375000,-375000,-194583.4,-122886,0.02,-0.02,0.88,-4,0,-2,40,0
'[14:14:01.072 20/01/2026]',-110334.8,-162118,-90867.7,-103969.9,-375000,-375000,-193010,-123305.6,0.02,-0.02,0.88,-4,0,-2,40,0
'[14:14:01.076 20/01/2026]',-110629.3,-162399.1,-91134.77,-104349.3,-375000,-375000,-192978.9,-123591.7,0.02,-0.02,0.88,-4,0,-2,40,0
'[14:14:01.080 20/01/2026]',-110209.1,-161906.9,-90667.3,-104245.4,-375000,-375000,-194731.1,-123109.3,0.03,-0.02,0.89,-4,0,-2,40,0
'[14:14:01.084 20/01/2026]',-109955,-161669.1,-90437.48,-103898.6,-375000,-375000,-194770.9,-122887.7,0.03,-0.02,0.89,-4,0,-2,40,0
'[14:14:01.088 20/01/2026]',-110250.6,-162016,-90770.3,-103912.9,-375000,-375000,-193218.8,-123173.4,0.03,-0.02,0.89,-4,0,-2,40,0
'[14:14:01.092 20/01/2026]',-110625.8,-162401.6,-91129,-104296.6,-375000,-375000,-192749.6,-123550.5,0.03,-0.02,0.89,-4,0,-2,40,0
'[14:14:01.096 20/01/2026]',-110306.4,-162002.4,-90763.86,-104306,-375000,-375000,-194458.9,-123200.6,0.03,-0.02,0.89,-4,0,-2,40,0
'[14:14:01.100 20/01/2026]',-109950.2,-161639.9,-90424.25,-103923.3,-375000,-375000,-194889.4,-122834.3,0.03,-0.02,0.89,-4,0,-2,40,0
'[14:14:01.104 20/01/2026]',-110153.8,-161907,-90661.17,-103850.9,-375000,-375000,-193455.4,-123097.8,0.03,-0.02,0.89,-4,0,-2,40,0
'[14:14:01.108 20/01/2026]',-110597.6,-162374.9,-91113.35,-104226.7,-375000,-375000,-192639,-123588.5,0.03,-0.02,0.89,-4,0,-2,40,0
'[14:14:01.112 20/01/2026]',-110399.1,-162105.2,-90865.96,-104355.5,-375000,-375000,-194197.5,-123318.6,0.03,-0.02,0.89,-4,0,-2,40,0
'[14:14:01.116 20/01/2026]',-109971.1,-161660.5,-90446.06,-103969.5,-375000,-375000,-194949,-122868.5,0.03,0.00,0.89,-4,0,-2,40,0
'[14:14:01.120 20/01/2026]',-110086.8,-161826.8,-90590.45,-103826.2,-375000,-375000,-193743.5,-123020.4,0.03,0.00,0.89,-4,0,-2,40,0
'[14:14:01.124 20/01/2026]',-110556.2,-162333.8,-91077.5,-104146,-375000,-375000,-192596.4,-123515.2,0.03,0.00,0.89,-4,0,-2,40,0
'[14:14:01.128 20/01/2026]',-110505.3,-162214.7,-90973.48,-104386.6,-375000,-375000,-193858.1,-123447.8,0.03,0.00,0.89,-4,0,-2,40,0
'[14:14:01.132 20/01/2026]',-110003.6,-161682.2,-90458.27,-104015.9,-375000,-375000,-194944.1,-122907.7,0.03,0.00,0.89,-4,0,-2,40,0
'[14:14:01.136 20/01/2026]',-110008.7,-161744.4,-90507.3,-103791.7,-375000,-375000,-193981.3,-122887.5,0.03,0.00,0.89,-4,0,-2,40,0
'[14:14:01.140 20/01/2026]',-110476.6,-162262.8,-90998.2,-104059.5,-375000,-375000,-192637.5,-123462.4,0.03,0.00,0.89,-4,0,-2,40,0
'[14:14:01.144 20/01/2026]',-110559.3,-162292.3,-91034.98,-104383.5,-375000,-375000,-193512.8,-123518.6,0.03,0.00,0.89,-4,0,-2,40,0
'[14:14:01.148 20/01/2026]',-110067.2,-161740.2,-90531.8,-104093.3,-375000,-375000,-194898.4,-122936.7,0.03,0.00,0.89,-4,0,-2,40,0
'[14:14:01.152 20/01/2026]',-109974.5,-161689.2,-90464.8,-103811.2,-375000,-375000,-194250.2,-122848.7,0.03,0.00,0.88,-4,0,-2,40,0
'[14:14:01.156 20/01/2026]',-110375.8,-162166,-90903.29,-103984.2,-375000,-375000,-192740.6,-123324.2,0.03,0.00,0.88,-4,0,-2,40,0
'[14:14:01.160 20/01/2026]',-110592.5,-162351,-91091.85,-104371.2,-375000,-375000,-193200.3,-123567.9,0.03,0.00,0.88,-4,0,-2,40,0
'[14:14:01.164 20/01/2026]',-110120.2,-161806.6,-90589.43,-104161.4,-375000,-375000,-194780.1,-123038.4,0.03,0.00,0.88,-4,0,-2,40,0
'[14:14:01.168 20/01/2026]',-109940.2,-161658.9,-90444.63,-103840.7,-375000,-375000,-194446.8,-122861.9,0.03,0.00,0.88,-4,0,-2,40,0
'[14:14:01.172 20/01/2026]',-110312.9,-162082.3,-90847.95,-103947.9,-375000,-375000,-192917.2,-123275.2,0.03,0.00,0.88,-4,0,-2,40,0
'[14:14:01.176 20/01/2026]',-110647.8,-162398.8,-91153.8,-104367.7,-375000,-375000,-192957.5,-123652.8,0.03,0.00,0.88,-4,0,-2,40,0
'[14:14:01.180 20/01/2026]',-110218.9,-161911.3,-90684.06,-104250.6,-375000,-375000,-194614.5,-123146.1,0.03,0.00,0.88,-4,0,-2,40,0
'[14:14:01.184 20/01/2026]',-109927.1,-161632.6,-90407.8,-103874.2,-375000,-375000,-194657.9,-122803.8,0.03,0.00,0.88,-4,0,-2,40,0
'[14:14:01.188 20/01/2026]',-110228.4,-161975.8,-90743.61,-103895.1,-375000,-375000,-193192.7,-123150.1,0.03,-0.02,0.88,-4,0,-2,40,0
'[14:14:01.192 20/01/2026]',-110633.4,-162375,-91133.91,-104288.2,-375000,-375000,-192752.9,-123588.1,0.03,-0.02,0.88,-4,0,-2,40,0
'[14:14:01.196 20/01/2026]',-110343.3,-162024.7,-90790.68,-104321.4,-375000,-375000,-194395.2,-123250.7,0.03,-0.02,0.88,-4,0,-2,40,0
'[14:14:01.200 20/01/2026]',-109968.4,-161664.4,-90441.73,-103935.1,-375000,-375000,-194794.2,-122866.4,0.03,-0.02,0.88,-4,0,-2,40,0
'[14:14:01.204 20/01/2026]',-110149.2,-161895.1,-90656.8,-103847.3,-375000,-375000,-193437.6,-123086.1,0.03,-0.02,0.88,-4,0,-2,40,0
'[14:14:01.208 20/01/2026]',-110581.7,-162346,-91090.11,-104203.8,-375000,-375000,-192636.6,-123572.7,0.03,-0.02,0.88,-4,0,-2,40,0
'[14:14:01.212 20/01/2026]',-110400.5,-162092.8,-90856.3,-104344.4,-375000,-375000,-194132.8,-123340.2,0.03,-0.02,0.88,-4,0,-2,40,0
'[14:14:01.216 20/01/2026]',-109987,-161666.7,-90456.75,-103981.6,-375000,-375000,-194896.9,-122895.7,0.03,-0.02,0.88,-4,0,-2,40,0
'[14:14:01.220 20/01/2026]',-110094,-161823.1,-90602.21,-103832,-375000,-375000,-193709.8,-122996.8,0.03,-0.02,0.88,-4,0,-2,40,0
'[14:14:01.224 20/01/2026]',-110543.1,-162308.3,-91065.52,-104138.7,-375000,-375000,-192580.9,-123495.8,0.03,0.00,0.89,-4,0,-2,40,0
'[14:14:01.228 20/01/2026]',-110495.1,-162189.7,-90967.3,-104378.8,-375000,-375000,-193804.4,-123447.6,0.03,0.00,0.89,-4,0,-2,40,0
'[14:14:01.232 20/01/2026]',-110019.5,-161691,-90479.19,-104038.4,-375000,-375000,-194879.3,-122952.7,0.03,0.00,0.89,-4,0,-2,40,0
'[14:14:01.236 20/01/2026]',-110031.2,-161753,-90530.33,-103844.3,-375000,-375000,-194015.1,-122996.9,0.03,0.00,0.89,-4,0,-2,40,0
'[14:14:01.240 20/01/2026]',-110476.8,-162244.7,-90998.33,-104075.5,-375000,-375000,-192629.4,-123376.7,0.03,0.00,0.89,-4,0,-2,40,0
'[14:14:01.244 20/01/2026]',-110548.6,-162262.8,-91023.19,-104376.2,-375000,-375000,-193445.4,-123465.9,0.03,0.00,0.89,-4,0,-2,40,0
'[14:14:01.248 20/01/2026]',-110051.6,-161719.5,-90500.42,-104092.2,-375000,-375000,-194834.4,-122926.5,0.03,0.00,0.89,-4,0,-2,40,0
'[14:14:01.252 20/01/2026]',-109986.9,-161688.2,-90485.31,-103837.9,-375000,-375000,-194232.5,-122862.6,0.03,0.00,0.89,-4,0,-2,40,0
'[14:14:01.256 20/01/2026]',-110417.3,-162170.6,-90948.26,-104022.9,-375000,-375000,-192725.9,-123366.7,0.03,0.00,0.89,-4,0,-2,40,0
'[14:14:01.260 20/01/2026]',-110615.2,-162350.4,-91101.82,-104396.2,-375000,-375000,-193173.7,-123586.3,0.03,-0.02,0.88,-4,0,-2,40,0
'[14:14:01.264 20/01/2026]',-110153.4,-161816.1,-90602.52,-104190.3,-375000,-375000,-194766.4,-123027.2,0.03,-0.02,0.88,-4,0,-2,40,0
'[14:14:01.268 20/01/2026]',-109968.8,-161650.3,-90457.91,-103855.9,-375000,-375000,-194445.2,-122836.1,0.03,-0.02,0.88,-4,0,-2,40,0
'[14:14:01.272 20/01/2026]',-110334.8,-162080.2,-90860.38,-103960,-375000,-375000,-192936.8,-123266,0.03,-0.02,0.88,-4,0,-2,40,0
'[14:14:01.276 20/01/2026]',-110654.5,-162386.4,-91150.81,-104358.2,-375000,-375000,-192930.5,-123609.7,0.03,-0.02,0.88,-4,0,-2,40,0
'[14:14:01.280 20/01/2026]',-110244.8,-161908.3,-90695.91,-104250.8,-375000,-375000,-194565.2,-123130.2,0.03,-0.02,0.88,-4,0,-2,40,0
'[14:14:01.284 20/01/2026]',-109963.7,-161651.7,-90441.68,-103886,-375000,-375000,-194604.3,-122822.9,0.03,-0.02,0.88,-4,0,-2,40,0
'[14:14:01.288 20/01/2026]',-110249.8,-161992.1,-90771.33,-103900.7,-375000,-375000,-193164.3,-123155.9,0.03,-0.02,0.88,-4,0,-2,40,0
'[14:14:01.292 20/01/2026]',-110635.5,-162389.7,-91130.74,-104277.7,-375000,-375000,-192710.7,-123576.2,0.03,-0.02,0.88,-4,0,-2,40,0
'[14:14:01.296 20/01/2026]',-110329.2,-161997.2,-90768.91,-104287,-375000,-375000,-194312.5,-123213.6,0.05,0.00,0.89,-4,0,-2,40,0
'[14:14:01.300 20/01/2026]',-109973.6,-161632.8,-90431.18,-103923.7,-375000,-375000,-194809.3,-122817.3,0.05,0.00,0.89,-4,0,-2,40,0
'[14:14:01.304 20/01/2026]',-110192.6,-161901.2,-90695.69,-103872.8,-375000,-375000,-193499.5,-123078.3,0.05,0.00,0.89,-4,0,-2,40,0
'[14:14:01.308 20/01/2026]',-110631.2,-162387.2,-91131.05,-104240.3,-375000,-375000,-192699.5,-123582.5,0.05,0.00,0.89,-4,0,-2,40,0
'[14:14:01.312 20/01/2026]',-110426.6,-162115.6,-90877.98,-104358.9,-375000,-375000,-194165.6,-123331.8,0.05,0.00,0.89,-4,0,-2,40,0
'[14:14:01.316 20/01/2026]',-110003,-161667.2,-90469.76,-103987.1,-375000,-375000,-194931,-122894.7,0.05,0.00,0.89,-4,0,-2,40,0
'[14:14:01.320 20/01/2026]',-110106.3,-161822.6,-90599.22,-103834.4,-375000,-375000,-193760.5,-122987.4,0.05,0.00,0.89,-4,0,-2,40,0
'[14:14:01.324 20/01/2026]',-110566.1,-162321.1,-91066.63,-104145,-375000,-375000,-192631.2,-123490.3,0.05,0.00,0.89,-4,0,-2,40,0
'[14:14:01.328 20/01/2026]',-110519.6,-162209.9,-90979.6,-104377.4,-375000,-375000,-193783.1,-123384.5,0.05,0.00,0.89,-4,0,-2,40,0
'[14:14:01.332 20/01/2026]',-110039.5,-161688.3,-90497.83,-104030.6,-375000,-375000,-194872.7,-122866.2,0.03,-0.02,0.88,-4,0,-2,40,0
'[14:14:01.336 20/01/2026]',-110052.9,-161748.3,-90533.99,-103823.4,-375000,-375000,-193985.7,-122907.7,0.03,-0.02,0.88,-4,0,-2,40,0
'[14:14:01.340 20/01/2026]',-110504.9,-162251.4,-91010.89,-104076.9,-375000,-375000,-192667,-123410.8,0.03,-0.02,0.88,-4,0,-2,40,0
'[14:14:01.344 20/01/2026]',-110583.3,-162286,-91043.52,-104388.5,-375000,-375000,-193505,-123485.8,0.03,-0.02,0.88,-4,0,-2,40,0
'[14:14:01.348 20/01/2026]',-110111.2,-161767.5,-90562.6,-104125.3,-375000,-375000,-194860.4,-123006.4,0.03,-0.02,0.88,-4,0,-2,40,0
'[14:14:01.352 20/01/2026]',-110027,-161709.9,-90511.64,-103850,-375000,-375000,-194221.3,-122906.8,0.03,-0.02,0.88,-4,0,-2,40,0
'[14:14:01.356 20/01/2026]',-110436.6,-162171.6,-90948.17,-104020,-375000,-375000,-192766.4,-123346.8,0.03,-0.02,0.88,-4,0,-2,40,0
'[14:14:01.360 20/01/2026]',-110638.7,-162348.1,-91100.16,-104377.1,-375000,-375000,-193172.4,-123554,0.03,-0.02,0.88,-4,0,-2,40,0
'[14:14:01.364 20/01/2026]',-110176.4,-161814.4,-90611.06,-104179.6,-375000,-375000,-194686.6,-122989.8,0.03,-0.02,0.88,-4,0,-2,40,0
'[14:14:01.368 20/01/2026]',-109995.9,-161668.5,-90476.91,-103875.4,-375000,-375000,-194417.8,-122830.7,0.03,0.00,0.89,-4,0,-2,40,0
'[14:14:01.372 20/01/2026]',-110353.7,-162089.7,-90869,-103976.6,-375000,-375000,-192951.3,-123258.2,0.03,0.00,0.89,-4,0,-2,40,0
'[14:14:01.376 20/01/2026]',-110655.5,-162376.1,-91134.72,-104355.3,-375000,-375000,-192946.9,-123581.5,0.03,0.00,0.89,-4,0,-2,40,0
'[14:14:01.380 20/01/2026]',-110261.1,-161904.1,-90704.09,-104255.3,-375000,-375000,-194522.8,-123135,0.03,0.00,0.89,-4,0,-2,40,0
'[14:14:01.384 20/01/2026]',-110002.8,-161664.9,-90480.08,-103922.5,-375000,-375000,-194583.7,-122893.1,0.03,0.00,0.89,-4,0,-2,40,0
'[14:14:01.388 20/01/2026]',-110270.9,-161997.2,-90789.84,-103936.9,-375000,-375000,-193174.5,-123179.4,0.03,0.00,0.89,-4,0,-2,40,0
'[14:14:01.392 20/01/2026]',-110666,-162395.3,-91164.76,-104323.5,-375000,-375000,-192757.3,-123619.4,0.03,0.00,0.89,-4,0,-2,40,0
'[14:14:01.396 20/01/2026]',-110347.7,-161996.3,-90799,-104326.1,-375000,-375000,-194321.5,-123234.6,0.03,0.00,0.89,-4,0,-2,40,0
'[14:14:01.400 20/01/2026]',-109997,-161645.7,-90472.98,-103965.6,-375000,-375000,-194760,-122860,0.03,0.00,0.89,-4,0,-2,40,0
'[14:14:01.404 20/01/2026]',-110190.9,-161907.9,-90704.9,-103905.3,-375000,-375000,-193488.4,-123103.5,0.03,-0.02,0.88,-4,0,-2,40,0
'[14:14:01.408 20/01/2026]',-110624,-162370.3,-91130.7,-104247.2,-375000,-375000,-192653,-123549.4,0.03,-0.02,0.88,-4,0,-2,40,0
'[14:14:01.412 20/01/2026]',-110446.8,-162107.7,-90898.33,-104374.3,-375000,-375000,-194041.5,-123305.6,0.03,-0.02,0.88,-4,0,-2,40,0
'[14:14:01.416 20/01/2026]',-110029.6,-161670.2,-90493,-104024,-375000,-375000,-194845,-122872.7,0.03,-0.02,0.88,-4,0,-2,40,0
'[14:14:01.420 20/01/2026]',-110144.6,-161834,-90645.98,-103891.3,-375000,-375000,-193740,-123033.1,0.03,-0.02,0.88,-4,0,-2,40,0
'[14:14:01.424 20/01/2026]',-110605.4,-162339.9,-91107.41,-104199,-375000,-375000,-192647.3,-123540.3,0.03,-0.02,0.88,-4,0,-2,40,0
'[14:14:01.428 20/01/2026]',-110541.8,-162220.7,-90982.41,-104408.9,-375000,-375000,-193792.8,-123431.3,0.03,-0.02,0.88,-4,0,-2,40,0
'[14:14:01.432 20/01/2026]',-110089.6,-161721.8,-90521.92,-104075.8,-375000,-375000,-194872.1,-122907.8,0.03,-0.02,0.88,-4,0,-2,40,0
'[14:14:01.436 20/01/2026]',-110113.5,-161788.1,-90578.2,-103872.8,-375000,-375000,-193995.3,-122949,0.03,-0.02,0.88,-4,0,-2,40,0
'[14:14:01.440 20/01/2026]',-110580.4,-162308.6,-91059.98,-104137.7,-375000,-375000,-192703.9,-123531.4,0.03,-0.02,0.88,-4,0,-2,40,0
'[14:14:01.444 20/01/2026]',-110673.2,-162349.9,-91085.14,-104449.7,-375000,-375000,-193557,-123538.7,0.03,-0.02,0.88,-4,0,-2,40,0
'[14:14:01.448 20/01/2026]',-110211.9,-161815.9,-90584.2,-104151.8,-375000,-375000,-194852,-122935.8,0.03,-0.02,0.88,-4,0,-2,40,0
'[14:14:01.452 20/01/2026]',-110148.9,-161778.2,-90541.28,-103890.1,-375000,-375000,-194261,-122892,0.03,-0.02,0.88,-4,0,-2,40,0
'[14:14:01.456 20/01/2026]',-110601.3,-162281.3,-91000.84,-104083.9,-375000,-375000,-192816.2,-123416.6,0.03,-0.02,0.88,-4,0,-2,40,0
'[14:14:01.460 20/01/2026]',-110832.9,-162475.9,-91181.13,-104458.1,-375000,-375000,-193198.1,-123630.9,0.03,-0.02,0.88,-4,0,-2,40,0
'[14:14:01.464 20/01/2026]',-110409.7,-161974.8,-90712.85,-104282.9,-375000,-375000,-194786.4,-123129.2,0.03,-0.02,0.88,-4,0,-2,40,0
'[14:14:01.468 20/01/2026]',-110253.8,-161855.5,-90533.46,-103945.8,-375000,-375000,-194502,-122861.8,0.03,-0.02,0.88,-4,0,-2,40,0
'[14:14:01.472 20/01/2026]',-110628,-162290.8,-90923.27,-104039.6,-375000,-375000,-192993.5,-123253.4,0.03,-0.02,0.88,-4,0,-2,40,0
'[14:14:01.476 20/01/2026]',-110956.5,-162613,-91223.91,-104445.6,-375000,-375000,-192970.6,-123627.1,0.03,-0.02,0.89,-4,0,-2,40,0
'[14:14:01.480 20/01/2026]',-110586.5,-162160.6,-90792.6,-104356.8,-375000,-375000,-194589.3,-123201.7,0.03,-0.02,0.89,-4,0,-2,40,0
'[14:14:01.484 20/01/2026]',-110319.1,-161890,-90554.38,-104009.1,-375000,-375000,-194699.6,-122876.8,0.03,-0.02,0.89,-4,0,-2,40,0
'[14:14:01.488 20/01/2026]',-110630,-162261.5,-90913.75,-104054.9,-375000,-375000,-193317.7,-123248.4,0.03,-0.02,0.89,-4,0,-2,40,0
'[14:14:01.492 20/01/2026]',-111018.1,-162673.5,-91267.4,-104422.7,-375000,-375000,-192812,-123660.4,0.03,-0.02,0.89,-4,0,-2,40,0
'[14:14:01.496 20/01/2026]',-110697.1,-162260.3,-90893.81,-104424.9,-375000,-375000,-194374.8,-123250,0.03,-0.02,0.89,-4,0,-2,40,0
'[14:14:01.500 20/01/2026]',-110300.6,-161879.9,-90529.7,-104043.3,-375000,-375000,-194823.1,-122866.2,0.03,-0.02,0.89,-4,0,-2,40,0
'[14:14:01.504 20/01/2026]',-110466.7,-162131,-90764.13,-103973.5,-375000,-375000,-193513.5,-123128.4,0.03,-0.02,0.89,-4,0,-2,40,0
'[14:14:01.508 20/01/2026]',-110883.5,-162566.2,-91190.33,-104323.5,-375000,-375000,-192712.8,-123575.8,0.03,-0.02,0.89,-4,0,-2,40,0
'[14:14:01.512 20/01/2026]',-110705.8,-162296.6,-90960.82,-104442.8,-375000,-375000,-194109.8,-123335.6,0.03,0.00,0.88,-4,0,-2,40,0
'[14:14:01.516 20/01/2026]',-110268.2,-161839.9,-90547,-104077.2,-375000,-375000,-194884.3,-122892.3,0.03,0.00,0.88,-4,0,-2,40,0
'[14:14:01.520 20/01/2026]',-110358.3,-161980.8,-90681.38,-103943,-375000,-375000,-193815.3,-123072,0.03,0.00,0.88,-4,0,-2,40,0
'[14:14:01.524 20/01/2026]',-110794.2,-162479.5,-91136.73,-104242.1,-375000,-375000,-192694.3,-123556.5,0.03,0.00,0.88,-4,0,-2,40,0
'[14:14:01.528 20/01/2026]',-110749.6,-162369.2,-91060.96,-104481.8,-375000,-375000,-193824.8,-123476.3,0.03,0.00,0.88,-4,0,-2,40,0
'[14:14:01.532 20/01/2026]',-110264.8,-161848.7,-90591.88,-104149.7,-375000,-375000,-194936.5,-122983.1,0.03,0.00,0.88,-4,0,-2,40,0
'[14:14:01.536 20/01/2026]',-110256.3,-161895.3,-90623.94,-103937,-375000,-375000,-194109.3,-123026.2,0.03,0.00,0.88,-4,0,-2,40,0
'[14:14:01.540 20/01/2026]',-110668.3,-162355.5,-91056.89,-104144.4,-375000,-375000,-192726.3,-123446.5,0.03,0.00,0.88,-4,0,-2,40,0
'[14:14:01.544 20/01/2026]',-110767.7,-162405.3,-91109.77,-104461.6,-375000,-375000,-193477.2,-123585.9,0.03,0.00,0.88,-4,0,-2,40,0
'[14:14:01.548 20/01/2026]',-110282.3,-161871.7,-90607.3,-104196.9,-375000,-375000,-194856.3,-123065.4,0.03,-0.02,0.88,-4,0,-2,40,0
'[14:14:01.552 20/01/2026]',-110166.9,-161799,-90534.48,-103915.6,-375000,-375000,-194318.4,-122927.2,0.03,-0.02,0.88,-4,0,-2,40,0
'[14:14:01.556 20/01/2026]',-110564.9,-162256.5,-90974.01,-104078.8,-375000,-375000,-192905.7,-123381.7,0.03,-0.02,0.88,-4,0,-2,40,0
'[14:14:01.560 20/01/2026]',-110773.1,-162431.1,-91137.27,-104428.7,-375000,-375000,-193229.8,-123569.4,0.03,-0.02,0.88,-4,0,-2,40,0
'[14:14:01.564 20/01/2026]',-110333,-161931,-90681.43,-104260.1,-375000,-375000,-194721.8,-123114.5,0.03,-0.02,0.88,-4,0,-2,40,0
'[14:14:01.568 20/01/2026]',-110125.8,-161752.5,-90519.96,-103935.7,-375000,-375000,-194486.8,-122965.3,0.03,-0.02,0.88,-4,0,-2,40,0
'[14:14:01.572 20/01/2026]',-110453.8,-162148.7,-90876.2,-104013.7,-375000,-375000,-193033.4,-123306,0.03,-0.02,0.88,-4,0,-2,40,0
'[14:14:01.576 20/01/2026]',-110754,-162441.1,-91145.41,-104389.3,-375000,-375000,-192965.4,-123574.3,0.03,-0.02,0.88,-4,0,-2,40,0
'[14:14:01.580 20/01/2026]',-110382.9,-161985.3,-90754.38,-104312.3,-375000,-375000,-194501.3,-123157,0.03,-0.02,0.88,-4,0,-2,40,0
'[14:14:01.584 20/01/2026]',-110109,-161726.4,-90502.21,-103971.2,-375000,-375000,-194612.3,-122910.9,0.02,-0.02,0.88,-4,0,-2,40,0
'[14:14:01.588 20/01/2026]',-110374.8,-162063.1,-90809.95,-103987.1,-375000,-375000,-193252.9,-123227.4,0.02,-0.02,0.88,-4,0,-2,40,0
'[14:14:01.592 20/01/2026]',-110757.5,-162461.8,-91177.45,-104360,-375000,-375000,-192802.6,-123627.4,0.02,-0.02,0.88,-4,0,-2,40,0
'[14:14:01.596 20/01/2026]',-110469.7,-162084.7,-90843.3,-104384.2,-375000,-375000,-194279.8,-123276.8,0.02,-0.02,0.88,-4,0,-2,40,0
'[14:14:01.600 20/01/2026]',-110120.7,-161731.7,-90514.33,-104046.7,-375000,-375000,-194781.5,-122969.1,0.02,-0.02,0.88,-4,0,-2,40,0
'[14:14:01.604 20/01/2026]',-110297.6,-161971.1,-90724.12,-103960.6,-375000,-375000,-193525.1,-123172.9,0.02,-0.02,0.88,-4,0,-2,40,0
'[14:14:01.608 20/01/2026]',-110741,-162435.8,-91162.84,-104304.8,-375000,-375000,-192689.3,-123598.5,0.02,-0.02,0.88,-4,0,-2,40,0
'[14:14:01.612 20/01/2026]',-110568.4,-162191.5,-90938.92,-104435.9,-375000,-375000,-194032,-123397.8,0.02,-0.02,0.88,-4,0,-2,40,0
'[14:14:01.616 20/01/2026]',-110130.4,-161744.6,-90521.21,-104076.7,-375000,-375000,-194838.1,-122997.7,0.02,-0.02,0.88,-4,0,-2,40,0
'[14:14:01.620 20/01/2026]',-110237.5,-161895.3,-90673.34,-103939.5,-375000,-375000,-193772,-123053.1,0.05,0.00,0.88,-4,0,-2,40,0
'[14:14:01.624 20/01/2026]',-110680.3,-162389.8,-91124.7,-104229.5,-375000,-375000,-192615.9,-123540.6,0.05,0.00,0.88,-4,0,-2,40,0
'[14:14:01.628 20/01/2026]',-110669.8,-162318.2,-91058.99,-104499,-375000,-375000,-193758.2,-123576.7,0.05,0.00,0.88,-4,0,-2,40,0
'[14:14:01.632 20/01/2026]',-110185.1,-161787.8,-90577.31,-104168.9,-375000,-375000,-194952.6,-123033.6,0.05,0.00,0.88,-4,0,-2,40,0
'[14:14:01.636 20/01/2026]',-110168.8,-161820.5,-90594.12,-103929.2,-375000,-375000,-194087.2,-122994.9,0.05,0.00,0.88,-4,0,-2,40,0
'[14:14:01.640 20/01/2026]',-110619.7,-162329.8,-91068.73,-104171.4,-375000,-375000,-192666.2,-123547.7,0.05,0.00,0.88,-4,0,-2,40,0
'[14:14:01.644 20/01/2026]',-110717.7,-162376.4,-91121.04,-104492.7,-375000,-375000,-193400.8,-123637.1,0.05,0.00,0.88,-4,0,-2,40,0
'[14:14:01.648 20/01/2026]',-110235.2,-161833.6,-90619.69,-104221.6,-375000,-375000,-194864.2,-123029.7,0.05,0.00,0.88,-4,0,-2,40,0
'[14:14:01.652 20/01/2026]',-110134.8,-161780.5,-90560.46,-103948.6,-375000,-375000,-194329.5,-122979.2,0.05,0.00,0.88,-4,0,-2,40,0
'[14:14:01.656 20/01/2026]',-110560.8,-162268.2,-91021.62,-104135.6,-375000,-375000,-192857.4,-123550.3,0.03,-0.03,0.89,-4,0,-2,40,0
'[14:14:01.660 20/01/2026]',-110756.6,-162431.9,-91169.45,-104465.9,-375000,-375000,-193096.8,-123616.6,0.03,-0.03,0.89,-4,0,-2,40,0
'[14:14:01.664 20/01/2026]',-110302.5,-161911.5,-90685.9,-104299.2,-375000,-375000,-194769.1,-123068.7,0.03,-0.03,0.89,-4,0,-2,40,0
'[14:14:01.668 20/01/2026]',-110107.2,-161743.2,-90516.78,-103976.5,-375000,-375000,-194610.3,-122917.9,0.03,-0.03,0.89,-4,0,-2,40,0
'[14:14:01.672 20/01/2026]',-110458,-162143.5,-90910.4,-104046.9,-375000,-375000,-193024.9,-123345.8,0.03,-0.03,0.89,-4,0,-2,40,0
'[14:14:01.676 20/01/2026]',-110801.1,-162479.3,-91241.34,-104454.4,-375000,-375000,-192859.7,-123744.8,0.03,-0.03,0.89,-4,0,-2,40,0
'[14:14:01.680 20/01/2026]',-110407.2,-162019.4,-90797.74,-104391,-375000,-375000,-194617.3,-123292.1,0.03,-0.03,0.89,-4,0,-2,40,0
'[14:14:01.684 20/01/2026]',-110108,-161733.5,-90525.32,-104026.9,-375000,-375000,-194818.7,-122972.9,0.03,-0.03,0.89,-4,0,-2,40,0
'[14:14:01.688 20/01/2026]',-110367.1,-162060.5,-90815.89,-104005.4,-375000,-375000,-193311.6,-123256.1,0.03,-0.03,0.89,-4,0,-2,40,0
'[14:14:01.692 20/01/2026]',-110773.4,-162472.8,-91211.25,-104378.6,-375000,-375000,-192624.1,-123683.6,0.03,0.00,0.89,-4,0,-2,40,0
'[14:14:01.696 20/01/2026]',-110482.4,-162093.1,-90874.27,-104440.5,-375000,-375000,-194369.1,-123304.4,0.03,0.00,0.89,-4,0,-2,40,0
'[14:14:01.700 20/01/2026]',-110097.8,-161709.8,-90510.21,-104059.6,-375000,-375000,-195007.8,-122914.3,0.03,0.00,0.89,-4,0,-2,40,0
'[14:14:01.704 20/01/2026]',-110311.3,-161988.3,-90773.25,-103992.6,-375000,-375000,-193632.6,-123222.3,0.03,0.00,0.89,-4,0,-2,40,0
'[14:14:01.708 20/01/2026]',-110745.3,-162459.4,-91202.31,-104313.5,-375000,-375000,-192505.6,-123679.7,0.03,0.00,0.89,-4,0,-2,40,0
'[14:14:01.712 20/01/2026]',-110563.7,-162194.6,-90959.26,-104476,-375000,-375000,-194025.9,-123425.3,0.03,0.00,0.89,-4,0,-2,40,0
'[14:14:01.716 20/01/2026]',-110134.5,-161735.8,-90544.27,-104131.9,-375000,-375000,-195101.6,-122995.6,0.03,0.00,0.89,-4,0,-2,40,0
'[14:14:01.720 20/01/2026]',-110244.8,-161905.3,-90684.55,-103981.2,-375000,-375000,-193968.3,-123178.2,0.03,0.00,0.89,-4,0,-2,40,0
'[14:14:01.724 20/01/2026]',-110701.8,-162412.7,-91149.92,-104253.5,-375000,-375000,-192515.7,-123636.1,0.03,0.00,0.89,-4,0,-2,40,0
'[14:14:01.728 20/01/2026]',-110655.3,-162302.3,-91058.37,-104508.5,-375000,-375000,-193692.7,-123518.4,0.03,-0.02,0.88,-4,0,-2,40,0
'[14:14:01.732 20/01/2026]',-110192.6,-161792.3,-90603.77,-104213.6,-375000,-375000,-195140.9,-123029.9,0.03,-0.02,0.88,-4,0,-2,40,0
'[14:14:01.736 20/01/2026]',-110169.1,-161827.6,-90619.47,-103958.2,-375000,-375000,-194229,-123037,0.03,-0.02,0.88,-4,0,-2,40,0
'[14:14:01.740 20/01/2026]',-110610.1,-162324.3,-91083.09,-104161.9,-375000,-375000,-192543,-123521.1,0.03,-0.02,0.88,-4,0,-2,40,0
'[14:14:01.744 20/01/2026]',-110728.8,-162374.3,-91156.49,-104517.1,-375000,-375000,-193310.2,-123608.9,0.03,-0.02,0.88,-4,0,-2,40,0
'[14:14:01.748 20/01/2026]',-110239.4,-161826,-90645.48,-104285.3,-375000,-375000,-195113.4,-123085.6,0.03,-0.02,0.88,-4,0,-2,40,0
'[14:14:01.752 20/01/2026]',-110121.7,-161754.3,-90557.06,-103974.7,-375000,-375000,-194574.3,-122970,0.03,-0.02,0.88,-4,0,-2,40,0
'[14:14:01.756 20/01/2026]',-110527.3,-162226.9,-90991.18,-104087.9,-375000,-375000,-192701.1,-123425.6,0.03,-0.02,0.88,-4,0,-2,40,0
'[14:14:01.760 20/01/2026]',-110773.5,-162450.7,-91205.84,-104491.7,-375000,-375000,-192896.7,-123687.9,0.03,-0.02,0.88,-4,0,-2,40,0
'[14:14:01.764 20/01/2026]',-110328.7,-161931.1,-90731.23,-104372,-375000,-375000,-194959.3,-123203.4,0.03,-0.02,0.88,-4,0,-2,40,0
'[14:14:01.768 20/01/2026]',-110101.6,-161730,-90536.9,-103999.1,-375000,-375000,-194828.7,-122944.3,0.03,-0.02,0.88,-4,0,-2,40,0
'[14:14:01.772 20/01/2026]',-110458.7,-162153,-90932.17,-104040.6,-375000,-375000,-192933.6,-123360.8,0.03,-0.02,0.88,-4,0,-2,40,0
'[14:14:01.776 20/01/2026]',-110806,-162494.5,-91247.33,-104455.3,-375000,-375000,-192589.1,-123789.3,0.03,-0.02,0.88,-4,0,-2,40,0
'[14:14:01.780 20/01/2026]',-110387.5,-161981.7,-90763.41,-104406.1,-375000,-375000,-194694.7,-123233.1,0.03,-0.02,0.88,-4,0,-2,40,0
'[14:14:01.784 20/01/2026]',-110091.8,-161707.8,-90501.14,-104041.9,-375000,-375000,-195041.8,-122891.4,0.03,-0.02,0.88,-4,0,-2,40,0
'[14:14:01.788 20/01/2026]',-110391.2,-162071,-90855.95,-104021.9,-375000,-375000,-193295.6,-123288.6,0.03,-0.02,0.88,-4,0,-2,40,0
'[14:14:01.792 20/01/2026]',-110811.1,-162496.6,-91262.13,-104394.9,-375000,-375000,-192374.4,-123756.6,0.03,-0.02,0.88,-4,0,-2,40,0
'[14:14:01.796 20/01/2026]',-110498.8,-162108.7,-90885.54,-104489.6,-375000,-375000,-194439,-123387.8,0.03,-0.02,0.88,-4,0,-2,40,0
'[14:14:01.800 20/01/2026]',-110093.6,-161701.5,-90501.98,-104088.1,-375000,-375000,-195253.1,-122942.1,0.03,0.00,0.89,-4,0,-2,40,0
'[14:14:01.804 20/01/2026]',-110287.2,-161942.5,-90745.04,-103958.7,-375000,-375000,-193645.8,-123160.5,0.03,0.00,0.89,-4,0,-2,40,0
'[14:14:01.808 20/01/2026]',-110771.3,-162458.8,-91228.51,-104301.1,-375000,-375000,-192249.8,-123724.6,0.03,0.00,0.89,-4,0,-2,40,0
'[14:14:01.812 20/01/2026]',-110599.6,-162209.7,-90984.92,-104519.6,-375000,-375000,-194047.6,-123480.7,0.03,0.00,0.89,-4,0,-2,40,0
'[14:14:01.816 20/01/2026]',-110131.8,-161728.2,-90533.01,-104160.3,-375000,-375000,-195385.6,-122984.7,0.03,0.00,0.89,-4,0,-2,40,0
'[14:14:01.820 20/01/2026]',-110211.6,-161868.1,-90658.85,-103947.4,-375000,-375000,-194035.5,-123097.4,0.03,0.00,0.89,-4,0,-2,40,0
'[14:14:01.824 20/01/2026]',-110682.6,-162382.2,-91136.15,-104187.3,-375000,-375000,-192199.3,-123542.6,0.03,0.00,0.89,-4,0,-2,40,0
'[14:14:01.828 20/01/2026]',-110672.7,-162303.8,-91065.38,-104526.9,-375000,-375000,-193582.8,-123553.7,0.03,0.00,0.89,-4,0,-2,40,0
'[14:14:01.832 20/01/2026]',-110208.9,-161789.3,-90602.75,-104263,-375000,-375000,-195423.1,-123080.4,0.03,0.00,0.89,-4,0,-2,40,0
'[14:14:01.836 20/01/2026]',-110174.5,-161818,-90586.21,-103969.5,-375000,-375000,-194397.1,-123046.2,0.03,0.00,0.88,-4,0,-2,40,0
'[14:14:01.840 20/01/2026]',-110624.3,-162335.9,-91079.16,-104143.9,-375000,-375000,-192346.2,-123586,0.03,0.00,0.88,-4,0,-2,40,0
'[14:14:01.844 20/01/2026]',-110738.6,-162393.5,-91153.63,-104523.9,-375000,-375000,-193124.4,-123647.1,0.03,0.00,0.88,-4,0,-2,40,0
'[14:14:01.848 20/01/2026]',-110225,-161819.7,-90624.56,-104298.9,-375000,-375000,-195292.4,-123063.9,0.03,0.00,0.88,-4,0,-2,40,0
'[14:14:01.852 20/01/2026]',-110118.8,-161746.7,-90561.3,-103966.4,-375000,-375000,-194698.5,-122965.2,0.03,0.00,0.88,-4,0,-2,40,0
'[14:14:01.856 20/01/2026]',-110537.7,-162234.3,-91014.78,-104060,-375000,-375000,-192497.9,-123417,0.03,0.00,0.88,-4,0,-2,40,0
'[14:14:01.860 20/01/2026]',-110798.2,-162458.1,-91230.07,-104490.6,-375000,-375000,-192644.8,-123683.3,0.03,0.00,0.88,-4,0,-2,40,0
'[14:14:01.864 20/01/2026]',-110321.5,-161915.2,-90716.88,-104396.8,-375000,-375000,-195130.2,-123231.8,0.03,0.00,0.88,-4,0,-2,40,0
'[14:14:01.868 20/01/2026]',-110079.3,-161704.2,-90495.33,-103992.2,-375000,-375000,-194999.7,-122957.9,0.03,0.00,0.88,-4,0,-2,40,0
'[14:14:01.872 20/01/2026]',-110446.5,-162128.7,-90898.55,-104003.4,-375000,-375000,-192812.5,-123332.7,0.03,0.00,0.88,-4,0,-2,40,0
'[14:14:01.876 20/01/2026]',-110814.5,-162492.5,-91241.83,-104424.6,-375000,-375000,-192248.6,-123704.1,0.03,0.00,0.88,-4,0,-2,40,0
'[14:14:01.880 20/01/2026]',-110421.2,-162012,-90809.46,-104466.6,-375000,-375000,-194831,-123287.8,0.03,0.00,0.88,-4,0,-2,40,0
'[14:14:01.884 20/01/2026]',-110110.2,-161704.4,-90531.13,-104072.1,-375000,-375000,-195305.9,-122969.1,0.03,0.00,0.88,-4,0,-2,40,0
'[14:14:01.888 20/01/2026]',-110364.9,-162041.8,-90821.93,-103970.5,-375000,-375000,-193245.2,-123221.4,0.03,0.00,0.88,-4,0,-2,40,0
'[14:14:01.892 20/01/2026]',-110794.5,-162496.3,-91242.14,-104348.1,-375000,-375000,-192052.8,-123696.2,0.03,0.00,0.88,-4,0,-2,40,0
'[14:14:01.896 20/01/2026]',-110502.9,-162110,-90892.47,-104499.5,-375000,-375000,-194428.7,-123389.8,0.03,0.00,0.88,-4,0,-2,40,0
'[14:14:01.900 20/01/2026]',-110117.9,-161723.4,-90541.15,-104145.6,-375000,-375000,-195512.8,-123051.4,0.03,0.00,0.88,-4,0,-2,40,0
'[14:14:01.904 20/01/2026]',-110286.4,-161947.9,-90747.14,-103957.4,-375000,-375000,-193679.3,-123145.9,0.03,0.00,0.88,-4,0,-2,40,0
'[14:14:01.908 20/01/2026]',-110761.2,-162451.3,-91227.03,-104269.2,-375000,-375000,-191946.8,-123653.9,0.03,-0.02,0.88,-4,0,-2,40,0
'[14:14:01.912 20/01/2026]',-110599.1,-162211.9,-90993.19,-104544.4,-375000,-375000,-193997.2,-123499.8,0.03,-0.02,0.88,-4,0,-2,40,0
'[14:14:01.916 20/01/2026]',-110125,-161723,-90536.05,-104188,-375000,-375000,-195592.2,-123040.6,0.03,-0.02,0.88,-4,0,-2,40,0
'[14:14:01.920 20/01/2026]',-110221.8,-161869.5,-90673.52,-103947.2,-375000,-375000,-194098.9,-123079.7,0.03,-0.02,0.88,-4,0,-2,40,0
'[14:14:01.924 20/01/2026]',-110686.4,-162394.7,-91152.55,-104164.3,-375000,-375000,-191944.7,-123586.2,0.03,-0.02,0.88,-4,0,-2,40,0
'[14:14:01.928 20/01/2026]',-110686,-162319.9,-91095.78,-104547.5,-375000,-375000,-193464.4,-123595.7,0.03,-0.02,0.88,-4,0,-2,40,0
'[14:14:01.932 20/01/2026]',-110166,-161758.5,-90559.03,-104253.2,-375000,-375000,-195575.3,-123014.1,0.03,-0.02,0.88,-4,0,-2,40,0
'[14:14:01.936 20/01/2026]',-110165.4,-161804.9,-90607.22,-103961.8,-375000,-375000,-194507.3,-123031.5,0.03,-0.02,0.88,-4,0,-2,40,0
'[14:14:01.940 20/01/2026]',-110693.7,-162387,-91169.68,-104168.7,-375000,-375000,-192164.4,-123637.2,0.03,-0.02,0.88,-4,0,-2,40,0
'[14:14:01.944 20/01/2026]',-110832.6,-162489.5,-91234.5,-104604.9,-375000,-375000,-192994.2,-123741.1,0.03,-0.02,0.89,-4,0,-2,40,0
'[14:14:01.948 20/01/2026]',-110370.6,-161967.3,-90770.61,-104465.9,-375000,-375000,-195564.3,-123237,0.03,-0.02,0.89,-4,0,-2,40,0
'[14:14:01.952 20/01/2026]',-110315.6,-161945.6,-90762.02,-104177.9,-375000,-375000,-195036,-123202.4,0.03,-0.02,0.89,-4,0,-2,40,0
'[14:14:01.956 20/01/2026]',-110760.1,-162447.7,-91235.21,-104262.4,-375000,-375000,-192610.5,-123636.9,0.03,-0.02,0.89,-4,0,-2,40,0
'[14:14:01.960 20/01/2026]',-110975,-162644.2,-91390.65,-104659.8,-375000,-375000,-192632.1,-123872.2,0.03,-0.02,0.89,-4,0,-2,40,0
'[14:14:01.964 20/01/2026]',-110466.6,-162053.1,-90850.27,-104563,-375000,-375000,-195388.5,-123317,0.03,-0.02,0.89,-4,0,-2,40,0
'[14:14:01.968 20/01/2026]',-110254.5,-161864.8,-90691.04,-104183.5,-375000,-375000,-195373.7,-123156.4,0.03,-0.02,0.89,-4,0,-2,40,0
'[14:14:01.972 20/01/2026]',-110617.3,-162309.7,-91084.56,-104176.8,-375000,-375000,-193010.9,-123623.2,0.03,-0.02,0.89,-4,0,-2,40,0
'[14:14:01.976 20/01/2026]',-110969.1,-162643.3,-91409.02,-104569.2,-375000,-375000,-192270.4,-123849.3,0.03,-0.02,0.89,-4,0,-2,40,0
'[14:14:01.980 20/01/2026]',-110518.6,-162121.2,-90915.59,-104595.1,-375000,-375000,-195023.5,-123385.5,0.05,0.00,0.89,-4,0,-2,40,0
'[14:14:01.984 20/01/2026]',-110193.6,-161799.9,-90621.79,-104184.6,-375000,-375000,-195571.2,-123081.1,0.05,0.00,0.89,-4,0,-2,40,0
'[14:14:01.988 20/01/2026]',-110487.4,-162148.9,-90950.41,-104086.4,-375000,-375000,-193377.5,-123357.4,0.05,0.00,0.89,-4,0,-2,40,0
'[14:14:01.992 20/01/2026]',-110922.2,-162603.2,-91367.18,-104445.7,-375000,-375000,-191975.7,-123812.4,0.05,0.00,0.89,-4,0,-2,40,0
'[14:14:01.996 20/01/2026]',-110624.3,-162219.6,-91004.14,-104642.7,-375000,-375000,-194592.4,-123512.8,0.05,0.00,0.89,-4,0,-2,40,0
'[14:14:02.000 20/01/2026]',-110243.4,-161832.3,-90651.34,-104280.8,-375000,-375000,-195813.6,-123209.4,0.05,0.00,0.89,-4,0,-2,40,0
'[14:14:02.004 20/01/2026]',-110422.4,-162060.4,-90885.45,-104082.6,-375000,-375000,-193863,-123318.7,0.05,0.00,0.89,-4,0,-2,40,0
'[14:14:02.008 20/01/2026]',-110861.6,-162553.7,-91316.44,-104350.3,-375000,-375000,-191891.2,-123725.7,0.05,0.00,0.89,-4,0,-2,40,0
'[14:14:02.012 20/01/2026]',-110703.6,-162309.9,-91099.59,-104667.4,-375000,-375000,-194118.6,-123597.4,0.05,0.00,0.89,-4,0,-2,40,0
'[14:14:02.016 20/01/2026]',-110241.4,-161817.3,-90653.8,-104315.9,-375000,-375000,-195849.1,-123126.9,0.03,-0.02,0.89,-4,0,-2,40,0
'[14:14:02.020 20/01/2026]',-110332.1,-161955.6,-90779.1,-104056.9,-375000,-375000,-194234.5,-123197.7,0.03,-0.02,0.89,-4,0,-2,40,0
'[14:14:02.024 20/01/2026]',-110809.2,-162503.7,-91259.94,-104280.8,-375000,-375000,-191973.7,-123715.4,0.03,-0.02,0.89,-4,0,-2,40,0
'[14:14:02.028 20/01/2026]',-110800.2,-162421.8,-91197.35,-104667.4,-375000,-375000,-193541,-123683.6,0.03,-0.02,0.89,-4,0,-2,40,0
'[14:14:02.032 20/01/2026]',-110312.3,-161888.7,-90717.55,-104427.3,-375000,-375000,-195859.8,-123257,0.03,-0.02,0.89,-4,0,-2,40,0
'[14:14:02.036 20/01/2026]',-110282.9,-161903.6,-90730.11,-104094.4,-375000,-375000,-194734.3,-123186.8,0.03,-0.02,0.89,-4,0,-2,40,0
'[14:14:02.040 20/01/2026]',-110738.4,-162419.3,-91212.05,-104214.2,-375000,-375000,-192199.6,-123616.5,0.03,-0.02,0.89,-4,0,-2,40,0
'[14:14:02.044 20/01/2026]',-110849,-162485.1,-91258.37,-104631,-375000,-375000,-193000.6,-123756.4,0.03,-0.02,0.89,-4,0,-2,40,0
'[14:14:02.048 20/01/2026]',-110337,-161906.7,-90728.81,-104449.2,-375000,-375000,-195634.6,-123173.5,0.03,-0.02,0.89,-4,0,-2,40,0
'[14:14:02.052 20/01/2026]',-110219.1,-161829.2,-90657.73,-104092.7,-375000,-375000,-195041,-123114.8,0.03,0.00,0.86,-4,0,-2,40,0
'[14:14:02.056 20/01/2026]',-110641.5,-162320.5,-91118.41,-104156,-375000,-375000,-192526.1,-123570.5,0.03,0.00,0.86,-4,0,-2,40,0
'[14:14:02.060 20/01/2026]',-110898,-162548,-91330.7,-104584.6,-375000,-375000,-192509.5,-123773.3,0.03,0.00,0.86,-4,0,-2,40,0
'[14:14:02.064 20/01/2026]',-110423.3,-162001.6,-90814.73,-104541.6,-375000,-375000,-195409.6,-123335.5,0.03,0.00,0.86,-4,0,-2,40,0
'[14:14:02.068 20/01/2026]',-110181.3,-161784.6,-90605.07,-104127,-375000,-375000,-195386,-123053.8,0.03,0.00,0.86,-4,0,-2,40,0
'[14:14:02.072 20/01/2026]',-110551.3,-162212.7,-91017.69,-104098.6,-375000,-375000,-192906.5,-123424.9,0.03,0.00,0.86,-4,0,-2,40,0
'[14:14:02.076 20/01/2026]',-110913.1,-162574.3,-91340.67,-104508.8,-375000,-375000,-192117,-123848.7,0.03,0.00,0.86,-4,0,-2,40,0
'[14:14:02.080 20/01/2026]',-110503.5,-162066.3,-90874.23,-104577.4,-375000,-375000,-194985.1,-123372,0.03,0.00,0.86,-4,0,-2,40,0
'[14:14:02.084 20/01/2026]',-110177.2,-161757.9,-90590.37,-104180,-375000,-375000,-195640.1,-123040.6,0.03,0.00,0.86,-4,0,-2,40,0
'[14:14:02.088 20/01/2026]',-110451.3,-162108.9,-90915.45,-104063.9,-375000,-375000,-193387.4,-123345.1,0.03,-0.02,0.88,-4,0,-2,40,0
'[14:14:02.092 20/01/2026]',-110909.8,-162584.8,-91346.7,-104437,-375000,-375000,-191926.5,-123853.6,0.03,-0.02,0.88,-4,0,-2,40,0
'[14:14:02.096 20/01/2026]',-110606.2,-162182.1,-90979.29,-104617.4,-375000,-375000,-194523.3,-123464.2,0.03,-0.02,0.88,-4,0,-2,40,0
'[14:14:02.100 20/01/2026]',-110193.9,-161764.8,-90587.51,-104230,-375000,-375000,-195775.5,-123048.7,0.03,-0.02,0.88,-4,0,-2,40,0
'[14:14:02.104 20/01/2026]',-110387.4,-162016.9,-90825.95,-104047.4,-375000,-375000,-193822.1,-123266.5,0.03,-0.02,0.88,-4,0,-2,40,0
'[14:14:02.108 20/01/2026]',-110869.9,-162553.3,-91311.74,-104354.3,-375000,-375000,-191845.2,-123836.4,0.03,-0.02,0.88,-4,0,-2,40,0
'[14:14:02.112 20/01/2026]',-110695.6,-162298.5,-91076.96,-104652.5,-375000,-375000,-194030.6,-123617.5,0.03,-0.02,0.88,-4,0,-2,40,0
'[14:14:02.116 20/01/2026]',-110210.5,-161781.9,-90610.26,-104288,-375000,-375000,-195820,-123018.6,0.03,-0.02,0.88,-4,0,-2,40,0
'[14:14:02.120 20/01/2026]',-110309.5,-161938.3,-90740.34,-104039.4,-375000,-375000,-194259.9,-123146.1,0.03,-0.02,0.88,-4,0,-2,40,0
'[14:14:02.124 20/01/2026]',-110820.2,-162502,-91264.63,-104283.8,-375000,-375000,-191971.9,-123755.4,0.03,0.00,0.88,-4,0,-2,40,0
'[14:14:02.128 20/01/2026]',-110815.4,-162415.1,-91183,-104669,-375000,-375000,-193510.4,-123728.7,0.03,0.00,0.88,-4,0,-2,40,0
'[14:14:02.132 20/01/2026]',-110278.7,-161831,-90639.05,-104374.3,-375000,-375000,-195809.4,-123094.5,0.03,0.00,0.88,-4,0,-2,40,0
'[14:14:02.136 20/01/2026]',-110269.2,-161874.1,-90696.31,-104070.3,-375000,-375000,-194728.8,-123128.4,0.03,0.00,0.88,-4,0,-2,40,0
'[14:14:02.140 20/01/2026]',-110736.1,-162415.6,-91173.43,-104202,-375000,-375000,-192166.1,-123660.9,0.03,0.00,0.88,-4,0,-2,40,0
'[14:14:02.144 20/01/2026]',-110883.6,-162504.7,-91280.77,-104648.3,-375000,-375000,-192973.1,-123807.6,0.03,0.00,0.88,-4,0,-2,40,0
'[14:14:02.148 20/01/2026]',-110352.7,-161900,-90721.16,-104459.9,-375000,-375000,-195694.6,-123166,0.03,0.00,0.88,-4,0,-2,40,0
'[14:14:02.152 20/01/2026]',-110199.8,-161796,-90600.96,-104062.7,-375000,-375000,-195079.5,-123027.9,0.03,0.00,0.88,-4,0,-2,40,0
'[14:14:02.156 20/01/2026]',-110632.3,-162290,-91072.36,-104123.1,-375000,-375000,-192503.5,-123531.6,0.03,0.00,0.88,-4,0,-2,40,0
'[14:14:02.160 20/01/2026]',-110901.8,-162526,-91303.97,-104560.5,-375000,-375000,-192465.5,-123790.6,0.03,-0.02,0.89,-4,0,-2,40,0
'[14:14:02.164 20/01/2026]',-110450.6,-161995.9,-90816.25,-104552.1,-375000,-375000,-195455,-123327,0.03,-0.02,0.89,-4,0,-2,40,0
'[14:14:02.168 20/01/2026]',-110215.1,-161790.5,-90623.18,-104150.3,-375000,-375000,-195475.5,-123086.2,0.03,-0.02,0.89,-4,0,-2,40,0
'[14:14:02.172 20/01/2026]',-110550.7,-162205,-90997.03,-104093.2,-375000,-375000,-192947.4,-123449.4,0.03,-0.02,0.89,-4,0,-2,40,0
'[14:14:02.176 20/01/2026]',-110912.9,-162548.3,-91337.95,-104491.7,-375000,-375000,-192096.9,-123781.4,0.03,-0.02,0.89,-4,0,-2,40,0
'[14:14:02.180 20/01/2026]',-110514,-162058.9,-90879.06,-104576.3,-375000,-375000,-195002.2,-123340.1,0.03,-0.02,0.89,-4,0,-2,40,0
'[14:14:02.184 20/01/2026]',-110194.1,-161756.8,-90590.86,-104178.8,-375000,-375000,-195639.2,-123051.8,0.03,-0.02,0.89,-4,0,-2,40,0
'[14:14:02.188 20/01/2026]',-110479.9,-162117.3,-90930.34,-104079.2,-375000,-375000,-193399.3,-123397.2,0.03,-0.02,0.89,-4,0,-2,40,0
'[14:14:02.192 20/01/2026]',-110929.1,-162578.3,-91352.02,-104438,-375000,-375000,-191879.5,-123806.4,0.03,-0.02,0.89,-4,0,-2,40,0
'[14:14:02.196 20/01/2026]',-110609.6,-162168.2,-90949.55,-104621,-375000,-375000,-194528.4,-123450.1,0.03,0.00,0.88,-4,0,-2,40,0
'[14:14:02.200 20/01/2026]',-110194.6,-161744.2,-90563.95,-104228.3,-375000,-375000,-195777.6,-123008.7,0.03,0.00,0.88,-4,0,-2,40,0
'[14:14:02.204 20/01/2026]',-110390.7,-162004.6,-90810.66,-104051.7,-375000,-375000,-193845.6,-123237.1,0.03,0.00,0.88,-4,0,-2,40,0
'[14:14:02.208 20/01/2026]',-110890.8,-162544.2,-91316.44,-104359.3,-375000,-375000,-191829.4,-123775.1,0.03,0.00,0.88,-4,0,-2,40,0
'[14:14:02.212 20/01/2026]',-110727.2,-162296.7,-91087.65,-104670,-375000,-375000,-194001.4,-123617.2,0.03,0.00,0.88,-4,0,-2,40,0
'[14:14:02.216 20/01/2026]',-110244,-161786.8,-90619.6,-104325.4,-375000,-375000,-195862.2,-123091.5,0.03,0.00,0.88,-4,0,-2,40,0
'[14:14:02.220 20/01/2026]',-110308,-161912.9,-90726.48,-104040.7,-375000,-375000,-194284.7,-123146.6,0.03,0.00,0.88,-4,0,-2,40,0
'[14:14:02.224 20/01/2026]',-110783.1,-162447.1,-91201.28,-104240.5,-375000,-375000,-191905.4,-123668,0.03,0.00,0.88,-4,0,-2,40,0
'[14:14:02.228 20/01/2026]',-110781.6,-162366.2,-91127.7,-104632.6,-375000,-375000,-193411.8,-123636.3,0.03,0.00,0.88,-4,0,-2,40,0
'[14:14:02.232 20/01/2026]',-110284.8,-161814.4,-90644.59,-104389.1,-375000,-375000,-195840.3,-123131.9,0.03,0.00,0.89,-4,0,-2,40,0
'[14:14:02.236 20/01/2026]',-110252.3,-161831.2,-90655.63,-104054.1,-375000,-375000,-194758,-123106.3,0.03,0.00,0.89,-4,0,-2,40,0
'[14:14:02.240 20/01/2026]',-110705.7,-162359.9,-91132.84,-104166.8,-375000,-375000,-192169.7,-123588,0.03,0.00,0.89,-4,0,-2,40,0
'[14:14:02.244 20/01/2026]',-110844.1,-162450.6,-91217.38,-104603.9,-375000,-375000,-192902.5,-123729.5,0.03,0.00,0.89,-4,0,-2,40,0
'[14:14:02.248 20/01/2026]',-110349.6,-161879.8,-90714.95,-104467.4,-375000,-375000,-195683.3,-123186.6,0.03,0.00,0.89,-4,0,-2,40,0
'[14:14:02.252 20/01/2026]',-110228.4,-161801.2,-90633.23,-104104.6,-375000,-375000,-195140,-123059.6,0.03,0.00,0.89,-4,0,-2,40,0
'[14:14:02.256 20/01/2026]',-110645.3,-162299.4,-91076.07,-104156.7,-375000,-375000,-192552.3,-123544.9,0.03,0.00,0.89,-4,0,-2,40,0
'[14:14:02.260 20/01/2026]',-110922.8,-162557.3,-91313.18,-104600.2,-375000,-375000,-192458.7,-123824.4,0.03,0.00,0.89,-4,0,-2,40,0
'[14:14:02.264 20/01/2026]',-110445,-161989.5,-90790.95,-104562.8,-375000,-375000,-195443.6,-123299.3,0.03,0.00,0.89,-4,0,-2,40,0
'[14:14:02.268 20/01/2026]',-110207.8,-161777.7,-90583.08,-104158.4,-375000,-375000,-195508.6,-123042.1,0.05,0.00,0.88,-4,0,-2,40,0
'[14:14:02.272 20/01/2026]',-110556.3,-162200.4,-90986.08,-104106.2,-375000,-375000,-192998.6,-123448.9,0.05,0.00,0.88,-4,0,-2,40,0
'[14:14:02.276 20/01/2026]',-110944.5,-162575.5,-91352.52,-104531.9,-375000,-375000,-192153.7,-123879.7,0.05,0.00,0.88,-4,0,-2,40,0
'[14:14:02.280 20/01/2026]',-110548.9,-162091.8,-90899.49,-104627.5,-375000,-375000,-195101.5,-123423.1,0.05,0.00,0.88,-4,0,-2,40,0
'[14:14:02.284 20/01/2026]',-110183.9,-161738.6,-90559.74,-104172.3,-375000,-375000,-195665.9,-122959,0.05,0.00,0.88,-4,0,-2,40,0
'[14:14:02.288 20/01/2026]',-110454.9,-162073.7,-90882.5,-104049,-375000,-375000,-193373.6,-123285.1,0.05,0.00,0.88,-4,0,-2,40,0
'[14:14:02.292 20/01/2026]',-110917,-162558.6,-91324.17,-104421,-375000,-375000,-191838.1,-123807.3,0.05,0.00,0.88,-4,0,-2,40,0
'[14:14:02.296 20/01/2026]',-110631.8,-162190,-90968.29,-104641.8,-375000,-375000,-194539.6,-123494.6,0.05,0.00,0.88,-4,0,-2,40,0
'[14:14:02.300 20/01/2026]',-110207.9,-161759.7,-90575.48,-104252.1,-375000,-375000,-195855.2,-123042.8,0.05,0.00,0.88,-4,0,-2,40,0
'[14:14:02.304 20/01/2026]',-110384.6,-161993.2,-90805.44,-104051.1,-375000,-375000,-193879.8,-123234.7,0.03,0.00,0.88,-4,0,-2,40,0
'[14:14:02.308 20/01/2026]',-110868,-162519,-91292.16,-104332.9,-375000,-375000,-191765.4,-123760.3,0.03,0.00,0.88,-4,0,-2,40,0
'[14:14:02.312 20/01/2026]',-110712.3,-162289.8,-91064.45,-104663.1,-375000,-375000,-193982.8,-123582,0.03,0.00,0.88,-4,0,-2,40,0
'[14:14:02.316 20/01/2026]',-110229.1,-161775.8,-90599.4,-104327.3,-375000,-375000,-195933.8,-123044.3,0.03,0.00,0.88,-4,0,-2,40,0
'[14:14:02.320 20/01/2026]',-110308.8,-161906.2,-90717.86,-104053.5,-375000,-375000,-194357.8,-123140.9,0.03,0.00,0.88,-4,0,-2,40,0
'[14:14:02.324 20/01/2026]',-110808.4,-162457.7,-91221,-104265.1,-375000,-375000,-191907.5,-123709.3,0.03,0.00,0.88,-4,0,-2,40,0
'[14:14:02.328 20/01/2026]',-110815.4,-162386.8,-91170.84,-104669.2,-375000,-375000,-193443.8,-123707.2,0.03,0.00,0.88,-4,0,-2,40,0
'[14:14:02.332 20/01/2026]',-110299.5,-161821.3,-90658.49,-104413.9,-375000,-375000,-195897.9,-123142.8,0.03,0.00,0.88,-4,0,-2,40,0
'[14:14:02.336 20/01/2026]',-110242.1,-161820.4,-90648.03,-104053.3,-375000,-375000,-194765.6,-123066.4,0.03,0.00,0.88,-4,0,-2,40,0
'[14:14:02.340 20/01/2026]',-110705,-162359.3,-91140.4,-104170.3,-375000,-375000,-192129.5,-123571.2,0.03,0.00,0.88,-4,0,-2,40,0
'[14:14:02.344 20/01/2026]',-110868,-162474.3,-91239.28,-104631.5,-375000,-375000,-192875.3,-123769.5,0.03,0.00,0.88,-4,0,-2,40,0
'[14:14:02.348 20/01/2026]',-110361.3,-161888.4,-90714.28,-104493.6,-375000,-375000,-195743.3,-123241.1,0.03,0.00,0.88,-4,0,-2,40,0
'[14:14:02.352 20/01/2026]',-110238.4,-161801.5,-90647.9,-104123.9,-375000,-375000,-195203.5,-123131.3,0.03,0.00,0.88,-4,0,-2,40,0
'[14:14:02.356 20/01/2026]',-110628,-162277.9,-91060.11,-104133.9,-375000,-375000,-192522.8,-123495,0.03,0.00,0.88,-4,0,-2,40,0
'[14:14:02.360 20/01/2026]',-110858,-162487.6,-91261.01,-104559.5,-375000,-375000,-192391.4,-123740.9,0.03,0.00,0.88,-4,0,-2,40,0
'[14:14:02.364 20/01/2026]',-110394.6,-161931,-90764.3,-104540.4,-375000,-375000,-195449.1,-123252.4,0.03,0.00,0.88,-4,0,-2,40,0
'[14:14:02.368 20/01/2026]',-110184.4,-161732.9,-90548.43,-104125,-375000,-375000,-195466.5,-123007.1,0.03,0.00,0.88,-4,0,-2,40,0
'[14:14:02.372 20/01/2026]',-110547,-162156.9,-90945.98,-104079.9,-375000,-375000,-192950.5,-123401.7,0.03,0.00,0.88,-4,0,-2,40,0
'[14:14:02.376 20/01/2026]',-110946.5,-162528.3,-91332.84,-104499.5,-375000,-375000,-192048.8,-123805.3,0.03,0.00,0.88,-4,0,-2,40,0
'[14:14:02.380 20/01/2026]',-110575.5,-162053.8,-90908.88,-104619.9,-375000,-375000,-195011.4,-123385.1,0.03,0.00,0.88,-4,0,-2,40,0
'[14:14:02.384 20/01/2026]',-110222.9,-161703.4,-90594.03,-104202.8,-375000,-375000,-195705.3,-123029.2,0.03,0.00,0.88,-4,0,-2,40,0
'[14:14:02.388 20/01/2026]',-110498.2,-162033.4,-90902.48,-104062.6,-375000,-375000,-193404.8,-123301,0.03,0.00,0.88,-4,0,-2,40,0
'[14:14:02.392 20/01/2026]',-110957,-162505,-91337.36,-104417.8,-375000,-375000,-191799.2,-123781.7,0.03,0.00,0.88,-4,0,-2,40,0
'[14:14:02.396 20/01/2026]',-110665.6,-162104.6,-90989.12,-104641.3,-375000,-375000,-194500.7,-123464.5,0.03,0.00,0.88,-4,0,-2,40,0
'[14:14:02.400 20/01/2026]',-110250.2,-161673,-90597.25,-104254,-375000,-375000,-195849.2,-123015.5,0.03,0.00,0.88,-4,0,-2,40,0
'[14:14:02.404 20/01/2026]',-110431.3,-161906,-90824.08,-104052.1,-375000,-375000,-193875,-123213.2,0.03,0.00,0.88,-4,0,-2,40,0
'[14:14:02.408 20/01/2026]',-110917.6,-162422.3,-91311.16,-104340.9,-375000,-375000,-191801.9,-123759.8,0.03,0.00,0.88,-4,0,-2,40,0
'[14:14:02.412 20/01/2026]',-110771.8,-162186.8,-91087.42,-104659.2,-375000,-375000,-193983.7,-123556.5,0.02,-0.02,0.88,-4,0,-2,40,0
'[14:14:02.416 20/01/2026]',-110283.4,-161662.3,-90621.79,-104320.8,-375000,-375000,-195914.9,-123036.5,0.02,-0.02,0.88,-4,0,-2,40,0
'[14:14:02.420 20/01/2026]',-110343.2,-161778.8,-90736.14,-104044.6,-375000,-375000,-194324.5,-123136,0.02,-0.02,0.88,-4,0,-2,40,0
'[14:14:02.424 20/01/2026]',-110834.2,-162322.4,-91244.78,-104245.6,-375000,-375000,-191828.1,-123662.7,0.02,-0.02,0.88,-4,0,-2,40,0
'[14:14:02.428 20/01/2026]',-110840.4,-162257.8,-91168.34,-104645.1,-375000,-375000,-193330.5,-123644.3,0.02,-0.02,0.88,-4,0,-2,40,0
'[14:14:02.432 20/01/2026]',-110306,-161675.6,-90627.47,-104382.9,-375000,-375000,-195846.9,-123062.2,0.02,-0.02,0.88,-4,0,-2,40,0
'[14:14:02.436 20/01/2026]',-110271.5,-161697.1,-90667.75,-104055.8,-375000,-375000,-194761.2,-123068.2,0.02,-0.02,0.88,-4,0,-2,40,0
'[14:14:02.440 20/01/2026]',-110726.8,-162216.3,-91154.03,-104157.9,-375000,-375000,-192072.2,-123543.3,0.02,-0.02,0.88,-4,0,-2,40,0
'[14:14:02.444 20/01/2026]',-110873.8,-162318.3,-91240.63,-104603.8,-375000,-375000,-192793.3,-123681.5,0.02,-0.02,0.88,-4,0,-2,40,0
'[14:14:02.448 20/01/2026]',-110366.1,-161741.5,-90705.25,-104479,-375000,-375000,-195706.9,-123179.8,0.03,-0.02,0.88,-4,0,-2,40,0
'[14:14:02.452 20/01/2026]',-110248.1,-161657.7,-90636.99,-104120.3,-375000,-375000,-195210,-123062.3,0.03,-0.02,0.88,-4,0,-2,40,0
'[14:14:02.456 20/01/2026]',-110686.8,-162163.3,-91124.52,-104154.1,-375000,-375000,-192529.2,-123510.6,0.03,-0.02,0.88,-4,0,-2,40,0
'[14:14:02.460 20/01/2026]',-110945.8,-162397.2,-91331.46,-104572.1,-375000,-375000,-192344.3,-123778,0.03,-0.02,0.88,-4,0,-2,40,0
'[14:14:02.464 20/01/2026]',-110461,-161831.8,-90809.73,-104552.3,-375000,-375000,-195422.9,-123255.9,0.03,-0.02,0.88,-4,0,-2,40,0
'[14:14:02.468 20/01/2026]',-110216,-161619.7,-90591.04,-104140.1,-375000,-375000,-195498.8,-122990.3,0.03,-0.02,0.88,-4,0,-2,40,0
'[14:14:02.472 20/01/2026]',-110561.3,-162034.4,-90979.24,-104078.6,-375000,-375000,-192938.7,-123383.5,0.03,-0.02,0.88,-4,0,-2,40,0
'[14:14:02.476 20/01/2026]',-110945.4,-162420.5,-91341.83,-104496.2,-375000,-375000,-192004.3,-123816.6,0.03,-0.02,0.88,-4,0,-2,40,0
'[14:14:02.480 20/01/2026]',-110541.6,-161927.7,-90881.88,-104610,-375000,-375000,-195066.7,-123366.4,0.03,-0.02,0.88,-4,0,-2,40,0
'[14:14:02.484 20/01/2026]',-110202.3,-161601,-90574.63,-104195.9,-375000,-375000,-195812.4,-123016.7,0.03,-0.02,0.88,-4,0,-2,40,0
'[14:14:02.488 20/01/2026]',-110468.6,-161935,-90893.5,-104049.1,-375000,-375000,-193471.2,-123284.6,0.03,-0.02,0.88,-4,0,-2,40,0
'[14:14:02.492 20/01/2026]',-110926.1,-162421.5,-91341.61,-104408.3,-375000,-375000,-191863,-123805.8,0.03,-0.02,0.88,-4,0,-2,40,0
'[14:14:02.496 20/01/2026]',-110643.8,-162039.6,-90985.55,-104638.6,-375000,-375000,-194546.4,-123464.6,0.03,-0.02,0.88,-4,0,-2,40,0
'[14:14:02.500 20/01/2026]',-110207.1,-161591.5,-90568.46,-104236.8,-375000,-375000,-195876.6,-122993.6,0.03,-0.02,0.88,-4,0,-2,40,0
'[14:14:02.504 20/01/2026]',-110394.3,-161848.2,-90815,-104047.1,-375000,-375000,-193928.3,-123243.8,0.03,-0.02,0.88,-4,0,-2,40,0
'[14:14:02.508 20/01/2026]',-110882.4,-162383.5,-91299.01,-104341.9,-375000,-375000,-191851.1,-123805.4,0.03,-0.02,0.88,-4,0,-2,40,0
'[14:14:02.512 20/01/2026]',-110724.3,-162132.5,-91065.83,-104641.7,-375000,-375000,-193975.3,-123517.9,0.03,-0.02,0.88,-4,0,-2,40,0
'[14:14:02.516 20/01/2026]',-110233.5,-161614.5,-90595.95,-104302.3,-375000,-375000,-195893.5,-123002.6,0.03,-0.02,0.88,-4,0,-2,40,0
'[14:14:02.520 20/01/2026]',-110309.3,-161758.4,-90728.19,-104043.3,-375000,-375000,-194384.3,-123107.3,0.03,0.00,0.89,-4,0,-2,40,0
'[14:14:02.524 20/01/2026]',-110810.3,-162322.2,-91241.38,-104253.2,-375000,-375000,-191939.6,-123667.1,0.03,0.00,0.89,-4,0,-2,40,0
'[14:14:02.528 20/01/2026]',-110837.3,-162274.3,-91210.58,-104677.2,-375000,-375000,-193464.7,-123733.4,0.03,0.00,0.89,-4,0,-2,40,0
'[14:14:02.532 20/01/2026]',-110311.8,-161682.3,-90672.3,-104395.6,-375000,-375000,-195866.1,-123100.9,0.03,0.00,0.89,-4,0,-2,40,0
'[14:14:02.536 20/01/2026]',-110258.5,-161693.2,-90668.33,-104047.4,-375000,-375000,-194782,-123039.4,0.03,0.00,0.89,-4,0,-2,40,0
'[14:14:02.540 20/01/2026]',-110713.3,-162226.5,-91158.63,-104165.2,-375000,-375000,-192188.1,-123549.5,0.03,0.00,0.89,-4,0,-2,40,0
'[14:14:02.544 20/01/2026]',-110849.3,-162318.6,-91241.02,-104609.9,-375000,-375000,-192870.3,-123736.8,0.03,0.00,0.89,-4,0,-2,40,0
'[14:14:02.548 20/01/2026]',-110355.1,-161745.4,-90736.63,-104478.8,-375000,-375000,-195675.2,-123236.8,0.03,0.00,0.89,-4,0,-2,40,0
'[14:14:02.552 20/01/2026]',-110242.4,-161651.9,-90641.33,-104096,-375000,-375000,-195154.2,-123062,0.03,0.00,0.89,-4,0,-2,40,0
'[14:14:02.556 20/01/2026]',-110646,-162118,-91084.65,-104124.9,-375000,-375000,-192659.3,-123450.7,0.05,0.00,0.89,-4,0,-2,40,0
'[14:14:02.560 20/01/2026]',-110926.8,-162357.3,-91338.43,-104567.3,-375000,-375000,-192588.9,-123767.5,0.05,0.00,0.89,-4,0,-2,40,0
'[14:14:02.564 20/01/2026]',-110469.3,-161802.9,-90851.92,-104531.8,-375000,-375000,-195390.3,-123296.8,0.05,0.00,0.89,-4,0,-2,40,0
'[14:14:02.568 20/01/2026]',-110217.7,-161566.4,-90639.72,-104119,-375000,-375000,-195404,-123037.5,0.05,0.00,0.89,-4,0,-2,40,0
'[14:14:02.572 20/01/2026]',-110525.7,-161927.3,-90984.74,-104055,-375000,-375000,-193057.7,-123352.8,0.05,0.00,0.89,-4,0,-2,40,0
'[14:14:02.576 20/01/2026]',-110908.3,-162304.5,-91324.58,-104448.3,-375000,-375000,-192214.6,-123744.8,0.05,0.00,0.89,-4,0,-2,40,0
'[14:14:02.580 20/01/2026]',-110521.9,-161813.3,-90895.69,-104523.2,-375000,-375000,-194908.2,-123308.6,0.05,0.00,0.89,-4,0,-2,40,0
'[14:14:02.584 20/01/2026]',-110171.8,-161462.5,-90578.52,-104114.1,-375000,-375000,-195560.9,-122946.3,0.05,0.00,0.89,-4,0,-2,40,0
'[14:14:02.588 20/01/2026]',-110417.8,-161770.9,-90868.29,-103995.3,-375000,-375000,-193476.3,-123241.6,0.05,0.00,0.89,-4,0,-2,40,0
'[14:14:02.592 20/01/2026]',-110859.8,-162227.3,-91305.84,-104348,-375000,-375000,-192022.2,-123723.6,0.03,0.00,0.88,-4,0,-2,40,0
'[14:14:02.596 20/01/2026]',-110602.7,-161876.1,-90988.77,-104559.6,-375000,-375000,-194441.9,-123445.4,0.03,0.00,0.88,-4,0,-2,40,0
'[14:14:02.600 20/01/2026]',-110181.3,-161455.6,-90602.44,-104188.9,-375000,-375000,-195694.2,-123015.9,0.03,0.00,0.88,-4,0,-2,40,0
'[14:14:02.604 20/01/2026]',-110348.9,-161689.4,-90813.44,-104004.8,-375000,-375000,-193915.5,-123186,0.03,0.00,0.88,-4,0,-2,40,0
'[14:14:02.608 20/01/2026]',-110817,-162198.2,-91277.64,-104280.3,-375000,-375000,-192000.4,-123677.5,0.03,0.00,0.88,-4,0,-2,40,0
'[14:14:02.612 20/01/2026]',-110678.5,-161981.8,-91069.54,-104574.8,-375000,-375000,-193937.9,-123523.4,0.03,0.00,0.88,-4,0,-2,40,0
'[14:14:02.616 20/01/2026]',-110190.5,-161455.2,-90604.76,-104240.1,-375000,-375000,-195741.1,-123017.3,0.03,0.00,0.88,-4,0,-2,40,0
'[14:14:02.620 20/01/2026]',-110256.2,-161579.9,-90718.66,-103977.8,-375000,-375000,-194339.9,-123077.7,0.03,0.00,0.88,-4,0,-2,40,0
'[14:14:02.624 20/01/2026]',-110766.8,-162141.6,-91243.93,-104212.1,-375000,-375000,-192145.5,-123621.5,0.03,0.00,0.88,-4,0,-2,40,0
'[14:14:02.628 20/01/2026]',-110803.5,-162116.1,-91217.51,-104608.8,-375000,-375000,-193499.5,-123663.6,0.05,-0.02,0.89,-4,0,-2,40,0
'[14:14:02.632 20/01/2026]',-110282.8,-161553.7,-90679.19,-104333.2,-375000,-375000,-195655.7,-123111.5,0.05,-0.02,0.89,-4,0,-2,40,0
'[14:14:02.636 20/01/2026]',-110229.1,-161542.1,-90657.55,-104007.9,-375000,-375000,-194669.7,-123036,0.05,-0.02,0.89,-4,0,-2,40,0
'[14:14:02.640 20/01/2026]',-110685.9,-162072.2,-91148.27,-104147.4,-375000,-375000,-192337.3,-123552.7,0.05,-0.02,0.89,-4,0,-2,40,0
'[14:14:02.644 20/01/2026]',-110855.2,-162200.9,-91277.68,-104577.3,-375000,-375000,-192976.6,-123734.4,0.05,-0.02,0.89,-4,0,-2,40,0
'[14:14:02.648 20/01/2026]',-110352.1,-161621.5,-90760.46,-104414.5,-375000,-375000,-195494.1,-123184.9,0.05,-0.02,0.89,-4,0,-2,40,0
'[14:14:02.652 20/01/2026]',-110206.3,-161506.3,-90662.02,-104053.9,-375000,-375000,-195022.6,-123029,0.05,-0.02,0.89,-4,0,-2,40,0
'[14:14:02.656 20/01/2026]',-110599.7,-161968.2,-91084.12,-104091,-375000,-375000,-192645.9,-123437.9,0.05,-0.02,0.89,-4,0,-2,40,0
'[14:14:02.660 20/01/2026]',-110881.2,-162234.3,-91316.35,-104516,-375000,-375000,-192527.1,-123734.6,0.05,-0.02,0.89,-4,0,-2,40,0
'[14:14:02.664 20/01/2026]',-110428,-161696.9,-90813.8,-104473.4,-375000,-375000,-195207.6,-123261.8,0.03,0.00,0.88,-4,0,-2,40,0
'[14:14:02.668 20/01/2026]',-110182.2,-161469,-90607.22,-104083.5,-375000,-375000,-195271,-123032.1,0.03,0.00,0.88,-4,0,-2,40,0
'[14:14:02.672 20/01/2026]',-110511.7,-161864.4,-90964.45,-104047.3,-375000,-375000,-193040.3,-123380.6,0.03,0.00,0.88,-4,0,-2,40,0
'[14:14:02.676 20/01/2026]',-110880,-162243,-91310.27,-104438.2,-375000,-375000,-192213.9,-123763.4,0.03,0.00,0.88,-4,0,-2,40,0
'[14:14:02.680 20/01/2026]',-110513.4,-161787.3,-90916.66,-104535.8,-375000,-375000,-194870.5,-123345.7,0.03,0.00,0.88,-4,0,-2,40,0
'[14:14:02.684 20/01/2026]',-110169,-161457.8,-90599.48,-104135.6,-375000,-375000,-195500,-123005.4,0.03,0.00,0.88,-4,0,-2,40,0
'[14:14:02.688 20/01/2026]',-110419.4,-161774.1,-90880.85,-104009.6,-375000,-375000,-193414.8,-123281.8,0.03,0.00,0.88,-4,0,-2,40,0
'[14:14:02.692 20/01/2026]',-110883,-162252.3,-91338.48,-104388,-375000,-375000,-192070.9,-123775.8,0.03,0.00,0.88,-4,0,-2,40,0
'[14:14:02.696 20/01/2026]',-110628.2,-161902.2,-91036.1,-104596.8,-375000,-375000,-194438.3,-123475.8,0.03,0.00,0.88,-4,0,-2,40,0
'[14:14:02.700 20/01/2026]',-110204.2,-161469.3,-90620.54,-104212.6,-375000,-375000,-195595.1,-123041.1,0.03,0.00,0.89,-4,0,-2,40,0
'[14:14:02.704 20/01/2026]',-110343.1,-161672.7,-90785.18,-104003.2,-375000,-375000,-193828.2,-123160.8,0.03,0.00,0.89,-4,0,-2,40,0
'[14:14:02.708 20/01/2026]',-110822.9,-162194.1,-91289.93,-104290.9,-375000,-375000,-191988.6,-123673.5,0.03,0.00,0.89,-4,0,-2,40,0
'[14:14:02.712 20/01/2026]',-110702.1,-161994.1,-91127.03,-104597.1,-375000,-375000,-193891.6,-123566.1,0.03,0.00,0.89,-4,0,-2,40,0
'[14:14:02.716 20/01/2026]',-110222.3,-161480.3,-90651.43,-104270.8,-375000,-375000,-195627.6,-123064,0.03,0.00,0.89,-4,0,-2,40,0
'[14:14:02.720 20/01/2026]',-110281.7,-161599.4,-90742.54,-104018.8,-375000,-375000,-194296,-123106.5,0.03,0.00,0.89,-4,0,-2,40,0
'[14:14:02.724 20/01/2026]',-110768.3,-162145.2,-91243.22,-104229.7,-375000,-375000,-192156.7,-123644,0.03,0.00,0.89,-4,0,-2,40,0
'[14:14:02.728 20/01/2026]',-110806.9,-162128.7,-91228.51,-104626.9,-375000,-375000,-193472.6,-123707.9,0.03,0.00,0.89,-4,0,-2,40,0
'[14:14:02.732 20/01/2026]',-110280.8,-161554,-90679.64,-104357.1,-375000,-375000,-195630.8,-123101.9,0.03,0.00,0.89,-4,0,-2,40,0
'[14:14:02.736 20/01/2026]',-110233.7,-161547.3,-90676.29,-104032.3,-375000,-375000,-194694.1,-123051.7,0.03,0.00,0.89,-4,0,-2,40,0
'[14:14:02.740 20/01/2026]',-110684.9,-162052.9,-91152.51,-104154.7,-375000,-375000,-192371.3,-123541.3,0.03,0.00,0.89,-4,0,-2,40,0
'[14:14:02.744 20/01/2026]',-110844.6,-162172.4,-91267.04,-104569.8,-375000,-375000,-192953,-123726.7,0.03,0.00,0.89,-4,0,-2,40,0
'[14:14:02.748 20/01/2026]',-110344.3,-161601.3,-90733.41,-104409.8,-375000,-375000,-195439.5,-123196.7,0.03,0.00,0.89,-4,0,-2,40,0
'[14:14:02.752 20/01/2026]',-110199.1,-161490.6,-90614.95,-104045,-375000,-375000,-194989.9,-123037.6,0.03,0.00,0.89,-4,0,-2,40,0
'[14:14:02.756 20/01/2026]',-110591.1,-161941.6,-91056.8,-104079.2,-375000,-375000,-192668,-123436.3,0.03,0.00,0.89,-4,0,-2,40,0
'[14:14:02.760 20/01/2026]',-110900,-162220.1,-91325.73,-104516.4,-375000,-375000,-192548.9,-123777.1,0.03,0.00,0.89,-4,0,-2,40,0
'[14:14:02.764 20/01/2026]',-110439.8,-161668.9,-90821.88,-104480,-375000,-375000,-195190.5,-123337.4,0.03,0.00,0.89,-4,0,-2,40,0
'[14:14:02.768 20/01/2026]',-110135.4,-161383.6,-90589.12,-104057.5,-375000,-375000,-195225.2,-122967.1,0.03,0.00,0.89,-4,0,-2,40,0
'[14:14:02.772 20/01/2026]',-110488.8,-161814.1,-90971.87,-104039,-375000,-375000,-193023.8,-123344.5,0.03,-0.02,0.88,-4,0,-2,40,0
'[14:14:02.776 20/01/2026]',-110938,-162280,-91353.41,-104461.5,-375000,-375000,-192236.7,-123771.9,0.03,-0.02,0.88,-4,0,-2,40,0
'[14:14:02.780 20/01/2026]',-110581.5,-161846.8,-90930.73,-104546.3,-375000,-375000,-194780.7,-123373.1,0.03,-0.02,0.88,-4,0,-2,40,0
'[14:14:02.784 20/01/2026]',-110235.3,-161514.7,-90611.69,-104159.8,-375000,-375000,-195419.1,-123020.9,0.03,-0.02,0.88,-4,0,-2,40,0
'[14:14:02.788 20/01/2026]',-110508,-161874.7,-90911.34,-104067,-375000,-375000,-193482.8,-123293.2,0.03,-0.02,0.88,-4,0,-2,40,0
'[14:14:02.792 20/01/2026]',-110988.8,-162405.9,-91367.8,-104437.1,-375000,-375000,-192107.9,-123809.8,0.03,-0.02,0.88,-4,0,-2,40,0
'[14:14:02.796 20/01/2026]',-110765.5,-162116.8,-91085.32,-104671.7,-375000,-375000,-194440.7,-123571.3,0.03,-0.02,0.88,-4,0,-2,40,0
'[14:14:02.800 20/01/2026]',-110343.9,-161714.9,-90655.14,-104291.9,-375000,-375000,-195602.2,-123087,0.03,-0.02,0.88,-4,0,-2,40,0
'[14:14:02.804 20/01/2026]',-110490.8,-161943.9,-90833.42,-104097.4,-375000,-375000,-193897.5,-123219.3,0.03,-0.02,0.88,-4,0,-2,40,0
'[14:14:02.808 20/01/2026]',-110980.5,-162497.9,-91331.73,-104385.7,-375000,-375000,-192038.5,-123739.4,0.05,0.00,0.88,-4,0,-2,40,0
'[14:14:02.812 20/01/2026]',-110885.4,-162353.5,-91166.33,-104719.7,-375000,-375000,-193959.6,-123630.9,0.05,0.00,0.88,-4,0,-2,40,0
'[14:14:02.816 20/01/2026]',-110404.1,-161871.5,-90705.12,-104399.9,-375000,-375000,-195710.3,-123126.3,0.05,0.00,0.88,-4,0,-2,40,0
'[14:14:02.820 20/01/2026]',-110457.5,-162000.1,-90808.92,-104143.8,-375000,-375000,-194340.2,-123203.1,0.05,0.00,0.88,-4,0,-2,40,0
'[14:14:02.824 20/01/2026]',-110930.9,-162554.4,-91303.52,-104364.9,-375000,-375000,-192209,-123748.1,0.05,0.00,0.88,-4,0,-2,40,0
'[14:14:02.828 20/01/2026]',-110945.8,-162523.1,-91266.05,-104746.9,-375000,-375000,-193488.7,-123745.7,0.05,0.00,0.88,-4,0,-2,40,0
'[14:14:02.832 20/01/2026]',-110424.1,-161958.6,-90745.3,-104484.5,-375000,-375000,-195617.6,-123197.6,0.05,0.00,0.88,-4,0,-2,40,0
'[14:14:02.836 20/01/2026]',-110369.1,-161951.7,-90735.61,-104163.2,-375000,-375000,-194691.6,-123153.5,0.05,0.00,0.88,-4,0,-2,40,0
'[14:14:02.840 20/01/2026]',-110822.9,-162454.4,-91209.95,-104289.9,-375000,-375000,-192439.7,-123622.1,0.05,0.00,0.88,-4,0,-2,40,0
'[14:14:02.844 20/01/2026]',-111003.9,-162602.6,-91344.11,-104730,-375000,-375000,-193090.7,-123847.4,0.02,-0.02,0.88,-4,0,-2,40,0
'[14:14:02.848 20/01/2026]',-110497.3,-162032.3,-90815.89,-104568.1,-375000,-375000,-195516.1,-123325.7,0.02,-0.02,0.88,-4,0,-2,40,0
'[14:14:02.852 20/01/2026]',-110328.7,-161894.6,-90677.54,-104195.1,-375000,-375000,-195041.5,-123144.1,0.02,-0.02,0.88,-4,0,-2,40,0
'[14:14:02.856 20/01/2026]',-110712.7,-162350.1,-91119.92,-104239.2,-375000,-375000,-192765.4,-123554.5,0.02,-0.02,0.88,-4,0,-2,40,0
'[14:14:02.860 20/01/2026]',-110998.6,-162618.7,-91388.37,-104662.1,-375000,-375000,-192650.5,-123890.1,0.02,-0.02,0.88,-4,0,-2,40,0
'[14:14:02.864 20/01/2026]',-110559.3,-162092.6,-90900.7,-104623.8,-375000,-375000,-195214.9,-123377.1,0.02,-0.02,0.88,-4,0,-2,40,0
'[14:14:02.868 20/01/2026]',-110299.2,-161853,-90677.9,-104234.5,-375000,-375000,-195309.1,-123112.1,0.02,-0.02,0.88,-4,0,-2,40,0
'[14:14:02.872 20/01/2026]',-110622.6,-162238.8,-91041.65,-104199.9,-375000,-375000,-193160.6,-123461.1,0.02,-0.02,0.88,-4,0,-2,40,0
'[14:14:02.876 20/01/2026]',-111002.6,-162628.6,-91385.41,-104599.7,-375000,-375000,-192392.9,-123883.4,0.02,-0.02,0.88,-4,0,-2,40,0
'[14:14:02.880 20/01/2026]',-110643.5,-162181.6,-90966.77,-104687.2,-375000,-375000,-194916.9,-123493.1,0.05,-0.02,0.89,-4,0,-2,40,0
'[14:14:02.884 20/01/2026]',-110276.4,-161819.6,-90618.08,-104268.8,-375000,-375000,-195520.1,-123094.1,0.05,-0.02,0.89,-4,0,-2,40,0
'[14:14:02.888 20/01/2026]',-110514,-162116.3,-90895.73,-104144.5,-375000,-375000,-193546.4,-123362.7,0.05,-0.02,0.89,-4,0,-2,40,0
'[14:14:02.892 20/01/2026]',-110966.6,-162592.9,-91331.73,-104499.7,-375000,-375000,-192199.1,-123855.1,0.05,-0.02,0.89,-4,0,-2,40,0
'[14:14:02.896 20/01/2026]',-110731.5,-162274.2,-91038.96,-104712.5,-375000,-375000,-194472.4,-123605.7,0.05,-0.02,0.89,-4,0,-2,40,0
'[14:14:02.900 20/01/2026]',-110311.3,-161846.9,-90633.82,-104345.7,-375000,-375000,-195651,-123175.6,0.05,-0.02,0.89,-4,0,-2,40,0
'[14:14:02.904 20/01/2026]',-110452.4,-162044,-90815.72,-104149.5,-375000,-375000,-193980.5,-123306.8,0.05,-0.02,0.89,-4,0,-2,40,0
'[14:14:02.908 20/01/2026]',-110929.9,-162566.5,-91298.87,-104437.4,-375000,-375000,-192202.6,-123809,0.05,-0.02,0.89,-4,0,-2,40,0
'[14:14:02.912 20/01/2026]',-110819.1,-162389.4,-91125.2,-104738.8,-375000,-375000,-193984,-123676.4,0.05,-0.02,0.89,-4,0,-2,40,0
'[14:14:02.916 20/01/2026]',-110337,-161869.7,-90650.85,-104409.1,-375000,-375000,-195667.8,-123158.8,0.03,0.00,0.88,-4,0,-2,40,0
'[14:14:02.920 20/01/2026]',-110390.3,-161970.6,-90750.09,-104150.5,-375000,-375000,-194350.6,-123251.8,0.03,0.00,0.88,-4,0,-2,40,0
'[14:14:02.924 20/01/2026]',-110846.6,-162480.5,-91213.09,-104337.1,-375000,-375000,-192246,-123727.8,0.03,0.00,0.88,-4,0,-2,40,0
'[14:14:02.928 20/01/2026]',-110884.6,-162457.4,-91177.5,-104719.4,-375000,-375000,-193487.8,-123745.3,0.03,0.00,0.88,-4,0,-2,40,0
'[14:14:02.932 20/01/2026]',-110367.8,-161884.1,-90665.06,-104459.4,-375000,-375000,-195587.4,-123210.3,0.03,0.00,0.88,-4,0,-2,40,0
'[14:14:02.936 20/01/2026]',-110321,-161876.1,-90666.09,-104141.5,-375000,-375000,-194697.6,-123165.1,0.03,0.00,0.88,-4,0,-2,40,0
'[14:14:02.940 20/01/2026]',-110758.4,-162383,-91119.03,-104261.2,-375000,-375000,-192451.4,-123641,0.03,0.00,0.88,-4,0,-2,40,0
'[14:14:02.944 20/01/2026]',-110947,-162532.1,-91256.18,-104694.6,-375000,-375000,-193024.4,-123862.9,0.03,0.00,0.88,-4,0,-2,40,0
'[14:14:02.948 20/01/2026]',-110446.9,-161963.2,-90730.73,-104531.9,-375000,-375000,-195393.3,-123271.6,0.03,0.00,0.88,-4,0,-2,40,0
'[14:14:02.952 20/01/2026]',-110286.1,-161836,-90606.46,-104173.3,-375000,-375000,-195017.1,-123102.9,0.03,-0.02,0.88,-4,0,-2,40,0
'[14:14:02.956 20/01/2026]',-110695.6,-162309.5,-91044.95,-104229.3,-375000,-375000,-192809.3,-123569.1,0.03,-0.02,0.88,-4,0,-2,40,0
'[14:14:02.960 20/01/2026]',-110992.5,-162585,-91303.16,-104649.1,-375000,-375000,-192665.1,-123880.7,0.03,-0.02,0.88,-4,0,-2,40,0
'[14:14:02.964 20/01/2026]',-110554,-162070.8,-90833.38,-104618.3,-375000,-375000,-195203.9,-123408.4,0.03,-0.02,0.88,-4,0,-2,40,0
'[14:14:02.968 20/01/2026]',-110299.6,-161836.3,-90620.77,-104227.1,-375000,-375000,-195265.5,-123134.1,0.03,-0.02,0.88,-4,0,-2,40,0
'[14:14:02.972 20/01/2026]',-110617.2,-162220.6,-90968.69,-104192.6,-375000,-375000,-193138.9,-123498.8,0.03,-0.02,0.88,-4,0,-2,40,0
'[14:14:02.976 20/01/2026]',-110997.4,-162605.8,-91320.73,-104583.3,-375000,-375000,-192345.4,-123875.9,0.03,-0.02,0.88,-4,0,-2,40,0
'[14:14:02.980 20/01/2026]',-110625.8,-162153.9,-90895.02,-104664.6,-375000,-375000,-194844.3,-123469.4,0.03,-0.02,0.88,-4,0,-2,40,0
'[14:14:02.984 20/01/2026]',-110276,-161800.8,-90562.02,-104266.1,-375000,-375000,-195493.1,-123112.3,0.03,-0.02,0.88,-4,0,-2,40,0
'[14:14:02.988 20/01/2026]',-110510.6,-162095.4,-90827.92,-104143.4,-375000,-375000,-193574.2,-123365,0.03,-0.03,0.89,-4,0,-2,40,0
'[14:14:02.992 20/01/2026]',-110964.1,-162584.8,-91283.36,-104497,-375000,-375000,-192232.2,-123845.8,0.03,-0.03,0.89,-4,0,-2,40,0
'[14:14:02.996 20/01/2026]',-110723.8,-162258.6,-90998.77,-104700.4,-375000,-375000,-194430,-123585.1,0.03,-0.03,0.89,-4,0,-2,40,0
'[14:14:03.000 20/01/2026]',-110295.2,-161811.7,-90600.11,-104326,-375000,-375000,-195591,-123146.3,0.03,-0.03,0.89,-4,0,-2,40,0
'[14:14:03.004 20/01/2026]',-110440.2,-162010.6,-90782.99,-104132.5,-375000,-375000,-193962.5,-123308.5,0.03,-0.03,0.89,-4,0,-2,40,0
'[14:14:03.008 20/01/2026]',-110917.4,-162531,-91253.09,-104410.8,-375000,-375000,-192167.6,-123816.6,0.03,-0.03,0.89,-4,0,-2,40,0
'[14:14:03.012 20/01/2026]',-110817.8,-162355.1,-91084.52,-104719.7,-375000,-375000,-193953.3,-123694.2,0.03,-0.03,0.89,-4,0,-2,40,0
'[14:14:03.016 20/01/2026]',-110330.9,-161830.8,-90588.4,-104393.6,-375000,-375000,-195692.2,-123167,0.03,-0.03,0.89,-4,0,-2,40,0
'[14:14:03.020 20/01/2026]',-110373.2,-161925.6,-90679.19,-104125,-375000,-375000,-194389.5,-123208.9,0.03,-0.03,0.89,-4,0,-2,40,0
'[14:14:03.024 20/01/2026]',-110853,-162459.7,-91184.84,-104328.1,-375000,-375000,-192258.9,-123722,0.03,-0.02,0.88,-4,0,-2,40,0
'[14:14:03.028 20/01/2026]',-110906.9,-162459.5,-91180.63,-104725.7,-375000,-375000,-193456.6,-123773.4,0.03,-0.02,0.88,-4,0,-2,40,0
'[14:14:03.032 20/01/2026]',-110420.9,-161928.2,-90692.29,-104509.7,-375000,-375000,-195644,-123309,0.03,-0.02,0.88,-4,0,-2,40,0
'[14:14:03.036 20/01/2026]',-110346.9,-161894.2,-90657.15,-104165.1,-375000,-375000,-194757.3,-123204.4,0.03,-0.02,0.88,-4,0,-2,40,0
'[14:14:03.040 20/01/2026]',-110769.7,-162379.9,-91098.95,-104263.9,-375000,-375000,-192487.8,-123614,0.03,-0.02,0.88,-4,0,-2,40,0
'[14:14:03.044 20/01/2026]',-110956.6,-162520.9,-91221.31,-104686.7,-375000,-375000,-193022,-123815.6,0.03,-0.02,0.88,-4,0,-2,40,0
'[14:14:03.048 20/01/2026]',-110460.1,-161958.6,-90700.25,-104538.9,-375000,-375000,-195458.6,-123287.9,0.03,-0.02,0.88,-4,0,-2,40,0
'[14:14:03.052 20/01/2026]',-110293.4,-161826.2,-90579.63,-104169.7,-375000,-375000,-195033.8,-123130.5,0.03,-0.02,0.88,-4,0,-2,40,0
'[14:14:03.056 20/01/2026]',-110686.8,-162278.3,-91001.86,-104210.7,-375000,-375000,-192785.2,-123554,0.03,-0.02,0.88,-4,0,-2,40,0
'[14:14:03.060 20/01/2026]',-110987,-162556.5,-91260.47,-104637.5,-375000,-375000,-192630.1,-123883.1,0.03,-0.02,0.89,-4,0,-2,40,0
'[14:14:03.064 20/01/2026]',-110558.5,-162051.7,-90792.78,-104621.5,-375000,-375000,-195209.7,-123444.5,0.03,-0.02,0.89,-4,0,-2,40,0
'[14:14:03.068 20/01/2026]',-110286.9,-161797.6,-90552.45,-104216.4,-375000,-375000,-195306.2,-123104.4,0.03,-0.02,0.89,-4,0,-2,40,0
'[14:14:03.072 20/01/2026]',-110598.7,-162184.6,-90908.16,-104176.6,-375000,-375000,-193189.1,-123443.5,0.03,-0.02,0.89,-4,0,-2,40,0
'[14:14:03.076 20/01/2026]',-110992.4,-162585,-91279.83,-104577.7,-375000,-375000,-192374.8,-123882.4,0.03,-0.02,0.89,-4,0,-2,40,0
'[14:14:03.080 20/01/2026]',-110639.2,-162134.7,-90870.74,-104671.9,-375000,-375000,-194870.7,-123477.2,0.03,-0.02,0.89,-4,0,-2,40,0
'[14:14:03.084 20/01/2026]',-110280.6,-161771,-90549.2,-104269,-375000,-375000,-195543,-123108.2,0.03,-0.02,0.89,-4,0,-2,40,0
'[14:14:03.088 20/01/2026]',-110506,-162062.1,-90807.49,-104137.7,-375000,-375000,-193622.3,-123358,0.03,-0.02,0.89,-4,0,-2,40,0
'[14:14:03.092 20/01/2026]',-110961.8,-162553.1,-91257.66,-104485.9,-375000,-375000,-192193.7,-123864.7,0.03,-0.02,0.89,-4,0,-2,40,0
'[14:14:03.096 20/01/2026]',-110732.4,-162240.5,-90973.66,-104706.9,-375000,-375000,-194420.5,-123644.8,0.03,0.00,0.88,-4,0,-2,40,0
'[14:14:03.100 20/01/2026]',-110297.5,-161787.2,-90552.55,-104324.5,-375000,-375000,-195620,-123149.3,0.03,0.00,0.88,-4,0,-2,40,0
'[14:14:03.104 20/01/2026]',-110426.7,-161974.5,-90715.49,-104118.4,-375000,-375000,-193990.9,-123278.8,0.03,0.00,0.88,-4,0,-2,40,0
'[14:14:03.108 20/01/2026]',-110906.3,-162503.6,-91206.6,-104394,-375000,-375000,-192150.1,-123822.4,0.03,0.00,0.88,-4,0,-2,40,0
'[14:14:03.112 20/01/2026]',-110819.2,-162327.1,-91063.1,-104714.3,-375000,-375000,-193942,-123702.1,0.03,0.00,0.88,-4,0,-2,40,0
'[14:14:03.116 20/01/2026]',-110335.9,-161796.8,-90594.21,-104389.7,-375000,-375000,-195699.5,-123174.8,0.03,0.00,0.88,-4,0,-2,40,0
'[14:14:03.120 20/01/2026]',-110369.7,-161891.8,-90696.31,-104121.2,-375000,-375000,-194414.3,-123203.2,0.03,0.00,0.88,-4,0,-2,40,0
'[14:14:03.124 20/01/2026]',-110842.5,-162433.6,-91197.66,-104324.5,-375000,-375000,-192293,-123771.5,0.03,0.00,0.88,-4,0,-2,40,0
'[14:14:03.128 20/01/2026]',-110888.3,-162413.8,-91187.11,-104699.1,-375000,-375000,-193456.9,-123785.3,0.03,0.00,0.88,-4,0,-2,40,0
'[14:14:03.132 20/01/2026]',-110374.7,-161836.3,-90680.35,-104439.4,-375000,-375000,-195602.8,-123200.7,0.03,-0.02,0.89,-4,0,-2,40,0
'[14:14:03.136 20/01/2026]',-110313.9,-161820.3,-90673.11,-104120.9,-375000,-375000,-194738.7,-123144.9,0.03,-0.02,0.89,-4,0,-2,40,0
'[14:14:03.140 20/01/2026]',-110756.3,-162332.9,-91151.13,-104242.9,-375000,-375000,-192480.6,-123625.7,0.03,-0.02,0.89,-4,0,-2,40,0
'[14:14:03.144 20/01/2026]',-110956.2,-162497.8,-91306.25,-104673.8,-375000,-375000,-192978.1,-123845.1,0.03,-0.02,0.89,-4,0,-2,40,0
'[14:14:03.148 20/01/2026]',-110473.2,-161942.8,-90816.16,-104553,-375000,-375000,-195457.2,-123365.2,0.03,-0.02,0.89,-4,0,-2,40,0
'[14:14:03.152 20/01/2026]',-110289.1,-161787.2,-90661.13,-104175.8,-375000,-375000,-195115.3,-123137.7,0.03,-0.02,0.89,-4,0,-2,40,0
'[14:14:03.156 20/01/2026]',-110671.3,-162242.3,-91078.75,-104199,-375000,-375000,-192847.8,-123551.7,0.03,-0.02,0.89,-4,0,-2,40,0
'[14:14:03.160 20/01/2026]',-110982.4,-162536.8,-91346.26,-104623.7,-375000,-375000,-192592.1,-123894.4,0.03,-0.02,0.89,-4,0,-2,40,0
'[14:14:03.164 20/01/2026]',-110540.2,-162001.3,-90849.06,-104601.2,-375000,-375000,-195225.4,-123377.9,0.03,-0.02,0.89,-4,0,-2,40,0
'[14:14:03.168 20/01/2026]',-110269.9,-161747.2,-90624.43,-104194.1,-375000,-375000,-195321.7,-123069.8,0.03,-0.02,0.88,-4,0,-2,40,0
'[14:14:03.172 20/01/2026]',-110588.8,-162137.4,-90987.96,-104160.6,-375000,-375000,-193199.1,-123434.1,0.03,-0.02,0.88,-4,0,-2,40,0
'[14:14:03.176 20/01/2026]',-111000,-162552.7,-91375.8,-104565.8,-375000,-375000,-192340,-123880.2,0.03,-0.02,0.88,-4,0,-2,40,0
'[14:14:03.180 20/01/2026]',-110651,-162112.8,-90963.46,-104664.3,-375000,-375000,-194845.2,-123490.8,0.03,-0.02,0.88,-4,0,-2,40,0
'[14:14:03.184 20/01/2026]',-110275.4,-161745.1,-90616.3,-104254.9,-375000,-375000,-195534,-123118.7,0.03,-0.02,0.88,-4,0,-2,40,0
'[14:14:03.188 20/01/2026]',-110520.7,-162059,-90913.21,-104145.8,-375000,-375000,-193631.5,-123385.9,0.03,-0.02,0.88,-4,0,-2,40,0
'[14:14:03.192 20/01/2026]',-110989.6,-162554.9,-91373.13,-104505.3,-375000,-375000,-192228.9,-123906.9,0.03,-0.02,0.88,-4,0,-2,40,0
'[14:14:03.196 20/01/2026]',-110756.5,-162243.7,-91076.29,-104724,-375000,-375000,-194460.8,-123703.8,0.03,-0.02,0.88,-4,0,-2,40,0
'[14:14:03.200 20/01/2026]',-110309.7,-161762.2,-90634.63,-104312.7,-375000,-375000,-195635.5,-123106.1,0.03,-0.02,0.88,-4,0,-2,40,0
'[14:14:03.204 20/01/2026]',-110429.8,-161951.1,-90796,-104112.3,-375000,-375000,-194044,-123234.9,0.03,-0.02,0.88,-4,0,-2,40,0
'[14:14:03.208 20/01/2026]',-110905.9,-162479.1,-91277.28,-104382.6,-375000,-375000,-192200.3,-123780.4,0.03,-0.02,0.88,-4,0,-2,40,0
'[14:14:03.212 20/01/2026]',-110826.7,-162318.7,-91143.3,-104706.8,-375000,-375000,-193944.4,-123705.9,0.03,-0.02,0.88,-4,0,-2,40,0
'[14:14:03.216 20/01/2026]',-110346.9,-161806.5,-90679.33,-104393.1,-375000,-375000,-195677.8,-123218,0.03,-0.02,0.88,-4,0,-2,40,0
'[14:14:03.220 20/01/2026]',-110365.4,-161876.5,-90735.48,-104106.5,-375000,-375000,-194394.8,-123191.7,0.03,-0.02,0.88,-4,0,-2,40,0
'[14:14:03.224 20/01/2026]',-110835.1,-162394.7,-91224.48,-104298.3,-375000,-375000,-192269.4,-123679,0.03,-0.02,0.88,-4,0,-2,40,0
'[14:14:03.228 20/01/2026]',-110912.3,-162401.3,-91247.1,-104705.1,-375000,-375000,-193450.2,-123765.3,0.03,-0.02,0.88,-4,0,-2,40,0
'[14:14:03.232 20/01/2026]',-110410.2,-161851.6,-90730.38,-104469.5,-375000,-375000,-195613.9,-123251.2,0.03,-0.02,0.88,-4,0,-2,40,0
'[14:14:03.236 20/01/2026]',-110339.9,-161829.1,-90692.11,-104142.3,-375000,-375000,-194757.8,-123195.9,0.03,-0.02,0.88,-4,0,-2,40,0
'[14:14:03.240 20/01/2026]',-110762.8,-162322.9,-91149.12,-104261,-375000,-375000,-192584.2,-123647.5,0.05,0.00,0.88,-4,0,-2,40,0
'[14:14:03.244 20/01/2026]',-110962.5,-162495.7,-91315.32,-104681.8,-375000,-375000,-193054.2,-123850.2,0.05,0.00,0.88,-4,0,-2,40,0
'[14:14:03.248 20/01/2026]',-110462.8,-161919.3,-90791.22,-104525.8,-375000,-375000,-195444,-123292.8,0.05,0.00,0.88,-4,0,-2,40,0
'[14:14:03.252 20/01/2026]',-110302.1,-161780.9,-90658.94,-104163.3,-375000,-375000,-195060.3,-123145.5,0.05,0.00,0.88,-4,0,-2,40,0
'[14:14:03.256 20/01/2026]',-110695.6,-162243.6,-91092.43,-104218.9,-375000,-375000,-192882.5,-123595.4,0.05,0.00,0.88,-4,0,-2,40,0
'[14:14:03.260 20/01/2026]',-111001.4,-162530.1,-91352.34,-104634.7,-375000,-375000,-192681.2,-123898.5,0.05,0.00,0.88,-4,0,-2,40,0
'[14:14:03.264 20/01/2026]',-110566.4,-162008.4,-90883.4,-104610.9,-375000,-375000,-195217.8,-123411.7,0.05,0.00,0.88,-4,0,-2,40,0
'[14:14:03.268 20/01/2026]',-110278.9,-161746,-90633.95,-104200.9,-375000,-375000,-195349,-123121.8,0.05,0.00,0.88,-4,0,-2,40,0
'[14:14:03.272 20/01/2026]',-110583.3,-162116.3,-90977.37,-104148.6,-375000,-375000,-193233.3,-123466.6,0.05,0.00,0.88,-4,0,-2,40,0
'[14:14:03.276 20/01/2026]',-110986.7,-162526,-91353.19,-104551.5,-375000,-375000,-192402.3,-123886.9,0.03,0.00,0.89,-4,0,-2,40,0
'[14:14:03.280 20/01/2026]',-110660.1,-162103,-90969.09,-104663.3,-375000,-375000,-194861.1,-123527.1,0.03,0.00,0.89,-4,0,-2,40,0
'[14:14:03.284 20/01/2026]',-110304.6,-161737.6,-90633.23,-104264.4,-375000,-375000,-195547.3,-123150.2,0.03,0.00,0.89,-4,0,-2,40,0
'[14:14:03.288 20/01/2026]',-110537,-162041.6,-90910.35,-104153.5,-375000,-375000,-193668.1,-123446.7,0.03,0.00,0.89,-4,0,-2,40,0
'[14:14:03.292 20/01/2026]',-110985.6,-162523.6,-91343.13,-104488.9,-375000,-375000,-192263.7,-123881.5,0.03,0.00,0.89,-4,0,-2,40,0
'[14:14:03.296 20/01/2026]',-110745.3,-162198.6,-91055.82,-104687.4,-375000,-375000,-194402.2,-123576.4,0.03,0.00,0.89,-4,0,-2,40,0
'[14:14:03.300 20/01/2026]',-110295.3,-161736,-90633.1,-104291.6,-375000,-375000,-195561.4,-123118.4,0.03,0.00,0.89,-4,0,-2,40,0
'[14:14:03.304 20/01/2026]',-110430.4,-161926.5,-90801.86,-104107.1,-375000,-375000,-194011.2,-123284.2,0.03,0.00,0.89,-4,0,-2,40,0
'[14:14:03.308 20/01/2026]',-110924.6,-162461.5,-91301.42,-104398,-375000,-375000,-192240.5,-123826.3,0.03,0.00,0.89,-4,0,-2,40,0
'[14:14:03.312 20/01/2026]',-110858.2,-162322.4,-91174.38,-104734.5,-375000,-375000,-193989.2,-123741.8,0.03,0.00,0.89,-4,0,-2,40,0
'[14:14:03.316 20/01/2026]',-110363,-161793.5,-90681.34,-104400.7,-375000,-375000,-195689.8,-123211.8,0.03,0.00,0.89,-4,0,-2,40,0
'[14:14:03.320 20/01/2026]',-110381.7,-161869.2,-90735.52,-104131.7,-375000,-375000,-194463.5,-123269.5,0.03,0.00,0.89,-4,0,-2,40,0
'[14:14:03.324 20/01/2026]',-110847.4,-162393,-91221.8,-104318,-375000,-375000,-192360.9,-123733.1,0.03,0.00,0.89,-4,0,-2,40,0
'[14:14:03.328 20/01/2026]',-110912.6,-162398.7,-91233.96,-104699,-375000,-375000,-193460.5,-123791.2,0.03,0.00,0.89,-4,0,-2,40,0
'[14:14:03.332 20/01/2026]',-110414.9,-161838.8,-90727.7,-104463.1,-375000,-375000,-195583.6,-123230.6,0.03,0.00,0.89,-4,0,-2,40,0
'[14:14:03.336 20/01/2026]',-110336.1,-161806.6,-90683.98,-104139.6,-375000,-375000,-194769.2,-123173.9,0.03,0.00,0.89,-4,0,-2,40,0
'[14:14:03.340 20/01/2026]',-110774.1,-162301.3,-91142.32,-104256.9,-375000,-375000,-192573.7,-123652.1,0.03,0.00,0.89,-4,0,-2,40,0
'[14:14:03.344 20/01/2026]',-110991,-162480,-91332.71,-104700.8,-375000,-375000,-193044.8,-123926.2,0.03,0.00,0.89,-4,0,-2,40,0
'[14:14:03.348 20/01/2026]',-110499.2,-161924.3,-90815,-104562.7,-375000,-375000,-195439.7,-123378.9,0.03,0.00,0.88,-4,0,-2,40,0
'[14:14:03.352 20/01/2026]',-110297.2,-161756.8,-90644.63,-104173.3,-375000,-375000,-195099.6,-123123.6,0.03,0.00,0.88,-4,0,-2,40,0
'[14:14:03.356 20/01/2026]',-110678.3,-162201.3,-91050.37,-104198.6,-375000,-375000,-192888.7,-123543.7,0.03,0.00,0.88,-4,0,-2,40,0
'[14:14:03.360 20/01/2026]',-110992.8,-162492.6,-91321.31,-104615.1,-375000,-375000,-192638.2,-123864.5,0.03,0.00,0.88,-4,0,-2,40,0
'[14:14:03.364 20/01/2026]',-110558.1,-161979,-90858.63,-104604.3,-375000,-375000,-195145,-123412.5,0.03,0.00,0.88,-4,0,-2,40,0
'[14:14:03.368 20/01/2026]',-110290.7,-161732.2,-90637.53,-104218.3,-375000,-375000,-195324.1,-123142.9,0.03,0.00,0.88,-4,0,-2,40,0
'[14:14:03.372 20/01/2026]',-110602.8,-162105.4,-90985.37,-104166.3,-375000,-375000,-193233.5,-123484.8,0.03,0.00,0.88,-4,0,-2,40,0
'[14:14:03.376 20/01/2026]',-110999,-162512.6,-91359.22,-104561.3,-375000,-375000,-192384.5,-123901.1,0.03,0.00,0.88,-4,0,-2,40,0
'[14:14:03.380 20/01/2026]',-110657.7,-162092.5,-90956.84,-104665.2,-375000,-375000,-194817.5,-123521.2,0.03,0.00,0.88,-4,0,-2,40,0
'[14:14:03.384 20/01/2026]',-110294.9,-161739.9,-90620.77,-104269.8,-375000,-375000,-195513.4,-123158.1,0.03,-0.02,0.89,-4,0,-2,40,0
'[14:14:03.388 20/01/2026]',-110514.2,-162015.2,-90892.07,-104137.8,-375000,-375000,-193637.2,-123416.6,0.03,-0.02,0.89,-4,0,-2,40,0
'[14:14:03.392 20/01/2026]',-110973.1,-162502.3,-91345.05,-104484.2,-375000,-375000,-192259.9,-123873,0.03,-0.02,0.89,-4,0,-2,40,0
'[14:14:03.396 20/01/2026]',-110766.6,-162206.1,-91076.6,-104709.8,-375000,-375000,-194395.7,-123597.1,0.03,-0.02,0.89,-4,0,-2,40,0
'[14:14:03.400 20/01/2026]',-110326.2,-161746.1,-90653.27,-104335.4,-375000,-375000,-195619.9,-123151,0.03,-0.02,0.89,-4,0,-2,40,0
'[14:14:03.404 20/01/2026]',-110441.1,-161931.4,-90811.96,-104130.9,-375000,-375000,-194044.7,-123301.3,0.03,-0.02,0.89,-4,0,-2,40,0
'[14:14:03.408 20/01/2026]',-110920.8,-162455.3,-91294.13,-104409.8,-375000,-375000,-192266.3,-123830.9,0.03,-0.02,0.89,-4,0,-2,40,0
'[14:14:03.412 20/01/2026]',-110864.2,-162314.4,-91170.08,-104741.7,-375000,-375000,-193967.3,-123770.8,0.03,-0.02,0.89,-4,0,-2,40,0
'[14:14:03.416 20/01/2026]',-110373.2,-161788.7,-90680.45,-104413.4,-375000,-375000,-195657.5,-123241,0.03,-0.02,0.89,-4,0,-2,40,0
'[14:14:03.420 20/01/2026]',-110395.3,-161866.6,-90756.3,-104147.2,-375000,-375000,-194458,-123239.1,0.03,-0.02,0.88,-4,0,-2,40,0
'[14:14:03.424 20/01/2026]',-110861.3,-162394,-91236.15,-104335.6,-375000,-375000,-192388.4,-123747.4,0.03,-0.02,0.88,-4,0,-2,40,0
'[14:14:03.428 20/01/2026]',-110928,-162396.6,-91247.02,-104718,-375000,-375000,-193475.1,-123797.7,0.03,-0.02,0.88,-4,0,-2,40,0
'[14:14:03.432 20/01/2026]',-110418.8,-161829.7,-90722.55,-104473.2,-375000,-375000,-195571.9,-123260.6,0.03,-0.02,0.88,-4,0,-2,40,0
'[14:14:03.436 20/01/2026]',-110339.9,-161788,-90687.64,-104152.5,-375000,-375000,-194811.4,-123197.9,0.03,-0.02,0.88,-4,0,-2,40,0
'[14:14:03.440 20/01/2026]',-110763.6,-162271.9,-91144.11,-104249.5,-375000,-375000,-192602,-123648.5,0.03,-0.02,0.88,-4,0,-2,40,0
'[14:14:03.444 20/01/2026]',-110975.1,-162451.8,-91310.41,-104679.1,-375000,-375000,-193018.8,-123870.1,0.03,-0.02,0.88,-4,0,-2,40,0
'[14:14:03.448 20/01/2026]',-110496.3,-161904.9,-90805.66,-104558.8,-375000,-375000,-195430.6,-123354.6,0.03,-0.02,0.88,-4,0,-2,40,0
'[14:14:03.452 20/01/2026]',-110305.7,-161746.9,-90644.86,-104187,-375000,-375000,-195117.6,-123177.6,0.03,-0.02,0.88,-4,0,-2,40,0
'[14:14:03.456 20/01/2026]',-110688.3,-162195.9,-91053.67,-104217,-375000,-375000,-192951.9,-123589,0.03,0.00,0.89,-4,0,-2,40,0
'[14:14:03.460 20/01/2026]',-111004,-162501.3,-91344.65,-104632,-375000,-375000,-192683.8,-123892.4,0.03,0.00,0.89,-4,0,-2,40,0
'[14:14:03.464 20/01/2026]',-110572.8,-161983.5,-90873.3,-104608.9,-375000,-375000,-195147,-123432.2,0.03,0.00,0.89,-4,0,-2,40,0
'[14:14:03.468 20/01/2026]',-110298,-161716.1,-90633.55,-104218,-375000,-375000,-195321.2,-123134.5,0.03,0.00,0.89,-4,0,-2,40,0
'[14:14:03.472 20/01/2026]',-110601.2,-162090.5,-90974.41,-104182,-375000,-375000,-193341.4,-123468.9,0.03,0.00,0.89,-4,0,-2,40,0
'[14:14:03.476 20/01/2026]',-111025.6,-162519.7,-91374.06,-104580.8,-375000,-375000,-192447.8,-123920.2,0.03,0.00,0.89,-4,0,-2,40,0
'[14:14:03.480 20/01/2026]',-110689.7,-162097,-90979.73,-104683.1,-375000,-375000,-194804.1,-123561.8,0.03,0.00,0.89,-4,0,-2,40,0
'[14:14:03.484 20/01/2026]',-110307,-161720.7,-90617.14,-104275.8,-375000,-375000,-195498.7,-123169.5,0.03,0.00,0.89,-4,0,-2,40,0
'[14:14:03.488 20/01/2026]',-110508.8,-161996.1,-90865.29,-104141.3,-375000,-375000,-193673.8,-123387.2,0.03,0.00,0.89,-4,0,-2,40,0
'[14:14:03.492 20/01/2026]',-110969,-162479.2,-91325.78,-104487.7,-375000,-375000,-192328.7,-123851.8,0.03,-0.02,0.88,-4,0,-2,40,0
'[14:14:03.496 20/01/2026]',-110784.4,-162205.8,-91091.54,-104725.2,-375000,-375000,-194415.6,-123666.3,0.03,-0.02,0.88,-4,0,-2,40,0
'[14:14:03.500 20/01/2026]',-110337.3,-161739.3,-90665.06,-104352.4,-375000,-375000,-195641.1,-123197.7,0.03,-0.02,0.88,-4,0,-2,40,0
'[14:14:03.504 20/01/2026]',-110451.4,-161910,-90816.79,-104139.9,-375000,-375000,-194094.4,-123312.2,0.03,-0.02,0.88,-4,0,-2,40,0
'[14:14:03.508 20/01/2026]',-110936.2,-162444.4,-91298.87,-104417,-375000,-375000,-192297.5,-123804.1,0.03,-0.02,0.88,-4,0,-2,40,0
'[14:14:03.512 20/01/2026]',-110851.1,-162290,-91154.79,-104719.3,-375000,-375000,-193910,-123733,0.03,-0.02,0.88,-4,0,-2,40,0
'[14:14:03.516 20/01/2026]',-110369.1,-161762.4,-90686.16,-104411.1,-375000,-375000,-195632.4,-123216.1,0.03,-0.02,0.88,-4,0,-2,40,0
'[14:14:03.520 20/01/2026]',-110401.9,-161851.4,-90755.01,-104158.1,-375000,-375000,-194475.5,-123261.9,0.03,-0.02,0.88,-4,0,-2,40,0
'[14:14:03.524 20/01/2026]',-110869.7,-162378.1,-91246.7,-104345.7,-375000,-375000,-192411.8,-123787.7,0.03,-0.02,0.88,-4,0,-2,40,0
'[14:14:03.528 20/01/2026]',-110924.3,-162368.6,-91237.36,-104702.4,-375000,-375000,-193432.2,-123800.6,0.03,0.00,0.88,-4,0,-2,40,0
'[14:14:03.532 20/01/2026]',-110425.7,-161811.1,-90722.46,-104474.2,-375000,-375000,-195573.5,-123264.1,0.03,0.00,0.88,-4,0,-2,40,0
'[14:14:03.536 20/01/2026]',-110352.9,-161782.7,-90695.2,-104162.4,-375000,-375000,-194810.9,-123244.5,0.03,0.00,0.88,-4,0,-2,40,0
'[14:14:03.540 20/01/2026]',-110773.5,-162269.8,-91141.34,-104266.9,-375000,-375000,-192670.4,-123676.1,0.03,0.00,0.88,-4,0,-2,40,0
'[14:14:03.544 20/01/2026]',-110981.9,-162445.6,-91300.16,-104681.8,-375000,-375000,-193074.6,-123872.2,0.03,0.00,0.88,-4,0,-2,40,0
'[14:14:03.548 20/01/2026]',-110501.3,-161894,-90793.5,-104552.6,-375000,-375000,-195416.6,-123328.1,0.03,0.00,0.88,-4,0,-2,40,0
'[14:14:03.552 20/01/2026]',-110307.7,-161730.2,-90653.58,-104172.5,-375000,-375000,-195083.2,-123150.4,0.03,0.00,0.88,-4,0,-2,40,0
'[14:14:03.556 20/01/2026]',-110684.5,-162176.6,-91074.05,-104217.6,-375000,-375000,-192968.7,-123571.8,0.03,0.00,0.88,-4,0,-2,40,0
'[14:14:03.560 20/01/2026]',-111014.8,-162491.2,-91357.79,-104635.6,-375000,-375000,-192692.5,-123909.1,0.03,0.00,0.88,-4,0,-2,40,0
'[14:14:03.564 20/01/2026]',-110595.5,-161985.6,-90899.22,-104629.5,-375000,-375000,-195155.6,-123446.7,0.03,-0.02,0.88,-4,0,-2,40,0
'[14:14:03.568 20/01/2026]',-110305.7,-161713.7,-90644.91,-104233.3,-375000,-375000,-195363.9,-123157.3,0.03,-0.02,0.88,-4,0,-2,40,0
'[14:14:03.572 20/01/2026]',-110601.2,-162080.4,-90967.44,-104175.7,-375000,-375000,-193341.1,-123487.6,0.03,-0.02,0.88,-4,0,-2,40,0
'[14:14:03.576 20/01/2026]',-111027.5,-162514.9,-91369.28,-104588.1,-375000,-375000,-192476.7,-123978.4,0.03,-0.02,0.88,-4,0,-2,40,0
'[14:14:03.580 20/01/2026]',-110698.1,-162090.1,-90988.41,-104695.4,-375000,-375000,-194826,-123560.8,0.03,-0.02,0.88,-4,0,-2,40,0
'[14:14:03.584 20/01/2026]',-110309.8,-161710.6,-90616.61,-104284.7,-375000,-375000,-195533.9,-123133.9,0.03,-0.02,0.88,-4,0,-2,40,0
'[14:14:03.588 20/01/2026]',-110515.7,-161976.8,-90869.09,-104148.1,-375000,-375000,-193711.5,-123369.4,0.03,-0.02,0.88,-4,0,-2,40,0
'[14:14:03.592 20/01/2026]',-110977.9,-162467.3,-91310.98,-104496.5,-375000,-375000,-192332.2,-123880,0.03,-0.02,0.88,-4,0,-2,40,0
'[14:14:03.596 20/01/2026]',-110774.9,-162180.7,-91046.84,-104718.6,-375000,-375000,-194402.6,-123661.6,0.03,-0.02,0.88,-4,0,-2,40,0
'[14:14:03.600 20/01/2026]',-110331.3,-161720.7,-90619.42,-104352.6,-375000,-375000,-195649.8,-123207.5,0.03,0.00,0.89,-4,0,-2,40,0
'[14:14:03.604 20/01/2026]',-110449.1,-161892.8,-90774.63,-104141.1,-375000,-375000,-194115.1,-123340.7,0.03,0.00,0.89,-4,0,-2,40,0
'[14:14:03.608 20/01/2026]',-110916.7,-162406.2,-91260.96,-104399.5,-375000,-375000,-192306.9,-123801.7,0.03,0.00,0.89,-4,0,-2,40,0
'[14:14:03.612 20/01/2026]',-110855.1,-162265,-91135.93,-104719.7,-375000,-375000,-193918.8,-123741.2,0.03,0.00,0.89,-4,0,-2,40,0
'[14:14:03.616 20/01/2026]',-110358.4,-161729.8,-90628.81,-104396.4,-375000,-375000,-195628.2,-123213.1,0.03,0.00,0.89,-4,0,-2,40,0
'[14:14:03.620 20/01/2026]',-110369.4,-161793.3,-90671.41,-104123.6,-375000,-375000,-194466.7,-123216.4,0.03,0.00,0.89,-4,0,-2,40,0
'[14:14:03.624 20/01/2026]',-110848.6,-162337.9,-91184.56,-104338.2,-375000,-375000,-192451.3,-123766.3,0.03,0.00,0.89,-4,0,-2,40,0
'[14:14:03.628 20/01/2026]',-110943.1,-162377.2,-91222.47,-104730,-375000,-375000,-193480.9,-123847.7,0.03,0.00,0.89,-4,0,-2,40,0
'[14:14:03.632 20/01/2026]',-110443.9,-161814.2,-90711.69,-104494.7,-375000,-375000,-195565.7,-123297.6,0.03,0.00,0.89,-4,0,-2,40,0
'[14:14:03.636 20/01/2026]',-110354,-161769.8,-90646.78,-104175.7,-375000,-375000,-194874.7,-123243.9,0.03,0.00,0.88,-4,0,-2,40,0
'[14:14:03.640 20/01/2026]',-110777.9,-162264.9,-91098.42,-104282.2,-375000,-375000,-192723.5,-123723.7,0.03,0.00,0.88,-4,0,-2,40,0
'[14:14:03.644 20/01/2026]',-110988,-162434.7,-91266.51,-104683.4,-375000,-375000,-193038,-123850.1,0.03,0.00,0.88,-4,0,-2,40,0
