'Time and date','Fp1','Fp2','F3','Fz','F4','P3','Pz','P4','AccX','AccY','AccZ','GyroX','GyroY','GyroZ','Battery','Event'
'[hh:mm:ss.mmm dd/mm/yyyy]','uV','uV','uV','uV','uV','uV','uV','uV','G','G','G','Deg/s','Deg/s','Deg/s','%','Button'
'[12:41:00.000 20/01/2026]',-108514.6,-195804.7,-133163.1,-194401,-375000,-375000,-162347.5,-188080.6,0.05,0.00,0.88,-4,0,-2,54,0
'[12:41:00.004 20/01/2026]',-108514.1,-195808.6,-133148.4,-194359.2,-375000,-375000,-162314.5,-187985,0.05,0.00,0.88,-4,0,-2,54,0
'[12:41:00.008 20/01/2026]',-108561.6,-195793.2,-133125,-194200.9,-375000,-375000,-162273.5,-187812.1,0.05,0.00,0.88,-4,0,-2,54,0
'[12:41:00.012 20/01/2026]',-108556.3,-195781.7,-133103.2,-194263.9,-375000,-375000,-162298.9,-187886.7,0.05,0.00,0.88,-4,0,-2,54,0
'[12:41:00.016 20/01/2026]',-108491.7,-195746.6,-133081.1,-194406.1,-375000,-375000,-162315.3,-188040,0.05,0.00,0.88,-4,0,-2,54,0
'[12:41:00.020 20/01/2026]',-108460.9,-195722.2,-133076.6,-194422.5,-375000,-375000,-162283.1,-187982,0.05,0.00,0.88,-4,0,-2,54,0
'[12:41:00.024 20/01/2026]',-108435,-195758.8,-133088.1,-194298.9,-375000,-375000,-162248.5,-187823.3,0.05,0.00,0.88,-4,0,-2,54,0
'[12:41:00.028 20/01/2026]',-108434.2,-195755.7,-133053.8,-194302,-375000,-375000,-162249.1,-187814.1,0.05,0.00,0.88,-4,0,-2,54,0
'[12:41:00.032 20/01/2026]',-108396.4,-195701.6,-133021.2,-194433.9,-375000,-375000,-162281.1,-187973.7,0.05,0.00,0.88,-4,0,-2,54,0
'[12:41:00.036 20/01/2026]',-108367.4,-195656.6,-133038.6,-194465.9,-375000,-375000,-162266.9,-187933,0.05,0.00,0.88,-4,0,-2,54,0
'[12:41:00.040 20/01/2026]',-108440.9,-195709.4,-133030.6,-194342.2,-375000,-375000,-162241.6,-187792.7,0.05,0.00,0.88,-4,0,-2,54,0
'[12:41:00.044 20/01/2026]',-108440,-195703,-133006.5,-194335.2,-375000,-375000,-162231.1,-187752,0.05,0.00,0.88,-4,0,-2,54,0
'[12:41:00.048 20/01/2026]',-108363.2,-195644.4,-132972.9,-194431.3,-375000,-375000,-162253.3,-187901.8,0.05,0.00,0.88,-4,0,-2,54,0
'[12:41:00.052 20/01/2026]',-108292.4,-195606.1,-132969.8,-194497.2,-375000,-375000,-162236.4,-187910,0.05,0.00,0.88,-4,0,-2,54,0
'[12:41:00.056 20/01/2026]',-108316.3,-195614.3,-132994.5,-194378.3,-375000,-375000,-162214.3,-187764.3,0.05,0.00,0.88,-4,0,-2,54,0
'[12:41:00.060 20/01/2026]',-108336.5,-195651.3,-132986.1,-194335,-375000,-375000,-162200.6,-187682.3,0.05,0.00,0.88,-4,0,-2,54,0
'[12:41:00.064 20/01/2026]',-108323.9,-195639,-132939.5,-194465.9,-375000,-375000,-162235.5,-187839.2,0.05,0.00,0.88,-4,0,-2,54,0
'[12:41:00.068 20/01/2026]',-108277,-195592.2,-132915.6,-194585.5,-375000,-375000,-162225.7,-187889.5,0.05,0.00,0.88,-4,0,-2,54,0
'[12:41:00.072 20/01/2026]',-108233,-195584.6,-132956,-194489.4,-375000,-375000,-162197.5,-187748.1,0.05,0.00,0.88,-4,0,-2,54,0
'[12:41:00.076 20/01/2026]',-108239.7,-195580.9,-132976.2,-194347.9,-375000,-375000,-162161.5,-187596.7,0.05,0.00,0.88,-4,0,-2,54,0
'[12:41:00.080 20/01/2026]',-108251.8,-195581.2,-132931,-194505,-375000,-375000,-162191.5,-187774.3,0.05,0.00,0.88,-4,0,-2,54,0
'[12:41:00.084 20/01/2026]',-108276.8,-195561.6,-132874,-194653,-375000,-375000,-162189.9,-187861.1,0.05,0.00,0.88,-4,0,-2,54,0
'[12:41:00.088 20/01/2026]',-108279.9,-195563.5,-132874.5,-194581.3,-375000,-375000,-162162.2,-187737.8,0.05,0.00,0.88,-4,0,-2,54,0
'[12:41:00.092 20/01/2026]',-108253,-195558.3,-132900,-194445.9,-375000,-375000,-162142.5,-187590.9,0.05,0.00,0.88,-4,0,-2,54,0
'[12:41:00.096 20/01/2026]',-108225,-195522.3,-132875.3,-194507.6,-375000,-375000,-162167.8,-187694.8,0.05,0.00,0.88,-4,0,-2,54,0
'[12:41:00.100 20/01/2026]',-108166.8,-195487.1,-132835.8,-194644.6,-375000,-375000,-162156.6,-187794.8,0.05,0.00,0.88,-4,0,-2,54,0
'[12:41:00.104 20/01/2026]',-108169.8,-195474.5,-132841.6,-194623.6,-375000,-375000,-162138.5,-187720.6,0.05,0.00,0.88,-4,0,-2,54,0
'[12:41:00.108 20/01/2026]',-108205.1,-195516.2,-132900.4,-194516.5,-375000,-375000,-162145.9,-187593.2,0.03,0.00,0.89,-4,0,-2,54,0
'[12:41:00.112 20/01/2026]',-108212.2,-195588.7,-132961.8,-194651.1,-375000,-375000,-162224.1,-187717.6,0.03,0.00,0.89,-4,0,-2,54,0
'[12:41:00.116 20/01/2026]',-108312,-195653.6,-132997.7,-194842.6,-375000,-375000,-162331.4,-187935.5,0.03,0.00,0.89,-4,0,-2,54,0
'[12:41:00.120 20/01/2026]',-108434.7,-195711.1,-133038.6,-194888.2,-375000,-375000,-162377,-187953.3,0.03,0.00,0.89,-4,0,-2,54,0
'[12:41:00.124 20/01/2026]',-108476.8,-195773.6,-133091.2,-194767.7,-375000,-375000,-162377.2,-187804.8,0.03,0.00,0.89,-4,0,-2,54,0
'[12:41:00.128 20/01/2026]',-108442.9,-195787.1,-133115,-194790.3,-375000,-375000,-162413,-187838.5,0.03,0.00,0.89,-4,0,-2,54,0
'[12:41:00.132 20/01/2026]',-108461.8,-195787.9,-133130.2,-194974,-375000,-375000,-162472.5,-188036.5,0.03,0.00,0.89,-4,0,-2,54,0
'[12:41:00.136 20/01/2026]',-108470.5,-195811,-133154.7,-195049.5,-375000,-375000,-162480.7,-188046.6,0.03,0.00,0.89,-4,0,-2,54,0
'[12:41:00.140 20/01/2026]',-108524.7,-195855.5,-133209.9,-194935,-375000,-375000,-162490.5,-187928.5,0.03,0.00,0.89,-4,0,-2,54,0
'[12:41:00.144 20/01/2026]',-108547.7,-195857,-133180.9,-194899.7,-375000,-375000,-162482.6,-187902.8,0.05,-0.02,0.88,-4,0,-2,54,0
'[12:41:00.148 20/01/2026]',-108514.1,-195836.5,-133147.1,-195047.6,-375000,-375000,-162503.9,-188060.7,0.05,-0.02,0.88,-4,0,-2,54,0
'[12:41:00.152 20/01/2026]',-108506.9,-195847,-133171.4,-195152.9,-375000,-375000,-162523.5,-188104.9,0.05,-0.02,0.88,-4,0,-2,54,0
'[12:41:00.156 20/01/2026]',-108512,-195868.1,-133217.6,-195033.6,-375000,-375000,-162518.5,-187984.5,0.05,-0.02,0.88,-4,0,-2,54,0
'[12:41:00.160 20/01/2026]',-108451.1,-195789.8,-133146.7,-194896.3,-375000,-375000,-162433.7,-187846.9,0.05,-0.02,0.88,-4,0,-2,54,0
'[12:41:00.164 20/01/2026]',-108278.6,-195616.2,-132970.4,-194853.9,-375000,-375000,-162309.2,-187853.9,0.05,-0.02,0.88,-4,0,-2,54,0
'[12:41:00.168 20/01/2026]',-108122.6,-195470.7,-132827.5,-194865,-375000,-375000,-162154.1,-187770.8,0.05,-0.02,0.88,-4,0,-2,54,0
'[12:41:00.172 20/01/2026]',-108051.8,-195362.7,-132717.9,-194695,-375000,-375000,-162024.3,-187557.1,0.05,-0.02,0.88,-4,0,-2,54,0
'[12:41:00.176 20/01/2026]',-107932.2,-195246.5,-132574.2,-194446.1,-375000,-375000,-161865.5,-187293.3,0.05,-0.02,0.88,-4,0,-2,54,0
'[12:41:00.180 20/01/2026]',-107779.1,-195115.3,-132447.3,-194401.5,-375000,-375000,-161783.8,-187294.1,0.05,0.00,0.88,-4,0,-2,54,0
'[12:41:00.184 20/01/2026]',-107647.2,-194990.4,-132347.2,-194439.8,-375000,-375000,-161702,-187300,0.05,0.00,0.88,-4,0,-2,54,0
'[12:41:00.188 20/01/2026]',-107563.8,-194902.7,-132262.3,-194268.4,-375000,-375000,-161593.6,-187106.7,0.05,0.00,0.88,-4,0,-2,54,0
'[12:41:00.192 20/01/2026]',-107494.5,-194835.9,-132187.1,-194022.1,-375000,-375000,-161487.8,-186880.1,0.05,0.00,0.88,-4,0,-2,54,0
'[12:41:00.196 20/01/2026]',-107429.5,-194734.5,-132067.8,-193966.4,-375000,-375000,-161412.6,-186875.1,0.05,0.00,0.88,-4,0,-2,54,0
'[12:41:00.200 20/01/2026]',-107323.7,-194616.1,-131956.4,-194032.5,-375000,-375000,-161337.1,-186931.3,0.05,0.00,0.88,-4,0,-2,54,0
'[12:41:00.204 20/01/2026]',-107195,-194532.8,-131885.5,-193895.3,-375000,-375000,-161224.1,-186752.7,0.05,0.00,0.88,-4,0,-2,54,0
'[12:41:00.208 20/01/2026]',-107091.9,-194454,-131813.8,-193632.8,-375000,-375000,-161106.7,-186502.7,0.05,0.00,0.88,-4,0,-2,54,0
'[12:41:00.212 20/01/2026]',-107018.5,-194362.9,-131724.1,-193584.3,-375000,-375000,-161047.3,-186488.1,0.05,0.00,0.88,-4,0,-2,54,0
'[12:41:00.216 20/01/2026]',-106907,-194251.7,-131616.9,-193638.1,-375000,-375000,-160975.7,-186547,0.05,0.00,0.88,-4,0,-2,54,0
'[12:41:00.220 20/01/2026]',-106856.6,-194175.7,-131519,-193530.4,-375000,-375000,-160869.9,-186400.8,0.05,0.00,0.88,-4,0,-2,54,0
'[12:41:00.224 20/01/2026]',-106796.2,-194107.2,-131453.5,-193259.3,-375000,-375000,-160769.3,-186159.5,0.05,0.00,0.88,-4,0,-2,54,0
'[12:41:00.228 20/01/2026]',-106690,-194018.3,-131371.5,-193156.4,-375000,-375000,-160702.3,-186101.9,0.05,0.00,0.88,-4,0,-2,54,0
'[12:41:00.232 20/01/2026]',-106593,-193913.9,-131279,-193225.7,-375000,-375000,-160649.7,-186187.9,0.05,0.00,0.88,-4,0,-2,54,0
'[12:41:00.236 20/01/2026]',-106517.5,-193844.3,-131206.5,-193170.8,-375000,-375000,-160562.3,-186088.4,0.05,0.00,0.88,-4,0,-2,54,0
'[12:41:00.240 20/01/2026]',-106491.9,-193794.2,-131149,-192923.1,-375000,-375000,-160471.4,-185868.3,0.05,0.00,0.88,-4,0,-2,54,0
'[12:41:00.244 20/01/2026]',-106394.9,-193711.9,-131067.1,-192794.3,-375000,-375000,-160378.6,-185752,0.05,0.00,0.88,-4,0,-2,54,0
'[12:41:00.248 20/01/2026]',-106256.6,-193623.4,-130985.6,-192873.2,-375000,-375000,-160348.4,-185863.8,0.05,0.00,0.88,-4,0,-2,54,0
'[12:41:00.252 20/01/2026]',-106206.3,-193535.6,-130916.1,-192840.7,-375000,-375000,-160262.8,-185785.1,0.05,0.00,0.89,-4,0,-2,54,0
'[12:41:00.256 20/01/2026]',-106229.2,-193496.5,-130856.5,-192625,-375000,-375000,-160175.1,-185585.5,0.05,0.00,0.89,-4,0,-2,54,0
'[12:41:00.260 20/01/2026]',-106129,-193433.6,-130773.8,-192462.6,-375000,-375000,-160078.4,-185435.6,0.05,0.00,0.89,-4,0,-2,54,0
'[12:41:00.264 20/01/2026]',-106004.8,-193334.1,-130708,-192512.7,-375000,-375000,-160052.4,-185536.1,0.05,0.00,0.89,-4,0,-2,54,0
'[12:41:00.268 20/01/2026]',-105930.5,-193256.1,-130622.8,-192519.5,-375000,-375000,-159983.3,-185515.7,0.05,0.00,0.89,-4,0,-2,54,0
'[12:41:00.272 20/01/2026]',-105870.9,-193202.5,-130560.8,-192313.5,-375000,-375000,-159880.6,-185302.1,0.05,0.00,0.89,-4,0,-2,54,0
'[12:41:00.276 20/01/2026]',-105797.6,-193148.8,-130501.5,-192154.9,-375000,-375000,-159800.4,-185133.1,0.05,0.00,0.89,-4,0,-2,54,0
'[12:41:00.280 20/01/2026]',-105726.7,-193054.9,-130409.3,-192182.4,-375000,-375000,-159777.4,-185221.4,0.05,0.00,0.89,-4,0,-2,54,0
'[12:41:00.284 20/01/2026]',-105641.2,-192956.5,-130317.5,-192231.2,-375000,-375000,-159704.7,-185232.1,0.05,0.00,0.89,-4,0,-2,54,0
'[12:41:00.288 20/01/2026]',-105606.3,-192929.6,-130270.5,-192117.9,-375000,-375000,-159634.8,-185091.8,0.03,-0.02,0.89,-4,0,-2,54,0
'[12:41:00.292 20/01/2026]',-105548.7,-192900.8,-130232.5,-191925.3,-375000,-375000,-159555.2,-184900.4,0.03,-0.02,0.89,-4,0,-2,54,0
'[12:41:00.296 20/01/2026]',-105498.7,-192831.4,-130165.4,-191924.2,-375000,-375000,-159522.9,-184949.5,0.03,-0.02,0.89,-4,0,-2,54,0
'[12:41:00.300 20/01/2026]',-105423.5,-192749,-130083.2,-192009.6,-375000,-375000,-159465.9,-185000,0.03,-0.02,0.89,-4,0,-2,54,0
'[12:41:00.304 20/01/2026]',-105357.9,-192671.2,-130033.1,-191886.5,-375000,-375000,-159377,-184847.5,0.03,-0.02,0.89,-4,0,-2,54,0
'[12:41:00.308 20/01/2026]',-105306.2,-192613.6,-129990.9,-191676.1,-375000,-375000,-159294.9,-184648.1,0.03,-0.02,0.89,-4,0,-2,54,0
'[12:41:00.312 20/01/2026]',-105223.6,-192553.8,-129909.3,-191646.6,-375000,-375000,-159236.5,-184628.8,0.03,-0.02,0.89,-4,0,-2,54,0
'[12:41:00.316 20/01/2026]',-105148.9,-192471.4,-129815.1,-191730.4,-375000,-375000,-159196.8,-184710.9,0.03,-0.02,0.89,-4,0,-2,54,0
'[12:41:00.320 20/01/2026]',-105076.1,-192415.3,-129755.1,-191634.4,-375000,-375000,-159113.5,-184576.9,0.03,-0.02,0.89,-4,0,-2,54,0
'[12:41:00.324 20/01/2026]',-105028.1,-192377.5,-129724.6,-191478.3,-375000,-375000,-159040,-184407.4,0.05,0.00,0.88,-4,0,-2,54,0
'[12:41:00.328 20/01/2026]',-104978.1,-192312.8,-129658.1,-191406.4,-375000,-375000,-158989.6,-184362.2,0.05,0.00,0.88,-4,0,-2,54,0
'[12:41:00.332 20/01/2026]',-104903.4,-192228.7,-129597,-191473.7,-375000,-375000,-158970.8,-184473.7,0.05,0.00,0.88,-4,0,-2,54,0
'[12:41:00.336 20/01/2026]',-104846.4,-192173.4,-129549.4,-191434.2,-375000,-375000,-158896.1,-184390,0.05,0.00,0.88,-4,0,-2,54,0
'[12:41:00.340 20/01/2026]',-104819.9,-192138.6,-129486.5,-191199.4,-375000,-375000,-158807,-184168.7,0.05,0.00,0.88,-4,0,-2,54,0
'[12:41:00.344 20/01/2026]',-104756.4,-192075.9,-129409.3,-191102.2,-375000,-375000,-158746.6,-184086.8,0.05,0.00,0.88,-4,0,-2,54,0
'[12:41:00.348 20/01/2026]',-104674.7,-192002.5,-129346.7,-191169.8,-375000,-375000,-158717.4,-184182.7,0.05,0.00,0.88,-4,0,-2,54,0
'[12:41:00.352 20/01/2026]',-104593.9,-191934.5,-129311.1,-191208.4,-375000,-375000,-158657.9,-184156.8,0.05,0.00,0.88,-4,0,-2,54,0
'[12:41:00.356 20/01/2026]',-104554.7,-191895.8,-129285.1,-191025.7,-375000,-375000,-158583.7,-183970.3,0.05,0.00,0.88,-4,0,-2,54,0
'[12:41:00.360 20/01/2026]',-104544.1,-191855.5,-129227.4,-190891.3,-375000,-375000,-158540.5,-183872.4,0.05,-0.02,0.88,-4,0,-2,54,0
'[12:41:00.364 20/01/2026]',-104488,-191791.1,-129137.6,-190914.4,-375000,-375000,-158500.9,-183955.1,0.05,-0.02,0.88,-4,0,-2,54,0
'[12:41:00.368 20/01/2026]',-104398.6,-191722,-129053.9,-190916.6,-375000,-375000,-158421.9,-183921.8,0.05,-0.02,0.88,-4,0,-2,54,0
'[12:41:00.372 20/01/2026]',-104368.3,-191672.8,-129010.3,-190708.4,-375000,-375000,-158344.8,-183726.1,0.05,-0.02,0.88,-4,0,-2,54,0
'[12:41:00.376 20/01/2026]',-104351,-191646.9,-129002.7,-190554.2,-375000,-375000,-158306.6,-183601.6,0.05,-0.02,0.88,-4,0,-2,54,0
'[12:41:00.380 20/01/2026]',-104258.4,-191550.8,-128921.8,-190600.1,-375000,-375000,-158276.1,-183685.5,0.05,-0.02,0.88,-4,0,-2,54,0
'[12:41:00.384 20/01/2026]',-104168.1,-191499.4,-128847.2,-190657.6,-375000,-375000,-158224.2,-183720.6,0.05,-0.02,0.88,-4,0,-2,54,0
'[12:41:00.388 20/01/2026]',-104144.9,-191460.3,-128813.1,-190554.4,-375000,-375000,-158160.2,-183594.9,0.05,-0.02,0.88,-4,0,-2,54,0
'[12:41:00.392 20/01/2026]',-104089.9,-191406.1,-128765.1,-190343.9,-375000,-375000,-158065.5,-183371.4,0.05,-0.02,0.88,-4,0,-2,54,0
'[12:41:00.396 20/01/2026]',-104009,-191339.1,-128724.1,-190333,-375000,-375000,-158056.8,-183427.5,0.05,-0.02,0.88,-4,0,-2,54,0
'[12:41:00.400 20/01/2026]',-103929.8,-191290.6,-128672.1,-190446.3,-375000,-375000,-158027.4,-183522.8,0.05,-0.02,0.88,-4,0,-2,54,0
'[12:41:00.404 20/01/2026]',-103910,-191280.4,-128636.7,-190348.4,-375000,-375000,-157962.4,-183401.5,0.05,-0.02,0.88,-4,0,-2,54,0
'[12:41:00.408 20/01/2026]',-103910.2,-191249.2,-128586,-190129.8,-375000,-375000,-157892.5,-183206.6,0.05,-0.02,0.88,-4,0,-2,54,0
'[12:41:00.412 20/01/2026]',-103865.1,-191201,-128517.9,-190098.5,-375000,-375000,-157862,-183235.7,0.05,-0.02,0.88,-4,0,-2,54,0
'[12:41:00.416 20/01/2026]',-103777.2,-191116.7,-128430.6,-190233.7,-375000,-375000,-157810.5,-183332.4,0.05,-0.02,0.88,-4,0,-2,54,0
'[12:41:00.420 20/01/2026]',-103740.2,-191046.6,-128392.6,-190190.4,-375000,-375000,-157746.9,-183218.3,0.05,-0.02,0.88,-4,0,-2,54,0
'[12:41:00.424 20/01/2026]',-103691.4,-191031,-128375.5,-189961.3,-375000,-375000,-157691.9,-183026.1,0.05,-0.02,0.88,-4,0,-2,54,0
'[12:41:00.428 20/01/2026]',-103613,-190990.9,-128339.1,-189889.1,-375000,-375000,-157653.6,-183011.9,0.05,-0.02,0.88,-4,0,-2,54,0
'[12:41:00.432 20/01/2026]',-103548.7,-190907.6,-128253.2,-189966.9,-375000,-375000,-157606.3,-183110,0.05,0.00,0.88,-4,0,-2,54,0
'[12:41:00.436 20/01/2026]',-103514.1,-190850.9,-128177.3,-189955.6,-375000,-375000,-157540.9,-183037.2,0.05,0.00,0.88,-4,0,-2,54,0
'[12:41:00.440 20/01/2026]',-103489.9,-190803.3,-128140.5,-189732.8,-375000,-375000,-157470,-182820.2,0.05,0.00,0.88,-4,0,-2,54,0
'[12:41:00.444 20/01/2026]',-103473.4,-190780.2,-128107.8,-189637.7,-375000,-375000,-157435.4,-182759.6,0.05,0.00,0.88,-4,0,-2,54,0
'[12:41:00.448 20/01/2026]',-103402.7,-190715.2,-128043.8,-189722.1,-375000,-375000,-157410.5,-182884.3,0.05,0.00,0.88,-4,0,-2,54,0
'[12:41:00.452 20/01/2026]',-103338.6,-190658.2,-128005.3,-189736.4,-375000,-375000,-157363.2,-182858.4,0.05,0.00,0.88,-4,0,-2,54,0
'[12:41:00.456 20/01/2026]',-103308.6,-190648.5,-127999.6,-189537,-375000,-375000,-157307.5,-182676.6,0.05,0.00,0.88,-4,0,-2,54,0
'[12:41:00.460 20/01/2026]',-103261,-190622.1,-127980.6,-189422.8,-375000,-375000,-157276.4,-182581.3,0.05,0.00,0.88,-4,0,-2,54,0
'[12:41:00.464 20/01/2026]',-103200.7,-190553.8,-127903.6,-189555.3,-375000,-375000,-157265.8,-182733,0.05,0.00,0.88,-4,0,-2,54,0
'[12:41:00.468 20/01/2026]',-103154.1,-190490.1,-127838.7,-189600.7,-375000,-375000,-157204.3,-182718.5,0.03,0.00,0.88,-4,0,-2,54,0
'[12:41:00.472 20/01/2026]',-103117.1,-190460.7,-127805.5,-189400.8,-375000,-375000,-157130,-182529.1,0.03,0.00,0.88,-4,0,-2,54,0
'[12:41:00.476 20/01/2026]',-103052.9,-190421.9,-127768.1,-189208.2,-375000,-375000,-157059.7,-182363.1,0.03,0.00,0.88,-4,0,-2,54,0
'[12:41:00.480 20/01/2026]',-102995.7,-190367,-127715,-189268.3,-375000,-375000,-157044.7,-182461.7,0.03,0.00,0.88,-4,0,-2,54,0
'[12:41:00.484 20/01/2026]',-102954.2,-190305.2,-127649.2,-189366,-375000,-375000,-157009.7,-182512.2,0.03,0.00,0.88,-4,0,-2,54,0
'[12:41:00.488 20/01/2026]',-102934.5,-190276.3,-127631.6,-189229.5,-375000,-375000,-156959.8,-182375.7,0.03,0.00,0.88,-4,0,-2,54,0
'[12:41:00.492 20/01/2026]',-102919.5,-190240.4,-127586.5,-189054.1,-375000,-375000,-156883.3,-182199,0.03,0.00,0.88,-4,0,-2,54,0
'[12:41:00.496 20/01/2026]',-102876.9,-190195.3,-127526.9,-189114.3,-375000,-375000,-156872.7,-182280.2,0.03,0.00,0.88,-4,0,-2,54,0
'[12:41:00.500 20/01/2026]',-102817.4,-190125.9,-127482.1,-189212.7,-375000,-375000,-156843.3,-182357.2,0.03,0.00,0.88,-4,0,-2,54,0
'[12:41:00.504 20/01/2026]',-102790.8,-190093.1,-127463.9,-189087.9,-375000,-375000,-156786.8,-182216.7,0.03,0.00,0.89,-4,0,-2,54,0
'[12:41:00.508 20/01/2026]',-102740,-190061.5,-127432,-188874.8,-375000,-375000,-156708.8,-182009.8,0.03,0.00,0.89,-4,0,-2,54,0
'[12:41:00.512 20/01/2026]',-102674.7,-190017.3,-127376.6,-188879.8,-375000,-375000,-156681.7,-182052.3,0.03,0.00,0.89,-4,0,-2,54,0
'[12:41:00.516 20/01/2026]',-102629.6,-189967.2,-127323.4,-189016.5,-375000,-375000,-156668.7,-182179.2,0.03,0.00,0.89,-4,0,-2,54,0
'[12:41:00.520 20/01/2026]',-102585.8,-189928.9,-127275.7,-188948.2,-375000,-375000,-156605.8,-182070,0.03,0.00,0.89,-4,0,-2,54,0
'[12:41:00.524 20/01/2026]',-102532.9,-189886.2,-127257.5,-188739.9,-375000,-375000,-156542.3,-181874.9,0.03,0.00,0.89,-4,0,-2,54,0
'[12:41:00.528 20/01/2026]',-102475.9,-189852.5,-127223.3,-188702.7,-375000,-375000,-156523.5,-181880.3,0.03,0.00,0.89,-4,0,-2,54,0
'[12:41:00.532 20/01/2026]',-102450.7,-189813.7,-127152.6,-188829.2,-375000,-375000,-156503.8,-182001.2,0.03,0.00,0.89,-4,0,-2,54,0
'[12:41:00.536 20/01/2026]',-102446.1,-189768.6,-127118.1,-188828.5,-375000,-375000,-156465.6,-181951.1,0.03,0.00,0.89,-4,0,-2,54,0
'[12:41:00.540 20/01/2026]',-102398.9,-189712.2,-127062.2,-188576.3,-375000,-375000,-156359.8,-181708.8,0.05,0.00,0.88,-4,0,-2,54,0
'[12:41:00.544 20/01/2026]',-102351.5,-189683.6,-127032.6,-188489.8,-375000,-375000,-156324.3,-181650.9,0.05,0.00,0.88,-4,0,-2,54,0
'[12:41:00.548 20/01/2026]',-102322.4,-189645,-127009.6,-188650.6,-375000,-375000,-156360.8,-181851.5,0.05,0.00,0.88,-4,0,-2,54,0
'[12:41:00.552 20/01/2026]',-102258.6,-189600.6,-126967.7,-188669.8,-375000,-375000,-156304.6,-181820.2,0.05,0.00,0.88,-4,0,-2,54,0
'[12:41:00.556 20/01/2026]',-102237.8,-189588.3,-126955,-188460.5,-375000,-375000,-156245.4,-181627.7,0.05,0.00,0.88,-4,0,-2,54,0
'[12:41:00.560 20/01/2026]',-102218.5,-189557.3,-126919.1,-188326.4,-375000,-375000,-156208.6,-181528.6,0.05,0.00,0.88,-4,0,-2,54,0
'[12:41:00.564 20/01/2026]',-102148.9,-189492.1,-126851.1,-188402.5,-375000,-375000,-156187.7,-181649.1,0.05,0.00,0.88,-4,0,-2,54,0
'[12:41:00.568 20/01/2026]',-102092.1,-189446.2,-126810.2,-188501.7,-375000,-375000,-156150.6,-181670.9,0.05,0.00,0.88,-4,0,-2,54,0
'[12:41:00.572 20/01/2026]',-102073.7,-189423.7,-126806.4,-188343.8,-375000,-375000,-156112.3,-181527.3,0.05,0.00,0.88,-4,0,-2,54,0
'[12:41:00.576 20/01/2026]',-102036.6,-189398.3,-126789.8,-188157.9,-375000,-375000,-156066.2,-181388.6,0.05,-0.02,0.88,-4,0,-2,54,0
'[12:41:00.580 20/01/2026]',-102002.5,-189346.8,-126713.9,-188256.3,-375000,-375000,-156055.8,-181509.5,0.05,-0.02,0.88,-4,0,-2,54,0
'[12:41:00.584 20/01/2026]',-101992.3,-189299.3,-126668.2,-188362.3,-375000,-375000,-156007.8,-181531.1,0.05,-0.02,0.88,-4,0,-2,54,0
'[12:41:00.588 20/01/2026]',-101958.3,-189277.9,-126648.2,-188181.1,-375000,-375000,-155937.4,-181345.4,0.05,-0.02,0.88,-4,0,-2,54,0
'[12:41:00.592 20/01/2026]',-101931.1,-189256.9,-126615.7,-187981.1,-375000,-375000,-155884.9,-181183.8,0.05,-0.02,0.88,-4,0,-2,54,0
'[12:41:00.596 20/01/2026]',-101892.8,-189210.7,-126574.7,-188077.1,-375000,-375000,-155898.1,-181321.8,0.05,-0.02,0.88,-4,0,-2,54,0
'[12:41:00.600 20/01/2026]',-101850.6,-189154.4,-126533.6,-188203.2,-375000,-375000,-155880.9,-181403.9,0.05,-0.02,0.88,-4,0,-2,54,0
'[12:41:00.604 20/01/2026]',-101810.4,-189104.7,-126482.1,-188080.9,-375000,-375000,-155809.7,-181264.3,0.05,-0.02,0.88,-4,0,-2,54,0
'[12:41:00.608 20/01/2026]',-101765.9,-189105.9,-126450.9,-187835.8,-375000,-375000,-155729.8,-181040,0.05,-0.02,0.88,-4,0,-2,54,0
'[12:41:00.612 20/01/2026]',-101707.5,-189077.5,-126454.8,-187879.7,-375000,-375000,-155746.1,-181134.5,0.03,0.00,0.88,-4,0,-2,54,0
'[12:41:00.616 20/01/2026]',-101652.1,-189014.6,-126397.1,-188000.2,-375000,-375000,-155727.2,-181243.4,0.03,0.00,0.88,-4,0,-2,54,0
'[12:41:00.620 20/01/2026]',-101664.1,-188975.6,-126347.4,-187960.5,-375000,-375000,-155668.4,-181140.3,0.03,0.00,0.88,-4,0,-2,54,0
'[12:41:00.624 20/01/2026]',-101654.5,-188952,-126319.5,-187692.5,-375000,-375000,-155606.1,-180924.7,0.03,0.00,0.88,-4,0,-2,54,0
'[12:41:00.628 20/01/2026]',-101587.1,-188919.1,-126270.3,-187630.2,-375000,-375000,-155578.5,-180926.7,0.03,0.00,0.88,-4,0,-2,54,0
'[12:41:00.632 20/01/2026]',-101526.4,-188875.8,-126237.4,-187837.7,-375000,-375000,-155585.4,-181103.7,0.03,0.00,0.88,-4,0,-2,54,0
'[12:41:00.636 20/01/2026]',-101509.1,-188838.4,-126212.8,-187825.2,-375000,-375000,-155535.9,-181022.3,0.03,0.00,0.88,-4,0,-2,54,0
'[12:41:00.640 20/01/2026]',-101515.5,-188822.7,-126208.4,-187579,-375000,-375000,-155488.8,-180830,0.03,0.00,0.88,-4,0,-2,54,0
'[12:41:00.644 20/01/2026]',-101465.1,-188778.1,-126157,-187473.5,-375000,-375000,-155440.5,-180773,0.03,0.00,0.88,-4,0,-2,54,0
'[12:41:00.648 20/01/2026]',-101401.2,-188723.1,-126082.1,-187592.8,-375000,-375000,-155431,-180916.3,0.03,0.02,0.88,-4,0,-2,54,0
'[12:41:00.652 20/01/2026]',-101344,-188677.2,-126046,-187681.4,-375000,-375000,-155387.4,-180913,0.03,0.02,0.88,-4,0,-2,54,0
'[12:41:00.656 20/01/2026]',-101334.5,-188668,-126057.8,-187472.5,-375000,-375000,-155348.4,-180729.8,0.03,0.02,0.88,-4,0,-2,54,0
'[12:41:00.660 20/01/2026]',-101299.3,-188648.1,-126033.6,-187295,-375000,-375000,-155306.4,-180610.7,0.03,0.02,0.88,-4,0,-2,54,0
'[12:41:00.664 20/01/2026]',-101302.8,-188606.5,-125984.1,-187433.5,-375000,-375000,-155321.5,-180780.5,0.03,0.02,0.88,-4,0,-2,54,0
'[12:41:00.668 20/01/2026]',-101254.9,-188569.5,-125933.2,-187550.2,-375000,-375000,-155271.4,-180796.4,0.03,0.02,0.88,-4,0,-2,54,0
'[12:41:00.672 20/01/2026]',-101225.9,-188543.5,-125922.4,-187364.2,-375000,-375000,-155216.8,-180626.1,0.03,0.02,0.88,-4,0,-2,54,0
'[12:41:00.676 20/01/2026]',-101210.4,-188522.3,-125899.9,-187146.7,-375000,-375000,-155167.3,-180479.9,0.03,0.02,0.88,-4,0,-2,54,0
'[12:41:00.680 20/01/2026]',-101144.1,-188467.4,-125832.4,-187273.2,-375000,-375000,-155153.2,-180612.2,0.03,0.02,0.88,-4,0,-2,54,0
'[12:41:00.684 20/01/2026]',-101098.1,-188418.3,-125787.2,-187418.4,-375000,-375000,-155130.9,-180681.3,0.03,-0.02,0.88,-4,0,-2,54,0
'[12:41:00.688 20/01/2026]',-101085.4,-188404.7,-125802.9,-187258,-375000,-375000,-155101.8,-180525.7,0.03,-0.02,0.88,-4,0,-2,54,0
'[12:41:00.692 20/01/2026]',-101031.7,-188377.1,-125774.6,-187022.1,-375000,-375000,-155032.8,-180334.6,0.03,-0.02,0.88,-4,0,-2,54,0
'[12:41:00.696 20/01/2026]',-101005.6,-188345.6,-125719,-187108.2,-375000,-375000,-155039.5,-180466.3,0.03,-0.02,0.88,-4,0,-2,54,0
'[12:41:00.700 20/01/2026]',-100989.2,-188303.6,-125662.2,-187275.6,-375000,-375000,-155011.6,-180555.2,0.03,-0.02,0.88,-4,0,-2,54,0
'[12:41:00.704 20/01/2026]',-100998,-188289.4,-125629.9,-187127.7,-375000,-375000,-154954.6,-180400.4,0.03,-0.02,0.88,-4,0,-2,54,0
'[12:41:00.708 20/01/2026]',-100944.9,-188258.3,-125634.5,-186879.1,-375000,-375000,-154906.6,-180213.8,0.03,-0.02,0.88,-4,0,-2,54,0
'[12:41:00.712 20/01/2026]',-100900.8,-188230.5,-125618,-186916.3,-375000,-375000,-154905.4,-180288.3,0.03,-0.02,0.88,-4,0,-2,54,0
'[12:41:00.716 20/01/2026]',-100873.6,-188182,-125580,-187116.7,-375000,-375000,-154909.1,-180442.5,0.03,-0.02,0.88,-4,0,-2,54,0
'[12:41:00.720 20/01/2026]',-100849.4,-188149.9,-125539.6,-187010.3,-375000,-375000,-154838,-180294.6,0.05,0.00,0.88,-4,0,-2,54,0
'[12:41:00.724 20/01/2026]',-100842,-188143.5,-125544.3,-186771.3,-375000,-375000,-154801.6,-180109.5,0.05,0.00,0.88,-4,0,-2,54,0
'[12:41:00.728 20/01/2026]',-100784.9,-188100.3,-125498.8,-186768.5,-375000,-375000,-154783,-180135.3,0.05,0.00,0.88,-4,0,-2,54,0
'[12:41:00.732 20/01/2026]',-100768.3,-188086.8,-125462.6,-186980.3,-375000,-375000,-154809.7,-180340.8,0.05,0.00,0.88,-4,0,-2,54,0
'[12:41:00.736 20/01/2026]',-100734.2,-188028.5,-125417.9,-186961.1,-375000,-375000,-154750.3,-180244.2,0.05,0.00,0.88,-4,0,-2,54,0
'[12:41:00.740 20/01/2026]',-100698.4,-188005,-125395.3,-186685.9,-375000,-375000,-154666.2,-179985.2,0.05,0.00,0.88,-4,0,-2,54,0
'[12:41:00.744 20/01/2026]',-100682.9,-188001.7,-125389.2,-186599.5,-375000,-375000,-154651.5,-179964.1,0.05,0.00,0.88,-4,0,-2,54,0
'[12:41:00.748 20/01/2026]',-100646.4,-187961.8,-125327,-186779.5,-375000,-375000,-154654.8,-180159.7,0.05,0.00,0.88,-4,0,-2,54,0
'[12:41:00.752 20/01/2026]',-100637.8,-187919.3,-125285.9,-186819.9,-375000,-375000,-154610.3,-180113.8,0.05,0.00,0.88,-4,0,-2,54,0
'[12:41:00.756 20/01/2026]',-100627.1,-187910.4,-125287.3,-186587.3,-375000,-375000,-154565.8,-179910.6,0.03,-0.02,0.88,-4,0,-2,54,0
'[12:41:00.760 20/01/2026]',-100575.4,-187876,-125272.2,-186478,-375000,-375000,-154535.3,-179840.3,0.03,-0.02,0.88,-4,0,-2,54,0
'[12:41:00.764 20/01/2026]',-100529.3,-187831.7,-125229.1,-186640.2,-375000,-375000,-154551.8,-180034.5,0.03,-0.02,0.88,-4,0,-2,54,0
'[12:41:00.768 20/01/2026]',-100452.6,-187794.2,-125192.6,-186755.6,-375000,-375000,-154514.4,-180055.5,0.03,-0.02,0.88,-4,0,-2,54,0
'[12:41:00.772 20/01/2026]',-100411.1,-187760.8,-125181.9,-186537.1,-375000,-375000,-154456.3,-179848.2,0.03,-0.02,0.88,-4,0,-2,54,0
'[12:41:00.776 20/01/2026]',-100397.8,-187738.4,-125131.7,-186298.3,-375000,-375000,-154379.5,-179658.2,0.03,-0.02,0.88,-4,0,-2,54,0
'[12:41:00.780 20/01/2026]',-100411.5,-187710.6,-125081.6,-186417.8,-375000,-375000,-154394.8,-179832.5,0.03,-0.02,0.88,-4,0,-2,54,0
'[12:41:00.784 20/01/2026]',-100384.7,-187692.4,-125059.8,-186577.4,-375000,-375000,-154391.6,-179926.2,0.03,-0.02,0.88,-4,0,-2,54,0
'[12:41:00.788 20/01/2026]',-100380.5,-187663.5,-125057.6,-186465.5,-375000,-375000,-154349.3,-179788,0.03,-0.02,0.88,-4,0,-2,54,0
'[12:41:00.792 20/01/2026]',-100354.5,-187634.4,-125031.8,-186268.2,-375000,-375000,-154295.7,-179610.5,0.05,0.00,0.89,-4,0,-2,54,0
'[12:41:00.796 20/01/2026]',-100299.5,-187604.8,-124985.3,-186343.8,-375000,-375000,-154292.5,-179727.4,0.05,0.00,0.89,-4,0,-2,54,0
'[12:41:00.800 20/01/2026]',-100261.5,-187561.5,-124962.3,-186522.9,-375000,-375000,-154280.5,-179828.5,0.05,0.00,0.89,-4,0,-2,54,0
'[12:41:00.804 20/01/2026]',-100269.3,-187556.1,-124968.4,-186401.8,-375000,-375000,-154251.7,-179696.2,0.05,0.00,0.89,-4,0,-2,54,0
'[12:41:00.808 20/01/2026]',-100260.7,-187571.1,-124968.9,-186130.2,-375000,-375000,-154204.3,-179482.8,0.05,0.00,0.89,-4,0,-2,54,0
'[12:41:00.812 20/01/2026]',-100199.4,-187535.6,-124906,-186148.5,-375000,-375000,-154189.9,-179569,0.05,0.00,0.89,-4,0,-2,54,0
'[12:41:00.816 20/01/2026]',-100152.2,-187489.4,-124857.5,-186359.5,-375000,-375000,-154173,-179711.1,0.05,0.00,0.89,-4,0,-2,54,0
'[12:41:00.820 20/01/2026]',-100175.2,-187468.9,-124857.7,-186298.1,-375000,-375000,-154136.1,-179589.1,0.05,0.00,0.89,-4,0,-2,54,0
'[12:41:00.824 20/01/2026]',-100179.3,-187454,-124843,-186032.3,-375000,-375000,-154090,-179382.3,0.05,0.00,0.89,-4,0,-2,54,0
'[12:41:00.828 20/01/2026]',-100139.5,-187425.3,-124806.3,-186048.3,-375000,-375000,-154093.6,-179456,0.05,0.00,0.88,-4,0,-2,54,0
'[12:41:00.832 20/01/2026]',-100056.3,-187366.8,-124750.1,-186246.7,-375000,-375000,-154069,-179605.5,0.05,0.00,0.88,-4,0,-2,54,0
'[12:41:00.836 20/01/2026]',-100023,-187362.1,-124754.3,-186256.2,-375000,-375000,-154030.8,-179529.1,0.05,0.00,0.88,-4,0,-2,54,0
'[12:41:00.840 20/01/2026]',-100062.9,-187389.5,-124762.6,-185984.7,-375000,-375000,-153999.8,-179324.6,0.05,0.00,0.88,-4,0,-2,54,0
'[12:41:00.844 20/01/2026]',-100044.5,-187332.8,-124705.8,-185889.8,-375000,-375000,-153953.4,-179278.4,0.05,0.00,0.88,-4,0,-2,54,0
'[12:41:00.848 20/01/2026]',-100010,-187296,-124659.7,-186111.8,-375000,-375000,-153957.6,-179474.1,0.05,0.00,0.88,-4,0,-2,54,0
'[12:41:00.852 20/01/2026]',-99977.07,-187280,-124656.8,-186176.8,-375000,-375000,-153930.6,-179446.2,0.05,0.00,0.88,-4,0,-2,54,0
'[12:41:00.856 20/01/2026]',-99971.13,-187274.5,-124684.6,-185977.1,-375000,-375000,-153888.7,-179260.6,0.05,0.00,0.88,-4,0,-2,54,0
'[12:41:00.860 20/01/2026]',-99997.86,-187276.6,-124662.9,-185827.6,-375000,-375000,-153857.2,-179158.6,0.05,0.00,0.88,-4,0,-2,54,0
'[12:41:00.864 20/01/2026]',-99998.48,-187252.1,-124618.8,-186033,-375000,-375000,-153889.8,-179371,0.05,0.00,0.88,-4,0,-2,54,0
'[12:41:00.868 20/01/2026]',-100002.7,-187237.5,-124583,-186158.7,-375000,-375000,-153853.3,-179388,0.05,0.00,0.88,-4,0,-2,54,0
'[12:41:00.872 20/01/2026]',-100040.1,-187240,-124590,-185956.3,-375000,-375000,-153811.1,-179195.7,0.05,0.00,0.88,-4,0,-2,54,0
'[12:41:00.876 20/01/2026]',-100034.1,-187233.3,-124589.6,-185743.7,-375000,-375000,-153790.5,-179066.7,0.05,0.00,0.88,-4,0,-2,54,0
'[12:41:00.880 20/01/2026]',-99945.11,-187209.8,-124554,-185908.3,-375000,-375000,-153796.9,-179251.1,0.05,0.00,0.88,-4,0,-2,54,0
'[12:41:00.884 20/01/2026]',-99900.18,-187160.9,-124536.1,-186103.4,-375000,-375000,-153768.2,-179312,0.05,0.00,0.88,-4,0,-2,54,0
'[12:41:00.888 20/01/2026]',-99892.36,-187118.3,-124527.4,-185896.7,-375000,-375000,-153716.1,-179113.3,0.05,0.00,0.88,-4,0,-2,54,0
'[12:41:00.892 20/01/2026]',-99932.41,-187143.7,-124508.4,-185638.1,-375000,-375000,-153677,-178944,0.05,0.00,0.88,-4,0,-2,54,0
'[12:41:00.896 20/01/2026]',-99953.29,-187138.7,-124444.6,-185734.7,-375000,-375000,-153691.7,-179097.7,0.05,0.00,0.88,-4,0,-2,54,0
'[12:41:00.900 20/01/2026]',-99889.45,-187101.9,-124407.8,-185945.6,-375000,-375000,-153683.4,-179218.3,0.03,0.00,0.89,-4,0,-2,54,0
'[12:41:00.904 20/01/2026]',-99827.72,-187071.4,-124417.2,-185859.1,-375000,-375000,-153635.7,-179078.6,0.03,0.00,0.89,-4,0,-2,54,0
'[12:41:00.908 20/01/2026]',-99798.66,-187055.3,-124423.6,-185585,-375000,-375000,-153596.5,-178875,0.03,0.00,0.89,-4,0,-2,54,0
'[12:41:00.912 20/01/2026]',-99756.77,-187017.2,-124387,-185612.3,-375000,-375000,-153608.8,-178981.8,0.03,0.00,0.89,-4,0,-2,54,0
'[12:41:00.916 20/01/2026]',-99689.13,-186943.3,-124295.2,-185874.5,-375000,-375000,-153581,-179142.5,0.03,0.00,0.89,-4,0,-2,54,0
'[12:41:00.920 20/01/2026]',-99678.77,-186917.3,-124296.8,-185853.6,-375000,-375000,-153544,-179034,0.03,0.00,0.89,-4,0,-2,54,0
'[12:41:00.924 20/01/2026]',-99698.88,-186902.8,-124272.1,-185522.6,-375000,-375000,-153487.4,-178784.4,0.03,0.00,0.89,-4,0,-2,54,0
'[12:41:00.928 20/01/2026]',-99656.45,-186867.6,-124232.6,-185490.3,-375000,-375000,-153493.5,-178859.7,0.03,0.00,0.89,-4,0,-2,54,0
'[12:41:00.932 20/01/2026]',-99574.83,-186831.8,-124171.8,-185712.1,-375000,-375000,-153465.2,-179016.4,0.03,0.00,0.89,-4,0,-2,54,0
'[12:41:00.936 20/01/2026]',-99510.99,-186787.4,-124146.3,-185685.4,-375000,-375000,-153406.8,-178904.1,0.03,0.00,0.88,-4,0,-2,54,0
'[12:41:00.940 20/01/2026]',-99500.35,-186773.5,-124179.4,-185402.4,-375000,-375000,-153377.8,-178700.9,0.03,0.00,0.88,-4,0,-2,54,0
'[12:41:00.944 20/01/2026]',-99487.25,-186750.5,-124134.7,-185306.8,-375000,-375000,-153372.1,-178707.7,0.03,0.00,0.88,-4,0,-2,54,0
'[12:41:00.948 20/01/2026]',-99419.04,-186719.7,-124066.5,-185564.5,-375000,-375000,-153371.8,-178916.6,0.03,0.00,0.88,-4,0,-2,54,0
'[12:41:00.952 20/01/2026]',-99381.98,-186685.8,-124048.6,-185624.9,-375000,-375000,-153333.9,-178859.4,0.03,0.00,0.88,-4,0,-2,54,0
'[12:41:00.956 20/01/2026]',-99396.73,-186664,-124050.9,-185327.3,-375000,-375000,-153293.2,-178635.3,0.03,0.00,0.88,-4,0,-2,54,0
'[12:41:00.960 20/01/2026]',-99360.3,-186624.2,-124021.7,-185145.7,-375000,-375000,-153258.8,-178556.4,0.03,0.00,0.88,-4,0,-2,54,0
'[12:41:00.964 20/01/2026]',-99318.32,-186592,-123984.4,-185393,-375000,-375000,-153284.3,-178788.6,0.03,0.00,0.88,-4,0,-2,54,0
'[12:41:00.968 20/01/2026]',-99307.81,-186582.6,-123951.1,-185568.3,-375000,-375000,-153264.9,-178820.8,0.03,0.00,0.88,-4,0,-2,54,0
'[12:41:00.972 20/01/2026]',-99297.04,-186542.1,-123938.9,-185306.1,-375000,-375000,-153193.9,-178585.8,0.03,0.00,0.88,-4,0,-2,54,0
'[12:41:00.976 20/01/2026]',-99292.3,-186537.8,-123919.1,-185047.7,-375000,-375000,-153159.5,-178447.2,0.03,0.00,0.88,-4,0,-2,54,0
'[12:41:00.980 20/01/2026]',-99231.86,-186505.5,-123855.3,-185216.2,-375000,-375000,-153159,-178631.5,0.03,0.00,0.88,-4,0,-2,54,0
'[12:41:00.984 20/01/2026]',-99159.66,-186472.1,-123829.1,-185405,-375000,-375000,-153123.9,-178683.1,0.03,0.00,0.88,-4,0,-2,54,0
'[12:41:00.988 20/01/2026]',-99130.16,-186439.8,-123852.9,-185220.8,-375000,-375000,-153097,-178510.1,0.03,0.00,0.88,-4,0,-2,54,0
'[12:41:00.992 20/01/2026]',-99114.38,-186415.8,-123859.1,-184967.3,-375000,-375000,-153080.6,-178364.4,0.03,0.00,0.88,-4,0,-2,54,0
'[12:41:00.996 20/01/2026]',-99096.86,-186390.4,-123798.1,-185094.7,-375000,-375000,-153084.1,-178528.5,0.03,0.00,0.88,-4,0,-2,54,0
'[12:41:01.000 20/01/2026]',-99081.62,-186363.3,-123733.4,-185323.8,-375000,-375000,-153057.5,-178641.8,0.03,0.00,0.88,-4,0,-2,54,0
'[12:41:01.004 20/01/2026]',-99107.72,-186348.5,-123727.7,-185194.3,-375000,-375000,-153021.2,-178487.3,0.03,0.00,0.88,-4,0,-2,54,0
'[12:41:01.008 20/01/2026]',-99073.03,-186348.5,-123729.8,-184877.5,-375000,-375000,-152967,-178270.9,0.05,0.00,0.89,-4,0,-2,54,0
'[12:41:01.012 20/01/2026]',-99015.45,-186309.1,-123708.5,-184966.6,-375000,-375000,-152974.7,-178386,0.05,0.00,0.89,-4,0,-2,54,0
'[12:41:01.016 20/01/2026]',-98989.34,-186279.2,-123677.1,-185230.1,-375000,-375000,-152986.6,-178547.7,0.05,0.00,0.89,-4,0,-2,54,0
'[12:41:01.020 20/01/2026]',-98949.34,-186251.6,-123668,-185164.3,-375000,-375000,-152937.6,-178414.9,0.05,0.00,0.89,-4,0,-2,54,0
'[12:41:01.024 20/01/2026]',-98951.44,-186241.3,-123658.3,-184866.7,-375000,-375000,-152892.1,-178194.8,0.05,0.00,0.89,-4,0,-2,54,0
'[12:41:01.028 20/01/2026]',-98967.89,-186242.8,-123615.4,-184843.1,-375000,-375000,-152895.9,-178255.5,0.05,0.00,0.89,-4,0,-2,54,0
'[12:41:01.032 20/01/2026]',-98903.83,-186186.9,-123570.7,-185062,-375000,-375000,-152899.3,-178439,0.05,0.00,0.89,-4,0,-2,54,0
'[12:41:01.036 20/01/2026]',-98844.59,-186142.1,-123562.2,-185072.9,-375000,-375000,-152860.2,-178367.3,0.05,0.00,0.89,-4,0,-2,54,0
'[12:41:01.040 20/01/2026]',-98847.23,-186159,-123560.8,-184766.3,-375000,-375000,-152802.2,-178118,0.05,0.00,0.89,-4,0,-2,54,0
'[12:41:01.044 20/01/2026]',-98875.04,-186145.5,-123533.5,-184693.9,-375000,-375000,-152801.4,-178130.6,0.05,0.00,0.88,-4,0,-2,54,0
'[12:41:01.048 20/01/2026]',-98844.41,-186120.4,-123496.8,-184989.9,-375000,-375000,-152821.4,-178365.7,0.05,0.00,0.88,-4,0,-2,54,0
'[12:41:01.052 20/01/2026]',-98783.17,-186071.8,-123461.8,-185025.5,-375000,-375000,-152766.8,-178305.8,0.05,0.00,0.88,-4,0,-2,54,0
'[12:41:01.056 20/01/2026]',-98764.17,-186057.3,-123451.9,-184719.1,-375000,-375000,-152684.1,-178024.3,0.05,0.00,0.88,-4,0,-2,54,0
'[12:41:01.060 20/01/2026]',-98760.55,-186062.2,-123458.9,-184576.9,-375000,-375000,-152682.1,-177965.8,0.05,0.00,0.88,-4,0,-2,54,0
'[12:41:01.064 20/01/2026]',-98741.11,-186044.3,-123461.1,-184811.2,-375000,-375000,-152733.4,-178202.1,0.05,0.00,0.88,-4,0,-2,54,0
'[12:41:01.068 20/01/2026]',-98714.55,-186017.3,-123438.1,-184970.8,-375000,-375000,-152715.8,-178239.7,0.05,0.00,0.88,-4,0,-2,54,0
'[12:41:01.072 20/01/2026]',-98704.59,-186009.1,-123433.5,-184727.5,-375000,-375000,-152664.2,-178022.2,0.05,0.00,0.88,-4,0,-2,54,0
'[12:41:01.076 20/01/2026]',-98706.59,-185997.7,-123400.1,-184522,-375000,-375000,-152627.7,-177894.2,0.05,0.00,0.88,-4,0,-2,54,0
'[12:41:01.080 20/01/2026]',-98662.48,-185965,-123359.9,-184729.4,-375000,-375000,-152646.5,-178107.5,0.05,-0.02,0.88,-4,0,-2,54,0
'[12:41:01.084 20/01/2026]',-98607.71,-185925.9,-123342.1,-184898.9,-375000,-375000,-152629.7,-178161.5,0.05,-0.02,0.88,-4,0,-2,54,0
'[12:41:01.088 20/01/2026]',-98595.33,-185906.1,-123325.8,-184689.7,-375000,-375000,-152581.5,-177957.6,0.05,-0.02,0.88,-4,0,-2,54,0
'[12:41:01.092 20/01/2026]',-98595.64,-185883.5,-123294.6,-184445.7,-375000,-375000,-152529.2,-177779.6,0.05,-0.02,0.88,-4,0,-2,54,0
'[12:41:01.096 20/01/2026]',-98608.74,-185874.5,-123264,-184589.1,-375000,-375000,-152562.9,-177960.4,0.05,-0.02,0.88,-4,0,-2,54,0
'[12:41:01.100 20/01/2026]',-98547.72,-185841.6,-123208.7,-184823.6,-375000,-375000,-152537.5,-178068.3,0.05,-0.02,0.88,-4,0,-2,54,0
'[12:41:01.104 20/01/2026]',-98523.09,-185810.1,-123213.8,-184699.4,-375000,-375000,-152492,-177897.1,0.05,-0.02,0.88,-4,0,-2,54,0
'[12:41:01.108 20/01/2026]',-98516.52,-185821,-123220.4,-184437.9,-375000,-375000,-152458.4,-177710.4,0.05,-0.02,0.88,-4,0,-2,54,0
'[12:41:01.112 20/01/2026]',-98472.53,-185797.5,-123204.7,-184511.1,-375000,-375000,-152468.3,-177827.4,0.05,-0.02,0.88,-4,0,-2,54,0
'[12:41:01.116 20/01/2026]',-98442.63,-185769.7,-123170.5,-184778.6,-375000,-375000,-152479.2,-177991.7,0.03,-0.02,0.88,-4,0,-2,54,0
'[12:41:01.120 20/01/2026]',-98446.29,-185748.9,-123151.7,-184729.3,-375000,-375000,-152431.1,-177859.9,0.03,-0.02,0.88,-4,0,-2,54,0
'[12:41:01.124 20/01/2026]',-98448.26,-185720.4,-123131.6,-184443.6,-375000,-375000,-152375.1,-177625.5,0.03,-0.02,0.88,-4,0,-2,54,0
'[12:41:01.128 20/01/2026]',-98415.8,-185696.9,-123114.3,-184449.2,-375000,-375000,-152380,-177691.9,0.03,-0.02,0.88,-4,0,-2,54,0
'[12:41:01.132 20/01/2026]',-98399.88,-185697.6,-123077.7,-184708,-375000,-375000,-152403.6,-177883.8,0.03,-0.02,0.88,-4,0,-2,54,0
'[12:41:01.136 20/01/2026]',-98365.15,-185666.2,-123036.2,-184690.2,-375000,-375000,-152344.5,-177772.4,0.03,-0.02,0.88,-4,0,-2,54,0
'[12:41:01.140 20/01/2026]',-98357.46,-185657.5,-123045.9,-184436.6,-375000,-375000,-152298.5,-177538.2,0.03,-0.02,0.88,-4,0,-2,54,0
'[12:41:01.144 20/01/2026]',-98317.99,-185633.7,-123024.1,-184406.8,-375000,-375000,-152284.3,-177531.7,0.03,-0.02,0.88,-4,0,-2,54,0
'[12:41:01.148 20/01/2026]',-98276.95,-185599.6,-123001.2,-184630,-375000,-375000,-152299.5,-177716.7,0.03,-0.02,0.88,-4,0,-2,54,0
'[12:41:01.152 20/01/2026]',-98283.26,-185584.7,-122982.9,-184724.8,-375000,-375000,-152271.8,-177694.8,0.05,-0.02,0.89,-4,0,-2,54,0
'[12:41:01.156 20/01/2026]',-98307.48,-185586.8,-122971,-184489.8,-375000,-375000,-152224.8,-177475.8,0.05,-0.02,0.89,-4,0,-2,54,0
'[12:41:01.160 20/01/2026]',-98269.13,-185557,-122964.7,-184361.5,-375000,-375000,-152209,-177420.9,0.05,-0.02,0.89,-4,0,-2,54,0
'[12:41:01.164 20/01/2026]',-98225.77,-185527.9,-122949.2,-184593.6,-375000,-375000,-152246.8,-177657.1,0.05,-0.02,0.89,-4,0,-2,54,0
'[12:41:01.168 20/01/2026]',-98185.45,-185504.1,-122899.4,-184709,-375000,-375000,-152183,-177624.8,0.05,-0.02,0.89,-4,0,-2,54,0
'[12:41:01.172 20/01/2026]',-98207.13,-185510.3,-122907.9,-184501.3,-375000,-375000,-152145.1,-177431.4,0.05,-0.02,0.89,-4,0,-2,54,0
'[12:41:01.176 20/01/2026]',-98197.42,-185497,-122891.1,-184329.6,-375000,-375000,-152124.1,-177329.7,0.05,-0.02,0.89,-4,0,-2,54,0
'[12:41:01.180 20/01/2026]',-98164.43,-185455.5,-122846.9,-184482.4,-375000,-375000,-152142.2,-177516.1,0.05,-0.02,0.89,-4,0,-2,54,0
'[12:41:01.184 20/01/2026]',-98108.38,-185424.8,-122817.1,-184609.8,-375000,-375000,-152113.2,-177549.1,0.05,-0.02,0.89,-4,0,-2,54,0
'[12:41:01.188 20/01/2026]',-98116.87,-185416.8,-122823.8,-184437.6,-375000,-375000,-152086.5,-177391.2,0.05,0.00,0.88,-4,0,-2,54,0
'[12:41:01.192 20/01/2026]',-98114.9,-185406.7,-122787.6,-184272.3,-375000,-375000,-152040.8,-177264.4,0.05,0.00,0.88,-4,0,-2,54,0
'[12:41:01.196 20/01/2026]',-98078.65,-185371.6,-122734,-184369.5,-375000,-375000,-152042.9,-177408.8,0.05,0.00,0.88,-4,0,-2,54,0
'[12:41:01.200 20/01/2026]',-98017.36,-185321.9,-122716.8,-184537.3,-375000,-375000,-152037.4,-177506.5,0.05,0.00,0.88,-4,0,-2,54,0
'[12:41:01.204 20/01/2026]',-97985.17,-185325.9,-122733.8,-184380.4,-375000,-375000,-152000.5,-177351.2,0.05,0.00,0.88,-4,0,-2,54,0
'[12:41:01.208 20/01/2026]',-97999.88,-185330.9,-122736.3,-184159,-375000,-375000,-151975.4,-177196,0.05,0.00,0.88,-4,0,-2,54,0
'[12:41:01.212 20/01/2026]',-97982.09,-185306.7,-122711.4,-184256.3,-375000,-375000,-151986.9,-177320.8,0.05,0.00,0.88,-4,0,-2,54,0
'[12:41:01.216 20/01/2026]',-97963.49,-185285.4,-122686.5,-184463,-375000,-375000,-151996.2,-177484.2,0.05,0.00,0.88,-4,0,-2,54,0
'[12:41:01.220 20/01/2026]',-97953.61,-185248,-122668.3,-184369.1,-375000,-375000,-151943.5,-177344.8,0.05,0.00,0.88,-4,0,-2,54,0
'[12:41:01.224 20/01/2026]',-97973.86,-185258.5,-122675,-184111,-375000,-375000,-151907.3,-177155.5,0.05,0.00,0.89,-4,0,-2,54,0
'[12:41:01.228 20/01/2026]',-97968.14,-185248.2,-122638.8,-184127.2,-375000,-375000,-151906.6,-177231.5,0.05,0.00,0.89,-4,0,-2,54,0
'[12:41:01.232 20/01/2026]',-97903.09,-185207.8,-122591,-184299.8,-375000,-375000,-151902,-177379.7,0.05,0.00,0.89,-4,0,-2,54,0
'[12:41:01.236 20/01/2026]',-97841,-185191.2,-122593,-184248.6,-375000,-375000,-151858.7,-177292.1,0.05,0.00,0.89,-4,0,-2,54,0
'[12:41:01.240 20/01/2026]',-97862.37,-185182.5,-122602.9,-184002.5,-375000,-375000,-151822.7,-177104.7,0.05,0.00,0.89,-4,0,-2,54,0
'[12:41:01.244 20/01/2026]',-97882.31,-185167.7,-122563.3,-183961,-375000,-375000,-151821.1,-177127.7,0.05,0.00,0.89,-4,0,-2,54,0
'[12:41:01.248 20/01/2026]',-97836.71,-185131.9,-122511.4,-184142,-375000,-375000,-151821.8,-177307.5,0.05,0.00,0.89,-4,0,-2,54,0
'[12:41:01.252 20/01/2026]',-97800.99,-185107.6,-122494.7,-184155.4,-375000,-375000,-151788.7,-177263.2,0.05,0.00,0.89,-4,0,-2,54,0
'[12:41:01.256 20/01/2026]',-97808.41,-185105.2,-122498.6,-183899.8,-375000,-375000,-151750.3,-177069,0.05,0.00,0.89,-4,0,-2,54,0
'[12:41:01.260 20/01/2026]',-97782.44,-185090.5,-122489.6,-183793.4,-375000,-375000,-151739.9,-177037.3,0.05,0.00,0.88,-4,0,-2,54,0
'[12:41:01.264 20/01/2026]',-97738.85,-185043.4,-122459.6,-183949.4,-375000,-375000,-151764,-177231.7,0.05,0.00,0.88,-4,0,-2,54,0
'[12:41:01.268 20/01/2026]',-97710.7,-185004.6,-122446.6,-184071.6,-375000,-375000,-151733.5,-177265.5,0.05,0.00,0.88,-4,0,-2,54,0
'[12:41:01.272 20/01/2026]',-97738.59,-185024.3,-122428.3,-183853.7,-375000,-375000,-151682.8,-177061.3,0.05,0.00,0.88,-4,0,-2,54,0
'[12:41:01.276 20/01/2026]',-97730.41,-185027.3,-122408.2,-183692,-375000,-375000,-151651.2,-176956.2,0.05,0.00,0.88,-4,0,-2,54,0
'[12:41:01.280 20/01/2026]',-97692.63,-184991,-122375.8,-183796.8,-375000,-375000,-151670.1,-177124.5,0.05,0.00,0.88,-4,0,-2,54,0
'[12:41:01.284 20/01/2026]',-97635.19,-184960.9,-122360.6,-183911.4,-375000,-375000,-151654.5,-177175.4,0.05,0.00,0.88,-4,0,-2,54,0
'[12:41:01.288 20/01/2026]',-97639.88,-184963,-122372.6,-183726.7,-375000,-375000,-151623.2,-177006.2,0.05,0.00,0.88,-4,0,-2,54,0
'[12:41:01.292 20/01/2026]',-97655.04,-184957,-122363.6,-183554.4,-375000,-375000,-151601.3,-176897.2,0.05,0.00,0.88,-4,0,-2,54,0
'[12:41:01.296 20/01/2026]',-97625.45,-184913.5,-122318.2,-183706,-375000,-375000,-151608.3,-177063.1,0.03,-0.02,0.88,-4,0,-2,54,0
'[12:41:01.300 20/01/2026]',-97585.12,-184872.8,-122302.7,-183832.6,-375000,-375000,-151585.6,-177114.5,0.03,-0.02,0.88,-4,0,-2,54,0
'[12:41:01.304 20/01/2026]',-97597.55,-184889,-122312.4,-183708.2,-375000,-375000,-151567.2,-176989.6,0.03,-0.02,0.88,-4,0,-2,54,0
'[12:41:01.308 20/01/2026]',-97609.35,-184892.3,-122274,-183502.2,-375000,-375000,-151516.6,-176819.4,0.03,-0.02,0.88,-4,0,-2,54,0
'[12:41:01.312 20/01/2026]',-97581.05,-184853.7,-122242.9,-183557.3,-375000,-375000,-151526.6,-176921.7,0.03,-0.02,0.88,-4,0,-2,54,0
'[12:41:01.316 20/01/2026]',-97523.61,-184831,-122233.3,-183726.9,-375000,-375000,-151533.8,-177056.7,0.03,-0.02,0.88,-4,0,-2,54,0
'[12:41:01.320 20/01/2026]',-97532.99,-184836.3,-122240.6,-183656.5,-375000,-375000,-151507.7,-176948.9,0.03,-0.02,0.88,-4,0,-2,54,0
'[12:41:01.324 20/01/2026]',-97561.3,-184842,-122240.4,-183425.1,-375000,-375000,-151478.9,-176771.9,0.03,-0.02,0.88,-4,0,-2,54,0
'[12:41:01.328 20/01/2026]',-97533.35,-184799.2,-122188.3,-183381.5,-375000,-375000,-151465.7,-176804.2,0.03,-0.02,0.88,-4,0,-2,54,0
'[12:41:01.332 20/01/2026]',-97486.86,-184761.8,-122162.6,-183575.8,-375000,-375000,-151477.8,-176979.7,0.05,0.00,0.88,-4,0,-2,54,0
'[12:41:01.336 20/01/2026]',-97465.54,-184743.5,-122166.8,-183567.2,-375000,-375000,-151450.8,-176918,0.05,0.00,0.88,-4,0,-2,54,0
'[12:41:01.340 20/01/2026]',-97462.09,-184760.1,-122180,-183355.6,-375000,-375000,-151401.6,-176719.2,0.05,0.00,0.88,-4,0,-2,54,0
'[12:41:01.344 20/01/2026]',-97446.9,-184762,-122176.8,-183322.2,-375000,-375000,-151404.8,-176735,0.05,0.00,0.88,-4,0,-2,54,0
'[12:41:01.348 20/01/2026]',-97435.59,-184729.5,-122112.7,-183491.9,-375000,-375000,-151415.5,-176911,0.05,0.00,0.88,-4,0,-2,54,0
'[12:41:01.352 20/01/2026]',-97400.05,-184687.4,-122098.1,-183513.5,-375000,-375000,-151379.4,-176871,0.05,0.00,0.88,-4,0,-2,54,0
'[12:41:01.356 20/01/2026]',-97417.26,-184680.8,-122116.2,-183314.1,-375000,-375000,-151341,-176693.8,0.05,0.00,0.88,-4,0,-2,54,0
'[12:41:01.360 20/01/2026]',-97389.01,-184680.1,-122091.8,-183239.8,-375000,-375000,-151319.5,-176648.6,0.05,0.00,0.88,-4,0,-2,54,0
'[12:41:01.364 20/01/2026]',-97368.17,-184663.5,-122059.6,-183401.4,-375000,-375000,-151346.7,-176832.4,0.05,0.00,0.88,-4,0,-2,54,0
'[12:41:01.368 20/01/2026]',-97379.93,-184645.4,-122057.3,-183472,-375000,-375000,-151340.6,-176855,0.05,-0.02,0.88,-4,0,-2,54,0
'[12:41:01.372 20/01/2026]',-97375.1,-184646.8,-122069.5,-183301.3,-375000,-375000,-151311.6,-176710.6,0.05,-0.02,0.88,-4,0,-2,54,0
'[12:41:01.376 20/01/2026]',-97373.36,-184642.3,-122055.8,-183162,-375000,-375000,-151281.5,-176609.9,0.05,-0.02,0.88,-4,0,-2,54,0
'[12:41:01.380 20/01/2026]',-97357.53,-184623.9,-122020.6,-183296,-375000,-375000,-151304.8,-176785.3,0.05,-0.02,0.88,-4,0,-2,54,0
'[12:41:01.384 20/01/2026]',-97336.3,-184596.1,-122005.6,-183410.2,-375000,-375000,-151301.6,-176846.7,0.05,-0.02,0.88,-4,0,-2,54,0
'[12:41:01.388 20/01/2026]',-97335.49,-184599.6,-122017.7,-183248.1,-375000,-375000,-151264.5,-176685,0.05,-0.02,0.88,-4,0,-2,54,0
'[12:41:01.392 20/01/2026]',-97340.15,-184622.3,-122024.7,-183093.5,-375000,-375000,-151254.5,-176584,0.05,-0.02,0.88,-4,0,-2,54,0
'[12:41:01.396 20/01/2026]',-97296.73,-184578.3,-121955.6,-183177,-375000,-375000,-151239.8,-176705.6,0.05,-0.02,0.88,-4,0,-2,54,0
'[12:41:01.400 20/01/2026]',-97259.01,-184549.4,-121923.1,-183329.4,-375000,-375000,-151214.8,-176774.9,0.05,-0.02,0.88,-4,0,-2,54,0
'[12:41:01.404 20/01/2026]',-97276.27,-184549.9,-121961.3,-183252.8,-375000,-375000,-151198,-176660.3,0.05,0.00,0.88,-4,0,-2,54,0
'[12:41:01.408 20/01/2026]',-97305.5,-184587,-121992.8,-183074.1,-375000,-375000,-151190.5,-176523.6,0.05,0.00,0.88,-4,0,-2,54,0
'[12:41:01.412 20/01/2026]',-97312.02,-184581.5,-121966.6,-183118.3,-375000,-375000,-151199.1,-176622.9,0.05,0.00,0.88,-4,0,-2,54,0
'[12:41:01.416 20/01/2026]',-97313.99,-184571,-121970,-183297.4,-375000,-375000,-151213.1,-176756.3,0.05,0.00,0.88,-4,0,-2,54,0
'[12:41:01.420 20/01/2026]',-97324.99,-184564.9,-121975.1,-183233.8,-375000,-375000,-151185.5,-176653.4,0.05,0.00,0.88,-4,0,-2,54,0
'[12:41:01.424 20/01/2026]',-97338.4,-184549.2,-121998.6,-183049.3,-375000,-375000,-151146.2,-176493.4,0.05,0.00,0.88,-4,0,-2,54,0
'[12:41:01.428 20/01/2026]',-97357.58,-184580.7,-121940.3,-183045.8,-375000,-375000,-151138.5,-176539.8,0.05,0.00,0.88,-4,0,-2,54,0
'[12:41:01.432 20/01/2026]',-97348.37,-184566.9,-121875,-183224.4,-375000,-375000,-151136,-176689.1,0.05,0.00,0.88,-4,0,-2,54,0
'[12:41:01.436 20/01/2026]',-97327.49,-184543.9,-121878.1,-183217.7,-375000,-375000,-151113.2,-176622,0.05,0.00,0.88,-4,0,-2,54,0
'[12:41:01.440 20/01/2026]',-97330.49,-184540.9,-121898,-182982.1,-375000,-375000,-151078.4,-176435.9,0.03,0.00,0.88,-4,0,-2,54,0
'[12:41:01.444 20/01/2026]',-97289.77,-184530.3,-121889.8,-182926.7,-375000,-375000,-151078.9,-176448.9,0.03,0.00,0.88,-4,0,-2,54,0
'[12:41:01.448 20/01/2026]',-97217.88,-184499.8,-121869.3,-183129.8,-375000,-375000,-151093.2,-176628.4,0.03,0.00,0.88,-4,0,-2,54,0
'[12:41:01.452 20/01/2026]',-97251.63,-184452.3,-121838.9,-183172.8,-375000,-375000,-151066.5,-176585.6,0.03,0.00,0.88,-4,0,-2,54,0
'[12:41:01.456 20/01/2026]',-97294.32,-184457.9,-121835,-182954,-375000,-375000,-151040.6,-176413.9,0.03,0.00,0.88,-4,0,-2,54,0
'[12:41:01.460 20/01/2026]',-97249.93,-184466.8,-121808.4,-182866,-375000,-375000,-151023.5,-176383.9,0.03,0.00,0.88,-4,0,-2,54,0
'[12:41:01.464 20/01/2026]',-97171.3,-184412.9,-121777.4,-183033.3,-375000,-375000,-151035.6,-176561.2,0.03,0.00,0.88,-4,0,-2,54,0
'[12:41:01.468 20/01/2026]',-97136.61,-184378.3,-121749.6,-183099.3,-375000,-375000,-151004.1,-176547.1,0.03,0.00,0.88,-4,0,-2,54,0
'[12:41:01.472 20/01/2026]',-97163.34,-184372.8,-121756.7,-182888.9,-375000,-375000,-150982.9,-176373.9,0.03,0.00,0.88,-4,0,-2,54,0
'[12:41:01.476 20/01/2026]',-97159.99,-184379.8,-121746.4,-182762.8,-375000,-375000,-150971,-176316.5,0.06,-0.02,0.88,-4,0,-2,54,0
'[12:41:01.480 20/01/2026]',-97101.25,-184355.9,-121711.7,-182985.5,-375000,-375000,-150986.5,-176520.3,0.06,-0.02,0.88,-4,0,-2,54,0
'[12:41:01.484 20/01/2026]',-97057.53,-184307,-121668,-183088.2,-375000,-375000,-150941.8,-176517.8,0.06,-0.02,0.88,-4,0,-2,54,0
'[12:41:01.488 20/01/2026]',-97075.27,-184310,-121681.4,-182903.1,-375000,-375000,-150921.9,-176364.8,0.06,-0.02,0.88,-4,0,-2,54,0
'[12:41:01.492 20/01/2026]',-97039.24,-184303.6,-121689.7,-182715.4,-375000,-375000,-150897.3,-176246.4,0.06,-0.02,0.88,-4,0,-2,54,0
'[12:41:01.496 20/01/2026]',-96985.6,-184250.9,-121650.8,-182834.8,-375000,-375000,-150906.4,-176393,0.06,-0.02,0.88,-4,0,-2,54,0
'[12:41:01.500 20/01/2026]',-96965.8,-184228.2,-121607.7,-182995.7,-375000,-375000,-150900.8,-176477.9,0.06,-0.02,0.88,-4,0,-2,54,0
'[12:41:01.504 20/01/2026]',-96965.17,-184218.9,-121616.1,-182867.4,-375000,-375000,-150878.8,-176347.1,0.06,-0.02,0.88,-4,0,-2,54,0
'[12:41:01.508 20/01/2026]',-96936.3,-184202.4,-121638.8,-182663.6,-375000,-375000,-150855.8,-176203.7,0.06,-0.02,0.88,-4,0,-2,54,0
'[12:41:01.512 20/01/2026]',-96897.31,-184164.5,-121612.4,-182723.2,-375000,-375000,-150870.5,-176334.1,0.06,0.00,0.88,-4,0,-2,54,0
'[12:41:01.516 20/01/2026]',-96867.98,-184124.4,-121536.9,-182883.5,-375000,-375000,-150832.4,-176409.5,0.06,0.00,0.88,-4,0,-2,54,0
'[12:41:01.520 20/01/2026]',-96863.78,-184139.5,-121534.1,-182811.2,-375000,-375000,-150799.9,-176286.5,0.06,0.00,0.88,-4,0,-2,54,0
'[12:41:01.524 20/01/2026]',-96864.32,-184161.9,-121551.3,-182580.3,-375000,-375000,-150770.6,-176123.3,0.06,0.00,0.88,-4,0,-2,54,0
'[12:41:01.528 20/01/2026]',-96878.72,-184150.6,-121543.6,-182593.5,-375000,-375000,-150789.4,-176205,0.06,0.00,0.88,-4,0,-2,54,0
'[12:41:01.532 20/01/2026]',-96881.45,-184147.4,-121526.9,-182803.4,-375000,-375000,-150819.2,-176378.5,0.06,0.00,0.88,-4,0,-2,54,0
'[12:41:01.536 20/01/2026]',-96881.48,-184134.8,-121516.8,-182777,-375000,-375000,-150792.3,-176305.9,0.06,0.00,0.88,-4,0,-2,54,0
'[12:41:01.540 20/01/2026]',-96839.06,-184099.7,-121503,-182533,-375000,-375000,-150732.7,-176119.5,0.06,0.00,0.88,-4,0,-2,54,0
'[12:41:01.544 20/01/2026]',-96773.93,-184054,-121466.4,-182512.8,-375000,-375000,-150710.1,-176142.6,0.06,0.00,0.88,-4,0,-2,54,0
'[12:41:01.548 20/01/2026]',-96715.59,-184000.5,-121422.3,-182705.3,-375000,-375000,-150699.6,-176286.9,0.05,0.00,0.88,-4,0,-2,54,0
'[12:41:01.552 20/01/2026]',-96704.33,-183978.6,-121406.5,-182717.1,-375000,-375000,-150668.3,-176226.8,0.05,0.00,0.88,-4,0,-2,54,0
'[12:41:01.556 20/01/2026]',-96731.15,-183983,-121429.3,-182462.9,-375000,-375000,-150660.9,-176071.3,0.05,0.00,0.88,-4,0,-2,54,0
'[12:41:01.560 20/01/2026]',-96712.91,-183989.9,-121418.2,-182433.8,-375000,-375000,-150660.2,-176085.1,0.05,0.00,0.88,-4,0,-2,54,0
'[12:41:01.564 20/01/2026]',-96678.94,-183961.6,-121359,-182573,-375000,-375000,-150640.5,-176205.5,0.05,0.00,0.88,-4,0,-2,54,0
'[12:41:01.568 20/01/2026]',-96648.49,-183913.3,-121301.6,-182635.2,-375000,-375000,-150595.5,-176180.3,0.05,0.00,0.88,-4,0,-2,54,0
'[12:41:01.572 20/01/2026]',-96652.7,-183904.6,-121326.4,-182469,-375000,-375000,-150578.5,-176028.5,0.05,0.00,0.88,-4,0,-2,54,0
'[12:41:01.576 20/01/2026]',-96624.17,-183897.8,-121315.7,-182344.7,-375000,-375000,-150550.6,-175940.3,0.05,0.00,0.88,-4,0,-2,54,0
'[12:41:01.580 20/01/2026]',-96585.2,-183879.2,-121284,-182497.8,-375000,-375000,-150561.1,-176089.5,0.05,0.00,0.88,-4,0,-2,54,0
'[12:41:01.584 20/01/2026]',-96540.71,-183831.2,-121250.3,-182596,-375000,-375000,-150531.1,-176095.5,0.03,-0.02,0.88,-4,0,-2,54,0
'[12:41:01.588 20/01/2026]',-96538.92,-183832.5,-121279.3,-182430.1,-375000,-375000,-150513.5,-175954.1,0.03,-0.02,0.88,-4,0,-2,54,0
'[12:41:01.592 20/01/2026]',-96525.29,-183832,-121279.6,-182254.8,-375000,-375000,-150481.7,-175845,0.03,-0.02,0.88,-4,0,-2,54,0
'[12:41:01.596 20/01/2026]',-96501.82,-183812.4,-121235.1,-182391.8,-375000,-375000,-150497.9,-175993.5,0.03,-0.02,0.88,-4,0,-2,54,0
'[12:41:01.600 20/01/2026]',-96506.42,-183768.4,-121197.2,-182535.3,-375000,-375000,-150475,-176039.1,0.03,-0.02,0.88,-4,0,-2,54,0
'[12:41:01.604 20/01/2026]',-96532.09,-183788,-121237.7,-182425.5,-375000,-375000,-150468.5,-175920.4,0.03,-0.02,0.88,-4,0,-2,54,0
'[12:41:01.608 20/01/2026]',-96530.74,-183785.6,-121212.2,-182247.4,-375000,-375000,-150434,-175778.4,0.03,-0.02,0.88,-4,0,-2,54,0
'[12:41:01.612 20/01/2026]',-96501.91,-183768.1,-121179.9,-182362.8,-375000,-375000,-150444.7,-175900.9,0.03,-0.02,0.88,-4,0,-2,54,0
'[12:41:01.616 20/01/2026]',-96455.2,-183747.7,-121162.2,-182561.6,-375000,-375000,-150437.2,-175983.8,0.03,-0.02,0.88,-4,0,-2,54,0
'[12:41:01.620 20/01/2026]',-96439.73,-183721.4,-121153.5,-182488.2,-375000,-375000,-150397.9,-175853.4,0.05,0.00,0.88,-4,0,-2,54,0
'[12:41:01.624 20/01/2026]',-96450.81,-183719.2,-121168.8,-182270.2,-375000,-375000,-150372.1,-175664.5,0.05,0.00,0.88,-4,0,-2,54,0
'[12:41:01.628 20/01/2026]',-96437.98,-183710.8,-121154.9,-182344.5,-375000,-375000,-150397.4,-175740.7,0.05,0.00,0.88,-4,0,-2,54,0
'[12:41:01.632 20/01/2026]',-96416.3,-183689.5,-121135.9,-182565.6,-375000,-375000,-150400.4,-175837.8,0.05,0.00,0.88,-4,0,-2,54,0
'[12:41:01.636 20/01/2026]',-96394.17,-183686,-121141.9,-182534.1,-375000,-375000,-150370.4,-175740,0.05,0.00,0.88,-4,0,-2,54,0
'[12:41:01.640 20/01/2026]',-96387.2,-183672.1,-121153.6,-182335.8,-375000,-375000,-150333,-175570.3,0.05,0.00,0.88,-4,0,-2,54,0
'[12:41:01.644 20/01/2026]',-96393.73,-183673,-121116.4,-182272.2,-375000,-375000,-150328.8,-175574.4,0.05,0.00,0.88,-4,0,-2,54,0
'[12:41:01.648 20/01/2026]',-96360.83,-183640.7,-121070.3,-182493.5,-375000,-375000,-150337.8,-175773.3,0.05,0.00,0.88,-4,0,-2,54,0
'[12:41:01.652 20/01/2026]',-96331.14,-183631.7,-121057,-182547.9,-375000,-375000,-150311.5,-175764.1,0.05,0.00,0.88,-4,0,-2,54,0
'[12:41:01.656 20/01/2026]',-96358.45,-183656.3,-121096.1,-182317.8,-375000,-375000,-150306.4,-175612.5,0.03,-0.02,0.89,-4,0,-2,54,0
'[12:41:01.660 20/01/2026]',-96345.9,-183645.6,-121087.5,-182216.3,-375000,-375000,-150307.8,-175602.7,0.03,-0.02,0.89,-4,0,-2,54,0
'[12:41:01.664 20/01/2026]',-96329.94,-183624.1,-121040.2,-182421.7,-375000,-375000,-150322.5,-175784.5,0.03,-0.02,0.89,-4,0,-2,54,0
'[12:41:01.668 20/01/2026]',-96331.59,-183608.3,-121046.1,-182494.7,-375000,-375000,-150315,-175798.3,0.03,-0.02,0.89,-4,0,-2,54,0
'[12:41:01.672 20/01/2026]',-96316.84,-183579.9,-121056.6,-182277.4,-375000,-375000,-150273.4,-175624.2,0.03,-0.02,0.89,-4,0,-2,54,0
'[12:41:01.676 20/01/2026]',-96278.44,-183570.9,-121037,-182148.9,-375000,-375000,-150242.1,-175549.8,0.03,-0.02,0.89,-4,0,-2,54,0
'[12:41:01.680 20/01/2026]',-96245.45,-183563.4,-121012,-182345.4,-375000,-375000,-150274,-175743.4,0.03,-0.02,0.89,-4,0,-2,54,0
'[12:41:01.684 20/01/2026]',-96255.19,-183554.4,-120973.8,-182452,-375000,-375000,-150250.8,-175759.3,0.03,-0.02,0.89,-4,0,-2,54,0
'[12:41:01.688 20/01/2026]',-96311.43,-183562.9,-120978.5,-182262.2,-375000,-375000,-150236,-175616.9,0.03,-0.02,0.89,-4,0,-2,54,0
'[12:41:01.692 20/01/2026]',-96296.77,-183554.1,-120971.8,-182106.3,-375000,-375000,-150209.7,-175530.6,0.05,0.00,0.89,-4,0,-2,54,0
'[12:41:01.696 20/01/2026]',-96228.55,-183520.2,-120939.9,-182217.3,-375000,-375000,-150211.9,-175664,0.05,0.00,0.89,-4,0,-2,54,0
'[12:41:01.700 20/01/2026]',-96178.03,-183492.2,-120912.8,-182381,-375000,-375000,-150183.9,-175731.2,0.05,0.00,0.89,-4,0,-2,54,0
'[12:41:01.704 20/01/2026]',-96175.62,-183474.4,-120918.6,-182233.8,-375000,-375000,-150148.5,-175589.9,0.05,0.00,0.89,-4,0,-2,54,0
'[12:41:01.708 20/01/2026]',-96184.07,-183473,-120915.1,-182034.3,-375000,-375000,-150131.8,-175469.7,0.05,0.00,0.89,-4,0,-2,54,0
'[12:41:01.712 20/01/2026]',-96167.88,-183451.1,-120865.6,-182138.4,-375000,-375000,-150140.3,-175603.6,0.05,0.00,0.89,-4,0,-2,54,0
'[12:41:01.716 20/01/2026]',-96145.13,-183445,-120847.6,-182312.8,-375000,-375000,-150140.8,-175704.4,0.05,0.00,0.89,-4,0,-2,54,0
'[12:41:01.720 20/01/2026]',-96156.89,-183436,-120858.7,-182194.5,-375000,-375000,-150116.4,-175576.9,0.05,0.00,0.89,-4,0,-2,54,0
'[12:41:01.724 20/01/2026]',-96147.55,-183440.4,-120895.1,-182029.6,-375000,-375000,-150104.3,-175459.7,0.05,0.00,0.89,-4,0,-2,54,0
'[12:41:01.728 20/01/2026]',-96109.32,-183415.7,-120865.5,-182064,-375000,-375000,-150094.2,-175515.5,0.05,0.00,0.88,-4,0,-2,54,0
'[12:41:01.732 20/01/2026]',-96113.03,-183400.8,-120833,-182240,-375000,-375000,-150100.6,-175647.5,0.05,0.00,0.88,-4,0,-2,54,0
'[12:41:01.736 20/01/2026]',-96132.03,-183394.7,-120834.5,-182214,-375000,-375000,-150083,-175586.8,0.05,0.00,0.88,-4,0,-2,54,0
'[12:41:01.740 20/01/2026]',-96128.45,-183389.3,-120846.9,-181959.8,-375000,-375000,-150052.9,-175418.5,0.05,0.00,0.88,-4,0,-2,54,0
'[12:41:01.744 20/01/2026]',-96086.52,-183361.4,-120811,-181922.9,-375000,-375000,-150040.1,-175441.7,0.05,0.00,0.88,-4,0,-2,54,0
'[12:41:01.748 20/01/2026]',-96055.41,-183324.4,-120758.6,-182130,-375000,-375000,-150036.3,-175592.5,0.05,0.00,0.88,-4,0,-2,54,0
'[12:41:01.752 20/01/2026]',-96047.01,-183321.2,-120745.3,-182171.1,-375000,-375000,-150013.5,-175551,0.05,0.00,0.88,-4,0,-2,54,0
'[12:41:01.756 20/01/2026]',-96071.02,-183330.3,-120744.2,-181900.1,-375000,-375000,-149983.9,-175362.3,0.05,0.00,0.88,-4,0,-2,54,0
'[12:41:01.760 20/01/2026]',-96041.87,-183315.5,-120730.2,-181848.2,-375000,-375000,-149974.7,-175368.4,0.05,0.00,0.88,-4,0,-2,54,0
'[12:41:01.764 20/01/2026]',-95998.1,-183282.8,-120702,-182042.3,-375000,-375000,-149997.7,-175551.6,0.05,-0.02,0.88,-4,0,-2,54,0
'[12:41:01.768 20/01/2026]',-95985.98,-183272.5,-120702.5,-182140.4,-375000,-375000,-149987.7,-175552,0.05,-0.02,0.88,-4,0,-2,54,0
'[12:41:01.772 20/01/2026]',-96010.93,-183307.5,-120766.1,-181938.8,-375000,-375000,-149993.8,-175404.7,0.05,-0.02,0.88,-4,0,-2,54,0
'[12:41:01.776 20/01/2026]',-95982.37,-183287.7,-120753.3,-181783.9,-375000,-375000,-149970.3,-175331.7,0.05,-0.02,0.88,-4,0,-2,54,0
'[12:41:01.780 20/01/2026]',-95979.33,-183251.9,-120692.4,-181948.1,-375000,-375000,-149973.6,-175482.3,0.05,-0.02,0.88,-4,0,-2,54,0
'[12:41:01.784 20/01/2026]',-95972.04,-183220.9,-120654.3,-182056.9,-375000,-375000,-149952,-175502.6,0.05,-0.02,0.88,-4,0,-2,54,0
'[12:41:01.788 20/01/2026]',-95965.7,-183239.5,-120675.4,-181874.7,-375000,-375000,-149925.7,-175350.8,0.05,-0.02,0.88,-4,0,-2,54,0
'[12:41:01.792 20/01/2026]',-95936.91,-183237.2,-120664.3,-181680,-375000,-375000,-149893.5,-175236.8,0.05,-0.02,0.88,-4,0,-2,54,0
'[12:41:01.796 20/01/2026]',-95912.98,-183198.8,-120621.5,-181862.9,-375000,-375000,-149889.7,-175379.7,0.05,-0.02,0.88,-4,0,-2,54,0
'[12:41:01.800 20/01/2026]',-95891.3,-183179.9,-120612.6,-182051.5,-375000,-375000,-149883.4,-175437.8,0.05,0.00,0.88,-4,0,-2,54,0
'[12:41:01.804 20/01/2026]',-95904.31,-183207.1,-120642.1,-181915,-375000,-375000,-149873.7,-175304.4,0.05,0.00,0.88,-4,0,-2,54,0
'[12:41:01.808 20/01/2026]',-95894.39,-183197,-120633.2,-181685.4,-375000,-375000,-149837.3,-175147.8,0.05,0.00,0.88,-4,0,-2,54,0
'[12:41:01.812 20/01/2026]',-95865.87,-183162.4,-120607.1,-181766.1,-375000,-375000,-149857.7,-175276.4,0.05,0.00,0.88,-4,0,-2,54,0
'[12:41:01.816 20/01/2026]',-95855.77,-183134.6,-120570.2,-181940.7,-375000,-375000,-149855.8,-175370.4,0.05,0.00,0.88,-4,0,-2,54,0
'[12:41:01.820 20/01/2026]',-95867.75,-183129.7,-120555.9,-181843.6,-375000,-375000,-149812.5,-175224.6,0.05,0.00,0.88,-4,0,-2,54,0
'[12:41:01.824 20/01/2026]',-95886.16,-183124.3,-120545.1,-181594,-375000,-375000,-149765.7,-175038.1,0.05,0.00,0.88,-4,0,-2,54,0
'[12:41:01.828 20/01/2026]',-95876.59,-183112.8,-120539.4,-181645.4,-375000,-375000,-149788,-175126.1,0.05,0.00,0.88,-4,0,-2,54,0
'[12:41:01.832 20/01/2026]',-95832.43,-183080.8,-120523.1,-181842.7,-375000,-375000,-149797.9,-175261.1,0.05,0.00,0.88,-4,0,-2,54,0
'[12:41:01.836 20/01/2026]',-95807.66,-183068.7,-120525.8,-181777.8,-375000,-375000,-149769.1,-175159,0.05,0.00,0.89,-4,0,-2,54,0
'[12:41:01.840 20/01/2026]',-95799.22,-183082.3,-120538.8,-181533.1,-375000,-375000,-149748.3,-174994.3,0.05,0.00,0.89,-4,0,-2,54,0
'[12:41:01.844 20/01/2026]',-95804.4,-183079,-120527.7,-181527.5,-375000,-375000,-149762,-175054,0.05,0.00,0.89,-4,0,-2,54,0
'[12:41:01.848 20/01/2026]',-95796.18,-183051.7,-120492.3,-181792.1,-375000,-375000,-149774.4,-175246.7,0.05,0.00,0.89,-4,0,-2,54,0
'[12:41:01.852 20/01/2026]',-95782.59,-183041.2,-120489.9,-181770.4,-375000,-375000,-149744.3,-175170.3,0.05,0.00,0.89,-4,0,-2,54,0
'[12:41:01.856 20/01/2026]',-95768.55,-183048.3,-120516,-181490.8,-375000,-375000,-149709.3,-174970.4,0.05,0.00,0.89,-4,0,-2,54,0
'[12:41:01.860 20/01/2026]',-95762.11,-183052.1,-120517.7,-181436.6,-375000,-375000,-149713.4,-174987,0.05,0.00,0.89,-4,0,-2,54,0
'[12:41:01.864 20/01/2026]',-95763.01,-183033.1,-120487.7,-181670.6,-375000,-375000,-149741.3,-175189.1,0.05,0.00,0.89,-4,0,-2,54,0
'[12:41:01.868 20/01/2026]',-95749.64,-183006.3,-120445,-181720.1,-375000,-375000,-149705.8,-175163.7,0.05,0.00,0.89,-4,0,-2,54,0
'[12:41:01.872 20/01/2026]',-95766.23,-183014.8,-120454.3,-181478.4,-375000,-375000,-149664,-174936.5,0.03,0.00,0.88,-4,0,-2,54,0
'[12:41:01.876 20/01/2026]',-95780.84,-183025.7,-120465.8,-181343.8,-375000,-375000,-149667.4,-174891.9,0.03,0.00,0.88,-4,0,-2,54,0
'[12:41:01.880 20/01/2026]',-95731.89,-182976.5,-120409.1,-181533.5,-375000,-375000,-149663.6,-175061.2,0.03,0.00,0.88,-4,0,-2,54,0
'[12:41:01.884 20/01/2026]',-95699.08,-182951.9,-120403.1,-181684,-375000,-375000,-149648.5,-175072.6,0.03,0.00,0.88,-4,0,-2,54,0
'[12:41:01.888 20/01/2026]',-95711.33,-182980.5,-120446.4,-181507.8,-375000,-375000,-149649.8,-174906.4,0.03,0.00,0.88,-4,0,-2,54,0
'[12:41:01.892 20/01/2026]',-95727.11,-182982.3,-120447.6,-181307.6,-375000,-375000,-149631.6,-174799.2,0.03,0.00,0.88,-4,0,-2,54,0
'[12:41:01.896 20/01/2026]',-95743.16,-182961.4,-120399.9,-181447,-375000,-375000,-149647,-174955.4,0.03,0.00,0.88,-4,0,-2,54,0
'[12:41:01.900 20/01/2026]',-95729.16,-182950.9,-120363.1,-181619.1,-375000,-375000,-149640.7,-175052.4,0.03,0.00,0.88,-4,0,-2,54,0
'[12:41:01.904 20/01/2026]',-95717.41,-182943,-120375.6,-181468.3,-375000,-375000,-149611.4,-174900.4,0.03,0.00,0.88,-4,0,-2,54,0
'[12:41:01.908 20/01/2026]',-95687.45,-182932.2,-120385.2,-181242.3,-375000,-375000,-149576,-174732.7,0.05,0.00,0.88,-4,0,-2,54,0
'[12:41:01.912 20/01/2026]',-95663.05,-182927.7,-120362.4,-181382.8,-375000,-375000,-149593.7,-174881.6,0.05,0.00,0.88,-4,0,-2,54,0
'[12:41:01.916 20/01/2026]',-95626.44,-182925,-120340.1,-181618.6,-375000,-375000,-149588.2,-174992.4,0.05,0.00,0.88,-4,0,-2,54,0
'[12:41:01.920 20/01/2026]',-95653.35,-182921.2,-120336.4,-181546.5,-375000,-375000,-149572.3,-174891.5,0.05,0.00,0.88,-4,0,-2,54,0
'[12:41:01.924 20/01/2026]',-95664.52,-182900.8,-120316.4,-181329.3,-375000,-375000,-149524.8,-174717.7,0.05,0.00,0.88,-4,0,-2,54,0
'[12:41:01.928 20/01/2026]',-95649.86,-182886.9,-120294.1,-181413.1,-375000,-375000,-149529.3,-174826.4,0.05,0.00,0.88,-4,0,-2,54,0
'[12:41:01.932 20/01/2026]',-95603.05,-182870.6,-120255,-181644.4,-375000,-375000,-149517.3,-174970.8,0.05,0.00,0.88,-4,0,-2,54,0
'[12:41:01.936 20/01/2026]',-95610.52,-182874,-120269.5,-181631.1,-375000,-375000,-149508.9,-174940.6,0.05,0.00,0.88,-4,0,-2,54,0
'[12:41:01.940 20/01/2026]',-95638.15,-182892.8,-120296.6,-181371.2,-375000,-375000,-149492,-174792.6,0.05,0.00,0.88,-4,0,-2,54,0
'[12:41:01.944 20/01/2026]',-95623.04,-182878.1,-120288.7,-181401.7,-375000,-375000,-149497,-174863.4,0.03,-0.02,0.88,-4,0,-2,54,0
'[12:41:01.948 20/01/2026]',-95580.84,-182849.4,-120244.2,-181695.2,-375000,-375000,-149487.8,-175045.6,0.03,-0.02,0.88,-4,0,-2,54,0
'[12:41:01.952 20/01/2026]',-95544.05,-182845.4,-120255.4,-181742.1,-375000,-375000,-149459.9,-174979.4,0.03,-0.02,0.88,-4,0,-2,54,0
'[12:41:01.956 20/01/2026]',-95592.06,-182887.2,-120308.1,-181554.1,-375000,-375000,-149462.1,-174826,0.03,-0.02,0.88,-4,0,-2,54,0
'[12:41:01.960 20/01/2026]',-95669.3,-182890.5,-120282.8,-181524.8,-375000,-375000,-149442.1,-174814.4,0.03,-0.02,0.88,-4,0,-2,54,0
'[12:41:01.964 20/01/2026]',-95666.36,-182866.3,-120256.9,-181768.1,-375000,-375000,-149456.4,-174994.7,0.03,-0.02,0.88,-4,0,-2,54,0
'[12:41:01.968 20/01/2026]',-95634.26,-182856.7,-120259.9,-181812.3,-375000,-375000,-149433.5,-174955.8,0.03,-0.02,0.88,-4,0,-2,54,0
'[12:41:01.972 20/01/2026]',-95617.45,-182869,-120272.4,-181606.3,-375000,-375000,-149400.9,-174789.5,0.03,-0.02,0.88,-4,0,-2,54,0
'[12:41:01.976 20/01/2026]',-95620.13,-182856.3,-120262.4,-181551.2,-375000,-375000,-149395,-174758.4,0.03,-0.02,0.88,-4,0,-2,54,0
'[12:41:01.980 20/01/2026]',-95627.6,-182815.4,-120224.7,-181747.1,-375000,-375000,-149405.8,-174931.3,0.05,0.00,0.89,-4,0,-2,54,0
'[12:41:01.984 20/01/2026]',-95651.43,-182827,-120207.3,-181859.9,-375000,-375000,-149399.9,-174948.7,0.05,0.00,0.89,-4,0,-2,54,0
'[12:41:01.988 20/01/2026]',-95686.25,-182857.6,-120207.5,-181685.2,-375000,-375000,-149374,-174794.4,0.05,0.00,0.89,-4,0,-2,54,0
'[12:41:01.992 20/01/2026]',-95671.9,-182872.8,-120231.8,-181529.1,-375000,-375000,-149374.2,-174717.4,0.05,0.00,0.89,-4,0,-2,54,0
'[12:41:01.996 20/01/2026]',-95619.69,-182834.5,-120218.9,-181702.9,-375000,-375000,-149407.5,-174915.5,0.05,0.00,0.89,-4,0,-2,54,0
'[12:41:02.000 20/01/2026]',-95577.27,-182795.8,-120215.4,-181890.2,-375000,-375000,-149408.7,-174967.3,0.05,0.00,0.89,-4,0,-2,54,0
'[12:41:02.004 20/01/2026]',-95547.85,-182768.6,-120189.2,-181708.5,-375000,-375000,-149358.8,-174785.9,0.05,0.00,0.89,-4,0,-2,54,0
'[12:41:02.008 20/01/2026]',-95530.1,-182756.6,-120178,-181469.6,-375000,-375000,-149316.8,-174645.8,0.05,0.00,0.89,-4,0,-2,54,0
'[12:41:02.012 20/01/2026]',-95511.05,-182720.9,-120134.8,-181567,-375000,-375000,-149325.6,-174793.4,0.05,0.00,0.89,-4,0,-2,54,0
'[12:41:02.016 20/01/2026]',-95463.98,-182672,-120104.2,-181698.4,-375000,-375000,-149318.1,-174863.5,0.05,0.00,0.88,-4,0,-2,54,0
'[12:41:02.020 20/01/2026]',-95452.23,-182676.4,-120123.4,-181564.1,-375000,-375000,-149307.7,-174742.2,0.05,0.00,0.88,-4,0,-2,54,0
'[12:41:02.024 20/01/2026]',-95468.19,-182674,-120132.6,-181264,-375000,-375000,-149281.4,-174561.9,0.05,0.00,0.88,-4,0,-2,54,0
'[12:41:02.028 20/01/2026]',-95428.36,-182674.2,-120099.1,-181288.3,-375000,-375000,-149291.5,-174674.5,0.05,0.00,0.88,-4,0,-2,54,0
'[12:41:02.032 20/01/2026]',-95397.33,-182646.6,-120069.6,-181461.7,-375000,-375000,-149290.2,-174802,0.05,0.00,0.88,-4,0,-2,54,0
'[12:41:02.036 20/01/2026]',-95387.9,-182617.9,-120058.2,-181355.1,-375000,-375000,-149254.8,-174701.7,0.05,0.00,0.88,-4,0,-2,54,0
'[12:41:02.040 20/01/2026]',-95393.48,-182596.3,-120056,-181065.3,-375000,-375000,-149214.7,-174528.5,0.05,0.00,0.88,-4,0,-2,54,0
'[12:41:02.044 20/01/2026]',-95388.93,-182577.3,-120023.2,-181043.7,-375000,-375000,-149225.8,-174610.2,0.05,0.00,0.88,-4,0,-2,54,0
'[12:41:02.048 20/01/2026]',-95339.98,-182552.1,-119978.3,-181250.4,-375000,-375000,-149234.8,-174788.7,0.05,0.00,0.88,-4,0,-2,54,0
'[12:41:02.052 20/01/2026]',-95310.34,-182522.5,-119973.7,-181259.8,-375000,-375000,-149196.9,-174712,0.05,-0.02,0.89,-4,0,-2,54,0
'[12:41:02.056 20/01/2026]',-95300.91,-182526.4,-119993,-181015,-375000,-375000,-149164.8,-174522.4,0.05,-0.02,0.89,-4,0,-2,54,0
'[12:41:02.060 20/01/2026]',-95295.05,-182531.1,-119985.4,-180993.1,-375000,-375000,-149170.2,-174557,0.05,-0.02,0.89,-4,0,-2,54,0
'[12:41:02.064 20/01/2026]',-95272.97,-182502.2,-119955.4,-181246.3,-375000,-375000,-149189.6,-174744.5,0.05,-0.02,0.89,-4,0,-2,54,0
'[12:41:02.068 20/01/2026]',-95278.55,-182512,-119964.4,-181313.4,-375000,-375000,-149186.4,-174719.6,0.05,-0.02,0.89,-4,0,-2,54,0
'[12:41:02.072 20/01/2026]',-95284.63,-182513.4,-119972.8,-181078.9,-375000,-375000,-149156.3,-174530.5,0.05,-0.02,0.89,-4,0,-2,54,0
'[12:41:02.076 20/01/2026]',-95246.59,-182481.8,-119971.7,-180971.8,-375000,-375000,-149142.2,-174492,0.05,-0.02,0.89,-4,0,-2,54,0
'[12:41:02.080 20/01/2026]',-95217.94,-182460.3,-119928.3,-181205.6,-375000,-375000,-149158.4,-174691.6,0.05,-0.02,0.89,-4,0,-2,54,0
'[12:41:02.084 20/01/2026]',-95222.09,-182470.7,-119902.1,-181344.5,-375000,-375000,-149137.7,-174718.9,0.05,-0.02,0.89,-4,0,-2,54,0
'[12:41:02.088 20/01/2026]',-95233.23,-182463.6,-119910.5,-181162.1,-375000,-375000,-149104.8,-174555.7,0.05,0.00,0.88,-4,0,-2,54,0
'[12:41:02.092 20/01/2026]',-95220.88,-182454.9,-119900.4,-181068.7,-375000,-375000,-149083.3,-174471.1,0.05,0.00,0.88,-4,0,-2,54,0
'[12:41:02.096 20/01/2026]',-95184.23,-182432.2,-119897,-181270.7,-375000,-375000,-149120.8,-174648.4,0.05,0.00,0.88,-4,0,-2,54,0
'[12:41:02.100 20/01/2026]',-95184.54,-182420.5,-119911.7,-181456.3,-375000,-375000,-149140.1,-174725.9,0.05,0.00,0.88,-4,0,-2,54,0
'[12:41:02.104 20/01/2026]',-95191.02,-182427.5,-119915.4,-181303.4,-375000,-375000,-149112.9,-174566.2,0.05,0.00,0.88,-4,0,-2,54,0
'[12:41:02.108 20/01/2026]',-95193.8,-182434,-119887.9,-181078.9,-375000,-375000,-149075.4,-174406,0.05,0.00,0.88,-4,0,-2,54,0
'[12:41:02.112 20/01/2026]',-95166.39,-182403.2,-119860.6,-181215.2,-375000,-375000,-149086.4,-174556.9,0.05,0.00,0.88,-4,0,-2,54,0
'[12:41:02.116 20/01/2026]',-95122.67,-182382.3,-119845.9,-181416.3,-375000,-375000,-149089.6,-174665.2,0.05,0.00,0.88,-4,0,-2,54,0
'[12:41:02.120 20/01/2026]',-95129.29,-182370,-119854.9,-181327.3,-375000,-375000,-149064,-174535.8,0.05,0.00,0.88,-4,0,-2,54,0
'[12:41:02.124 20/01/2026]',-95158.48,-182388.6,-119880.7,-181054.1,-375000,-375000,-149055.3,-174360.5,0.03,0.00,0.88,-4,0,-2,54,0
'[12:41:02.128 20/01/2026]',-95157.32,-182378.4,-119844.7,-181130,-375000,-375000,-149070.1,-174490.4,0.03,0.00,0.88,-4,0,-2,54,0
'[12:41:02.132 20/01/2026]',-95119.19,-182330.4,-119794.2,-181337.3,-375000,-375000,-149050.9,-174604,0.03,0.00,0.88,-4,0,-2,54,0
'[12:41:02.136 20/01/2026]',-95080.16,-182313.3,-119802.5,-181281.3,-375000,-375000,-149014,-174498.5,0.03,0.00,0.88,-4,0,-2,54,0
'[12:41:02.140 20/01/2026]',-95073.77,-182337.4,-119848.7,-180991.5,-375000,-375000,-149001.2,-174297.6,0.03,0.00,0.88,-4,0,-2,54,0
'[12:41:02.144 20/01/2026]',-95105.15,-182367.8,-119849.5,-181030.1,-375000,-375000,-149046,-174406.5,0.03,0.00,0.88,-4,0,-2,54,0
'[12:41:02.148 20/01/2026]',-95166.57,-182393.4,-119849.6,-181327.4,-375000,-375000,-149099.2,-174618,0.03,0.00,0.88,-4,0,-2,54,0
'[12:41:02.152 20/01/2026]',-95185.66,-182397.9,-119862,-181311.8,-375000,-375000,-149088,-174536,0.03,0.00,0.88,-4,0,-2,54,0
'[12:41:02.156 20/01/2026]',-95208.1,-182412.5,-119894,-181017.3,-375000,-375000,-149080,-174341.5,0.03,0.00,0.88,-4,0,-2,54,0
'[12:41:02.160 20/01/2026]',-95223.79,-182447.5,-119924.8,-180998.1,-375000,-375000,-149125.9,-174398.5,0.03,-0.02,0.88,-4,0,-2,54,0
'[12:41:02.164 20/01/2026]',-95219.32,-182470.1,-119957.9,-181290.6,-375000,-375000,-149197.3,-174635.3,0.03,-0.02,0.88,-4,0,-2,54,0
'[12:41:02.168 20/01/2026]',-95239.26,-182485.2,-119978.7,-181362,-375000,-375000,-149207.3,-174616.2,0.03,-0.02,0.88,-4,0,-2,54,0
'[12:41:02.172 20/01/2026]',-95285.66,-182511,-120002.9,-181108.4,-375000,-375000,-149193.4,-174425.2,0.03,-0.02,0.88,-4,0,-2,54,0
'[12:41:02.176 20/01/2026]',-95300.86,-182514,-119989.5,-181010.4,-375000,-375000,-149192.3,-174402.8,0.03,-0.02,0.88,-4,0,-2,54,0
'[12:41:02.180 20/01/2026]',-95265.45,-182470.4,-119956.8,-181234.3,-375000,-375000,-149211.3,-174602.4,0.03,-0.02,0.88,-4,0,-2,54,0
'[12:41:02.184 20/01/2026]',-95260.09,-182473.4,-119970.8,-181350,-375000,-375000,-149209.7,-174607.8,0.03,-0.02,0.88,-4,0,-2,54,0
'[12:41:02.188 20/01/2026]',-95301.35,-182517,-120006.2,-181166.1,-375000,-375000,-149202.9,-174454.5,0.03,-0.02,0.88,-4,0,-2,54,0
'[12:41:02.192 20/01/2026]',-95293.35,-182516.5,-119999.4,-181025.6,-375000,-375000,-149178.5,-174362.6,0.03,-0.02,0.88,-4,0,-2,54,0
'[12:41:02.196 20/01/2026]',-95278.33,-182497.6,-119959.7,-181205.1,-375000,-375000,-149200.2,-174539.3,0.05,-0.02,0.89,-4,0,-2,54,0
'[12:41:02.200 20/01/2026]',-95241.31,-182472.8,-119933,-181383.1,-375000,-375000,-149179.5,-174584.2,0.05,-0.02,0.89,-4,0,-2,54,0
'[12:41:02.204 20/01/2026]',-95235.23,-182471.3,-119961.6,-181215.5,-375000,-375000,-149155.5,-174417,0.05,-0.02,0.89,-4,0,-2,54,0
'[12:41:02.208 20/01/2026]',-95219.37,-182459,-119977.4,-181013.3,-375000,-375000,-149141,-174276.6,0.05,-0.02,0.89,-4,0,-2,54,0
'[12:41:02.212 20/01/2026]',-95205.11,-182442.6,-119943.1,-181178.5,-375000,-375000,-149163.1,-174437.6,0.05,-0.02,0.89,-4,0,-2,54,0
'[12:41:02.216 20/01/2026]',-95192.19,-182428.5,-119903.3,-181396.1,-375000,-375000,-149156.4,-174526.2,0.05,-0.02,0.89,-4,0,-2,54,0
'[12:41:02.220 20/01/2026]',-95169.52,-182412,-119886.8,-181328.8,-375000,-375000,-149117.8,-174394.9,0.05,-0.02,0.89,-4,0,-2,54,0
'[12:41:02.224 20/01/2026]',-95172.83,-182398.6,-119895.8,-181115.4,-375000,-375000,-149093.7,-174214,0.05,-0.02,0.89,-4,0,-2,54,0
'[12:41:02.228 20/01/2026]',-95181.19,-182389.9,-119870.7,-181283.2,-375000,-375000,-149132.4,-174349.1,0.05,-0.02,0.89,-4,0,-2,54,0
'[12:41:02.232 20/01/2026]',-95163.98,-182365.3,-119846.2,-181570.4,-375000,-375000,-149147.9,-174482.2,0.05,0.00,0.88,-4,0,-2,54,0
'[12:41:02.236 20/01/2026]',-95153.25,-182358.4,-119863.9,-181537.4,-375000,-375000,-149127.1,-174362,0.05,0.00,0.88,-4,0,-2,54,0
'[12:41:02.240 20/01/2026]',-95137.02,-182368,-119874.5,-181321.7,-375000,-375000,-149098.5,-174186.8,0.05,0.00,0.88,-4,0,-2,54,0
'[12:41:02.244 20/01/2026]',-95122.49,-182353.9,-119849.2,-181365.8,-375000,-375000,-149101.3,-174251.3,0.05,0.00,0.88,-4,0,-2,54,0
'[12:41:02.248 20/01/2026]',-95090.66,-182313,-119784.6,-181609.1,-375000,-375000,-149083.3,-174382.4,0.05,0.00,0.88,-4,0,-2,54,0
'[12:41:02.252 20/01/2026]',-95079,-182289.4,-119770.6,-181640.5,-375000,-375000,-149044.7,-174299.4,0.05,0.00,0.88,-4,0,-2,54,0
'[12:41:02.256 20/01/2026]',-95070.51,-182287.5,-119786.8,-181429.6,-375000,-375000,-149011.1,-174101.8,0.05,0.00,0.88,-4,0,-2,54,0
'[12:41:02.260 20/01/2026]',-95049.05,-182275.5,-119783.4,-181432.3,-375000,-375000,-149018,-174141.5,0.05,0.00,0.88,-4,0,-2,54,0
'[12:41:02.264 20/01/2026]',-95023.66,-182252.8,-119743.3,-181699.5,-375000,-375000,-149025.8,-174346.1,0.05,0.00,0.88,-4,0,-2,54,0
'[12:41:02.268 20/01/2026]',-95023.12,-182262.5,-119740.5,-181763.5,-375000,-375000,-149003.1,-174321.9,0.05,0.00,0.88,-4,0,-2,54,0
'[12:41:02.272 20/01/2026]',-95054.63,-182276.5,-119756.8,-181503.6,-375000,-375000,-148977.1,-174147.3,0.05,0.00,0.88,-4,0,-2,54,0
'[12:41:02.276 20/01/2026]',-95025.04,-182250,-119729.6,-181308,-375000,-375000,-148945.1,-174087,0.05,0.00,0.88,-4,0,-2,54,0
'[12:41:02.280 20/01/2026]',-94991.11,-182211.5,-119672.5,-181455.4,-375000,-375000,-148949.9,-174272.1,0.05,0.00,0.88,-4,0,-2,54,0
'[12:41:02.284 20/01/2026]',-94980.96,-182188.9,-119650,-181497.3,-375000,-375000,-148931.3,-174268.6,0.05,0.00,0.88,-4,0,-2,54,0
'[12:41:02.288 20/01/2026]',-94993.97,-182204.1,-119687.1,-181204.4,-375000,-375000,-148919.2,-174093.6,0.05,0.00,0.88,-4,0,-2,54,0
'[12:41:02.292 20/01/2026]',-94997.99,-182215.8,-119706.6,-180975,-375000,-375000,-148922,-174028.5,0.05,0.00,0.88,-4,0,-2,54,0
'[12:41:02.296 20/01/2026]',-94945.2,-182195.1,-119688.7,-181132.8,-375000,-375000,-148943.5,-174236.8,0.05,0.00,0.88,-4,0,-2,54,0
'[12:41:02.300 20/01/2026]',-94926.38,-182183.6,-119662.8,-181282.8,-375000,-375000,-148918.5,-174293.2,0.05,0.00,0.88,-4,0,-2,54,0
'[12:41:02.304 20/01/2026]',-94985.97,-182198.3,-119677.5,-181060.1,-375000,-375000,-148897,-174134.8,0.05,0.00,0.88,-4,0,-2,54,0
'[12:41:02.308 20/01/2026]',-94995.31,-182198.3,-119677.8,-180813.9,-375000,-375000,-148885.8,-174022.9,0.05,0.00,0.88,-4,0,-2,54,0
'[12:41:02.312 20/01/2026]',-94984.98,-182181,-119645.7,-180948.3,-375000,-375000,-148906.3,-174194.7,0.05,0.00,0.88,-4,0,-2,54,0
'[12:41:02.316 20/01/2026]',-94959.23,-182163.9,-119613.6,-181135.9,-375000,-375000,-148894.7,-174288.8,0.05,0.00,0.88,-4,0,-2,54,0
'[12:41:02.320 20/01/2026]',-94950.7,-182149.3,-119615.2,-180966.3,-375000,-375000,-148860.8,-174135,0.05,0.00,0.88,-4,0,-2,54,0
'[12:41:02.324 20/01/2026]',-94933.09,-182146.1,-119620,-180708,-375000,-375000,-148833.8,-173980.5,0.05,0.00,0.88,-4,0,-2,54,0
'[12:41:02.328 20/01/2026]',-94874.16,-182130.9,-119631.4,-180834.9,-375000,-375000,-148853.6,-174141.6,0.05,0.00,0.88,-4,0,-2,54,0
'[12:41:02.332 20/01/2026]',-94866.43,-182102.6,-119606.2,-181073.5,-375000,-375000,-148857.2,-174280.6,0.05,0.00,0.88,-4,0,-2,54,0
'[12:41:02.336 20/01/2026]',-94902.51,-182105.7,-119574.3,-180961.5,-375000,-375000,-148819.2,-174158.6,0.05,0.00,0.88,-4,0,-2,54,0
'[12:41:02.340 20/01/2026]',-94916.1,-182111.7,-119583.7,-180665.5,-375000,-375000,-148787.9,-173982.4,0.05,0.00,0.89,-4,0,-2,54,0
'[12:41:02.344 20/01/2026]',-94879.58,-182089.1,-119568.3,-180710.8,-375000,-375000,-148794.2,-174073.9,0.05,0.00,0.89,-4,0,-2,54,0
'[12:41:02.348 20/01/2026]',-94851.37,-182072.8,-119542.4,-180986,-375000,-375000,-148797.6,-174240.5,0.05,0.00,0.89,-4,0,-2,54,0
'[12:41:02.352 20/01/2026]',-94856.06,-182069.5,-119539.3,-180972.6,-375000,-375000,-148771.5,-174162,0.05,0.00,0.89,-4,0,-2,54,0
'[12:41:02.356 20/01/2026]',-94852.04,-182069.1,-119553.6,-180699.9,-375000,-375000,-148742.3,-173969.8,0.05,0.00,0.89,-4,0,-2,54,0
'[12:41:02.360 20/01/2026]',-94832.46,-182067.3,-119555.6,-180712.5,-375000,-375000,-148750.1,-174033.8,0.05,0.00,0.89,-4,0,-2,54,0
'[12:41:02.364 20/01/2026]',-94818.91,-182040.3,-119516.8,-180960.3,-375000,-375000,-148754.1,-174216.3,0.05,0.00,0.89,-4,0,-2,54,0
'[12:41:02.368 20/01/2026]',-94845.24,-182031,-119490.5,-180990.7,-375000,-375000,-148725.1,-174154.5,0.05,0.00,0.89,-4,0,-2,54,0
'[12:41:02.372 20/01/2026]',-94869.83,-182038.1,-119515.4,-180746.4,-375000,-375000,-148706.2,-173980.8,0.05,0.00,0.89,-4,0,-2,54,0
'[12:41:02.376 20/01/2026]',-94816.37,-182017.4,-119505.1,-180640.9,-375000,-375000,-148686.7,-173947.3,0.03,0.00,0.88,-4,0,-2,54,0
'[12:41:02.380 20/01/2026]',-94814.22,-182035.7,-119494,-180896,-375000,-375000,-148729.4,-174174.4,0.03,0.00,0.88,-4,0,-2,54,0
'[12:41:02.384 20/01/2026]',-94822.53,-182033,-119484.8,-180993.6,-375000,-375000,-148717.1,-174174,0.03,0.00,0.88,-4,0,-2,54,0
'[12:41:02.388 20/01/2026]',-94849.8,-182050.7,-119518.2,-180752.5,-375000,-375000,-148696.3,-173987.6,0.03,0.00,0.88,-4,0,-2,54,0
'[12:41:02.392 20/01/2026]',-94846.9,-182053.1,-119526.1,-180619.7,-375000,-375000,-148690.2,-173927.5,0.03,0.00,0.88,-4,0,-2,54,0
'[12:41:02.396 20/01/2026]',-94866.57,-182056,-119502.9,-180903.6,-375000,-375000,-148726.9,-174165.1,0.03,0.00,0.88,-4,0,-2,54,0
'[12:41:02.400 20/01/2026]',-94868.4,-182047.8,-119486.7,-181048.8,-375000,-375000,-148676.3,-174154.2,0.03,0.00,0.88,-4,0,-2,54,0
'[12:41:02.404 20/01/2026]',-94930.13,-182082.8,-119525.9,-180851.7,-375000,-375000,-148661.1,-173974.5,0.03,0.00,0.88,-4,0,-2,54,0
'[12:41:02.408 20/01/2026]',-94975.69,-182103.6,-119549.4,-180605.3,-375000,-375000,-148653.3,-173836.6,0.03,0.00,0.88,-4,0,-2,54,0
'[12:41:02.412 20/01/2026]',-94987.94,-182106,-119537.6,-180788,-375000,-375000,-148689.1,-174047,0.05,-0.02,0.88,-4,0,-2,54,0
'[12:41:02.416 20/01/2026]',-94977.43,-182093.7,-119514.1,-181045.5,-375000,-375000,-148670,-174129.3,0.05,-0.02,0.88,-4,0,-2,54,0
'[12:41:02.420 20/01/2026]',-94939.57,-182099.4,-119535.6,-180914.6,-375000,-375000,-148643.7,-173983.3,0.05,-0.02,0.88,-4,0,-2,54,0
'[12:41:02.424 20/01/2026]',-94939.3,-182108.4,-119547.4,-180629,-375000,-375000,-148612.3,-173805.9,0.05,-0.02,0.88,-4,0,-2,54,0
'[12:41:02.428 20/01/2026]',-94959.1,-182096.1,-119512.5,-180766.4,-375000,-375000,-148633.1,-173966.9,0.05,-0.02,0.88,-4,0,-2,54,0
'[12:41:02.432 20/01/2026]',-94992.01,-182082.3,-119481.8,-181014.8,-375000,-375000,-148638.7,-174096,0.05,-0.02,0.88,-4,0,-2,54,0
'[12:41:02.436 20/01/2026]',-95017.76,-182069.5,-119475.9,-180915.7,-375000,-375000,-148606.6,-173965.9,0.05,-0.02,0.88,-4,0,-2,54,0
'[12:41:02.440 20/01/2026]',-95018.83,-182090.6,-119493,-180659.8,-375000,-375000,-148592.9,-173783.3,0.05,-0.02,0.88,-4,0,-2,54,0
'[12:41:02.444 20/01/2026]',-94985.12,-182109.1,-119511.5,-180701.6,-375000,-375000,-148616.8,-173881.9,0.05,-0.02,0.88,-4,0,-2,54,0
'[12:41:02.448 20/01/2026]',-94974.7,-182094.6,-119434.3,-181012.5,-375000,-375000,-148613.9,-174072.7,0.05,0.00,0.88,-4,0,-2,54,0
'[12:41:02.452 20/01/2026]',-94982.53,-182076.5,-119435.8,-181009.8,-375000,-375000,-148596.1,-173991.7,0.05,0.00,0.88,-4,0,-2,54,0
'[12:41:02.456 20/01/2026]',-94971.76,-182062.4,-119462.9,-180692,-375000,-375000,-148563.6,-173767.1,0.05,0.00,0.88,-4,0,-2,54,0
'[12:41:02.460 20/01/2026]',-94909.26,-182038.1,-119460.1,-180667,-375000,-375000,-148571.2,-173817,0.05,0.00,0.88,-4,0,-2,54,0
'[12:41:02.464 20/01/2026]',-94852.04,-181997.1,-119414.7,-180921.7,-375000,-375000,-148584.4,-174019.9,0.05,0.00,0.88,-4,0,-2,54,0
'[12:41:02.468 20/01/2026]',-94839.25,-181970.9,-119390,-180961.3,-375000,-375000,-148555.6,-173973.7,0.05,0.00,0.88,-4,0,-2,54,0
'[12:41:02.472 20/01/2026]',-94852.8,-181947.4,-119376.1,-180700.9,-375000,-375000,-148526.2,-173788.8,0.05,0.00,0.88,-4,0,-2,54,0
'[12:41:02.476 20/01/2026]',-94810.51,-181935.5,-119365.2,-180604.1,-375000,-375000,-148516.8,-173761.1,0.05,0.00,0.88,-4,0,-2,54,0
'[12:41:02.480 20/01/2026]',-94781.98,-181909.8,-119331.4,-180817.3,-375000,-375000,-148537.4,-173956.9,0.05,0.00,0.88,-4,0,-2,54,0
'[12:41:02.484 20/01/2026]',-94751.01,-181900.5,-119311.8,-180894.7,-375000,-375000,-148520.3,-173949.9,0.05,-0.02,0.89,-4,0,-2,54,0
'[12:41:02.488 20/01/2026]',-94728.12,-181896.1,-119325.9,-180731.5,-375000,-375000,-148485.8,-173792.7,0.05,-0.02,0.89,-4,0,-2,54,0
'[12:41:02.492 20/01/2026]',-94751.77,-181885.2,-119312,-180571.3,-375000,-375000,-148481.6,-173715.4,0.05,-0.02,0.89,-4,0,-2,54,0
'[12:41:02.496 20/01/2026]',-94727.85,-181851.5,-119290.4,-180788.1,-375000,-375000,-148520.9,-173934.2,0.05,-0.02,0.89,-4,0,-2,54,0
'[12:41:02.500 20/01/2026]',-94674.97,-181837.7,-119286.4,-180924.9,-375000,-375000,-148508,-173970.1,0.05,-0.02,0.89,-4,0,-2,54,0
'[12:41:02.504 20/01/2026]',-94663.84,-181841.6,-119296,-180726.8,-375000,-375000,-148483.2,-173801,0.05,-0.02,0.89,-4,0,-2,54,0
'[12:41:02.508 20/01/2026]',-94679.57,-181837.3,-119291.7,-180534.8,-375000,-375000,-148470.2,-173694.6,0.05,-0.02,0.89,-4,0,-2,54,0
'[12:41:02.512 20/01/2026]',-94657.4,-181796.2,-119249.9,-180657.1,-375000,-375000,-148482.7,-173870.8,0.05,-0.02,0.89,-4,0,-2,54,0
'[12:41:02.516 20/01/2026]',-94638.22,-181783,-119239.7,-180871.6,-375000,-375000,-148499,-174003.5,0.05,-0.02,0.89,-4,0,-2,54,0
'[12:41:02.520 20/01/2026]',-94619.13,-181777.3,-119239.2,-180766.9,-375000,-375000,-148477.7,-173877.6,0.05,0.00,0.88,-4,0,-2,54,0
'[12:41:02.524 20/01/2026]',-94592.67,-181772.5,-119240.2,-180503.3,-375000,-375000,-148437.8,-173698.9,0.05,0.00,0.88,-4,0,-2,54,0
'[12:41:02.528 20/01/2026]',-94584.22,-181753.7,-119197,-180586.1,-375000,-375000,-148449.3,-173852.4,0.05,0.00,0.88,-4,0,-2,54,0
'[12:41:02.532 20/01/2026]',-94575.86,-181744.5,-119191.4,-180794.7,-375000,-375000,-148470.8,-174001,0.05,0.00,0.88,-4,0,-2,54,0
'[12:41:02.536 20/01/2026]',-94560.66,-181727.1,-119186.1,-180691.5,-375000,-375000,-148434.7,-173867.7,0.05,0.00,0.88,-4,0,-2,54,0
'[12:41:02.540 20/01/2026]',-94560.26,-181719.7,-119188.7,-180421.3,-375000,-375000,-148396.2,-173672,0.05,0.00,0.88,-4,0,-2,54,0
'[12:41:02.544 20/01/2026]',-94555.34,-181720.3,-119165.7,-180482.6,-375000,-375000,-148422.5,-173798.6,0.05,0.00,0.88,-4,0,-2,54,0
'[12:41:02.548 20/01/2026]',-94534.51,-181705.7,-119147.5,-180716.5,-375000,-375000,-148436.4,-173981.8,0.05,0.00,0.88,-4,0,-2,54,0
'[12:41:02.552 20/01/2026]',-94534.95,-181707.7,-119158,-180697,-375000,-375000,-148415.5,-173897.7,0.05,0.00,0.88,-4,0,-2,54,0
'[12:41:02.556 20/01/2026]',-94548.59,-181708.3,-119176.4,-180466.2,-375000,-375000,-148402.3,-173724.3,0.03,0.00,0.88,-4,0,-2,54,0
'[12:41:02.560 20/01/2026]',-94492.22,-181679.3,-119169.5,-180424.4,-375000,-375000,-148391.9,-173751.1,0.03,0.00,0.88,-4,0,-2,54,0
'[12:41:02.564 20/01/2026]',-94461.64,-181674.5,-119155.5,-180680.2,-375000,-375000,-148432.7,-173980.3,0.03,0.00,0.88,-4,0,-2,54,0
'[12:41:02.568 20/01/2026]',-94446.89,-181657.4,-119155.2,-180703.8,-375000,-375000,-148408.9,-173925.8,0.03,0.00,0.88,-4,0,-2,54,0
'[12:41:02.572 20/01/2026]',-94522.44,-181654.9,-119129.6,-180425.8,-375000,-375000,-148364.7,-173695.8,0.03,0.00,0.88,-4,0,-2,54,0
'[12:41:02.576 20/01/2026]',-94515.42,-181645.8,-119094.8,-180329,-375000,-375000,-148365.6,-173682.1,0.03,0.00,0.88,-4,0,-2,54,0
'[12:41:02.580 20/01/2026]',-94443.8,-181614.3,-119067.6,-180580,-375000,-375000,-148393,-173920,0.03,0.00,0.88,-4,0,-2,54,0
'[12:41:02.584 20/01/2026]',-94414.7,-181590.8,-119066.6,-180676.1,-375000,-375000,-148365.4,-173894.9,0.03,0.00,0.88,-4,0,-2,54,0
'[12:41:02.588 20/01/2026]',-94424.94,-181599.7,-119087.3,-180435,-375000,-375000,-148336.3,-173691.1,0.03,0.00,0.88,-4,0,-2,54,0
'[12:41:02.592 20/01/2026]',-94407.59,-181606.8,-119074.6,-180281,-375000,-375000,-148329,-173619.5,0.05,0.00,0.89,-4,0,-2,54,0
'[12:41:02.596 20/01/2026]',-94394.81,-181571.5,-119031.4,-180444.8,-375000,-375000,-148349.3,-173825.8,0.05,0.00,0.89,-4,0,-2,54,0
'[12:41:02.600 20/01/2026]',-94381.49,-181554.6,-119014,-180582.7,-375000,-375000,-148333.9,-173874.1,0.05,0.00,0.89,-4,0,-2,54,0
'[12:41:02.604 20/01/2026]',-94387.57,-181575.5,-119039,-180409.5,-375000,-375000,-148309,-173725.6,0.05,0.00,0.89,-4,0,-2,54,0
'[12:41:02.608 20/01/2026]',-94390.16,-181563.4,-119020.1,-180200.1,-375000,-375000,-148263.3,-173565,0.05,0.00,0.89,-4,0,-2,54,0
'[12:41:02.612 20/01/2026]',-94360.21,-181536.2,-119016.7,-180358.6,-375000,-375000,-148305.9,-173771.9,0.05,0.00,0.89,-4,0,-2,54,0
'[12:41:02.616 20/01/2026]',-94324.98,-181523.7,-118998.5,-180533.1,-375000,-375000,-148298,-173863.1,0.05,0.00,0.89,-4,0,-2,54,0
'[12:41:02.620 20/01/2026]',-94349.75,-181516.8,-118978.5,-180397.6,-375000,-375000,-148253.6,-173701.4,0.05,0.00,0.89,-4,0,-2,54,0
'[12:41:02.624 20/01/2026]',-94338.93,-181499.7,-118971.6,-180170.9,-375000,-375000,-148213.6,-173518.8,0.05,0.00,0.89,-4,0,-2,54,0
'[12:41:02.628 20/01/2026]',-94313.95,-181495.5,-118984.4,-180311.4,-375000,-375000,-148265.3,-173714.4,0.05,-0.02,0.88,-4,0,-2,54,0
'[12:41:02.632 20/01/2026]',-94306.7,-181476.5,-118964.1,-180553.3,-375000,-375000,-148279.5,-173863.8,0.05,-0.02,0.88,-4,0,-2,54,0
'[12:41:02.636 20/01/2026]',-94316.27,-181476.9,-118963.4,-180471.8,-375000,-375000,-148248.2,-173731.7,0.05,-0.02,0.88,-4,0,-2,54,0
'[12:41:02.640 20/01/2026]',-94325.21,-181510.2,-118991.1,-180224.1,-375000,-375000,-148232.1,-173546.1,0.05,-0.02,0.88,-4,0,-2,54,0
'[12:41:02.644 20/01/2026]',-94281.8,-181482.3,-118983.6,-180281.8,-375000,-375000,-148258.3,-173680,0.05,-0.02,0.88,-4,0,-2,54,0
'[12:41:02.648 20/01/2026]',-94245.77,-181446.7,-118948.1,-180483.1,-375000,-375000,-148252.9,-173840.2,0.05,-0.02,0.88,-4,0,-2,54,0
'[12:41:02.652 20/01/2026]',-94280.33,-181437.2,-118909.5,-180443.8,-375000,-375000,-148213.8,-173735.5,0.05,-0.02,0.88,-4,0,-2,54,0
'[12:41:02.656 20/01/2026]',-94294.05,-181441,-118925.8,-180189.3,-375000,-375000,-148176.4,-173517.2,0.05,-0.02,0.88,-4,0,-2,54,0
'[12:41:02.660 20/01/2026]',-94272.81,-181423.9,-118917.6,-180199.8,-375000,-375000,-148192.1,-173585.1,0.05,-0.02,0.88,-4,0,-2,54,0
'[12:41:02.664 20/01/2026]',-94254.4,-181409.8,-118880.5,-180441.3,-375000,-375000,-148224.3,-173812.9,0.05,0.02,0.88,-4,0,-2,54,0
'[12:41:02.668 20/01/2026]',-94235.89,-181395,-118880.5,-180463.5,-375000,-375000,-148203.5,-173751,0.05,0.02,0.88,-4,0,-2,54,0
'[12:41:02.672 20/01/2026]',-94255.91,-181400.6,-118893.7,-180238.4,-375000,-375000,-148170.9,-173541.7,0.05,0.02,0.88,-4,0,-2,54,0
'[12:41:02.676 20/01/2026]',-94227.44,-181415.5,-118885.8,-180191,-375000,-375000,-148164.2,-173542.3,0.05,0.02,0.88,-4,0,-2,54,0
'[12:41:02.680 20/01/2026]',-94202.01,-181387,-118856,-180399.6,-375000,-375000,-148180.6,-173760.8,0.05,0.02,0.88,-4,0,-2,54,0
'[12:41:02.684 20/01/2026]',-94197.89,-181384.9,-118845.6,-180465.5,-375000,-375000,-148168.1,-173745.1,0.05,0.02,0.88,-4,0,-2,54,0
'[12:41:02.688 20/01/2026]',-94192.75,-181386,-118846.2,-180244.8,-375000,-375000,-148125.4,-173531.7,0.05,0.02,0.88,-4,0,-2,54,0
'[12:41:02.692 20/01/2026]',-94200.84,-181379.6,-118839.4,-180099.9,-375000,-375000,-148118.8,-173453.8,0.05,0.02,0.88,-4,0,-2,54,0
'[12:41:02.696 20/01/2026]',-94158.69,-181339.7,-118814.1,-180274.4,-375000,-375000,-148144.2,-173679.3,0.05,0.02,0.88,-4,0,-2,54,0
'[12:41:02.700 20/01/2026]',-94163.6,-181332.9,-118776.7,-180422.7,-375000,-375000,-148123.6,-173715,0.05,0.00,0.89,-4,0,-2,54,0
'[12:41:02.704 20/01/2026]',-94189.22,-181343,-118795.4,-180230.4,-375000,-375000,-148099.5,-173526.6,0.05,0.00,0.89,-4,0,-2,54,0
'[12:41:02.708 20/01/2026]',-94157.44,-181344.6,-118808.5,-180059.3,-375000,-375000,-148089.4,-173409.3,0.05,0.00,0.89,-4,0,-2,54,0
'[12:41:02.712 20/01/2026]',-94109.65,-181318,-118775.9,-180213.4,-375000,-375000,-148118.8,-173618.6,0.05,0.00,0.89,-4,0,-2,54,0
'[12:41:02.716 20/01/2026]',-94123.91,-181317.3,-118767.7,-180387.2,-375000,-375000,-148123.7,-173710,0.05,0.00,0.89,-4,0,-2,54,0
'[12:41:02.720 20/01/2026]',-94130.48,-181310.4,-118794.1,-180239.7,-375000,-375000,-148086.3,-173538.6,0.05,0.00,0.89,-4,0,-2,54,0
'[12:41:02.724 20/01/2026]',-94121.9,-181310.1,-118784.8,-180065.8,-375000,-375000,-148059.3,-173383.5,0.05,0.00,0.89,-4,0,-2,54,0
'[12:41:02.728 20/01/2026]',-94088.5,-181293.8,-118761.7,-180163.4,-375000,-375000,-148088.3,-173545.2,0.05,0.00,0.89,-4,0,-2,54,0
'[12:41:02.732 20/01/2026]',-94061.01,-181277.5,-118733.5,-180319.9,-375000,-375000,-148086.9,-173653.4,0.05,0.00,0.89,-4,0,-2,54,0
'[12:41:02.736 20/01/2026]',-94070.22,-181274.7,-118735.9,-180188.5,-375000,-375000,-148051.8,-173503.1,0.06,-0.02,0.88,-4,0,-2,54,0
'[12:41:02.740 20/01/2026]',-94118.45,-181277.5,-118726.7,-179929.8,-375000,-375000,-148016.3,-173305.3,0.06,-0.02,0.88,-4,0,-2,54,0
'[12:41:02.744 20/01/2026]',-94122.34,-181271.6,-118696.7,-179971.4,-375000,-375000,-148038.9,-173428.9,0.06,-0.02,0.88,-4,0,-2,54,0
'[12:41:02.748 20/01/2026]',-94070.09,-181251,-118678.7,-180159.2,-375000,-375000,-148052,-173597.3,0.06,-0.02,0.88,-4,0,-2,54,0
'[12:41:02.752 20/01/2026]',-94042.37,-181241,-118696.3,-180110.4,-375000,-375000,-148023.9,-173487.1,0.06,-0.02,0.88,-4,0,-2,54,0
'[12:41:02.756 20/01/2026]',-94047.82,-181241,-118702.1,-179837.5,-375000,-375000,-147982.5,-173260,0.06,-0.02,0.88,-4,0,-2,54,0
'[12:41:02.760 20/01/2026]',-94021.09,-181220.9,-118686.1,-179817.1,-375000,-375000,-147986,-173318.4,0.06,-0.02,0.88,-4,0,-2,54,0
'[12:41:02.764 20/01/2026]',-94010.36,-181196.5,-118660.1,-180037.7,-375000,-375000,-148018.8,-173533.8,0.06,-0.02,0.88,-4,0,-2,54,0
'[12:41:02.768 20/01/2026]',-94007.86,-181178.5,-118642.9,-180006.7,-375000,-375000,-147987,-173452.8,0.06,-0.02,0.88,-4,0,-2,54,0
'[12:41:02.772 20/01/2026]',-94006.16,-181181.8,-118646.1,-179745.8,-375000,-375000,-147938.7,-173229.5,0.05,0.00,0.89,-4,0,-2,54,0
'[12:41:02.776 20/01/2026]',-94001.11,-181184.5,-118631.7,-179678.1,-375000,-375000,-147944.7,-173233.6,0.05,0.00,0.89,-4,0,-2,54,0
'[12:41:02.780 20/01/2026]',-93996.19,-181188.1,-118616.6,-179884.8,-375000,-375000,-147987.4,-173462.5,0.05,0.00,0.89,-4,0,-2,54,0
'[12:41:02.784 20/01/2026]',-93988.23,-181161.5,-118601.4,-179915,-375000,-375000,-147960.1,-173431.2,0.05,0.00,0.89,-4,0,-2,54,0
'[12:41:02.788 20/01/2026]',-94004.91,-181181.8,-118648.9,-179701,-375000,-375000,-147941.2,-173248.1,0.05,0.00,0.89,-4,0,-2,54,0
'[12:41:02.792 20/01/2026]',-93982.69,-181179.5,-118652.7,-179571,-375000,-375000,-147923.6,-173172.4,0.05,0.00,0.89,-4,0,-2,54,0
'[12:41:02.796 20/01/2026]',-93949.84,-181149.8,-118614.6,-179759.5,-375000,-375000,-147950.9,-173398.8,0.05,0.00,0.89,-4,0,-2,54,0
'[12:41:02.800 20/01/2026]',-93953.99,-181132,-118596.6,-179866,-375000,-375000,-147939.2,-173434.6,0.05,0.00,0.89,-4,0,-2,54,0
'[12:41:02.804 20/01/2026]',-93957.08,-181140.5,-118614.4,-179674.1,-375000,-375000,-147912,-173260,0.05,0.00,0.89,-4,0,-2,54,0
'[12:41:02.808 20/01/2026]',-93953.86,-181153.5,-118627.5,-179512.1,-375000,-375000,-147888.9,-173146.6,0.05,0.00,0.88,-4,0,-2,54,0
'[12:41:02.812 20/01/2026]',-93931.46,-181128.8,-118607.9,-179673.9,-375000,-375000,-147923.3,-173348,0.05,0.00,0.88,-4,0,-2,54,0
'[12:41:02.816 20/01/2026]',-93932.35,-181127.9,-118574.4,-179806.4,-375000,-375000,-147911.2,-173406.8,0.05,0.00,0.88,-4,0,-2,54,0
'[12:41:02.820 20/01/2026]',-93971.07,-181146.9,-118601.4,-179696.4,-375000,-375000,-147896.4,-173287.9,0.05,0.00,0.88,-4,0,-2,54,0
'[12:41:02.824 20/01/2026]',-93990.87,-181151.6,-118604,-179498.3,-375000,-375000,-147876,-173153.3,0.05,0.00,0.88,-4,0,-2,54,0
'[12:41:02.828 20/01/2026]',-93963.6,-181124.7,-118566.3,-179593.2,-375000,-375000,-147889.3,-173301.8,0.05,0.00,0.88,-4,0,-2,54,0
'[12:41:02.832 20/01/2026]',-93906.88,-181086.5,-118544.2,-179739.4,-375000,-375000,-147880.8,-173392.6,0.05,0.00,0.88,-4,0,-2,54,0
'[12:41:02.836 20/01/2026]',-93886.98,-181075,-118562.1,-179647.9,-375000,-375000,-147849.6,-173283.2,0.05,0.00,0.88,-4,0,-2,54,0
'[12:41:02.840 20/01/2026]',-93895.2,-181078.8,-118589.5,-179455.4,-375000,-375000,-147834.2,-173128.8,0.05,0.00,0.88,-4,0,-2,54,0
'[12:41:02.844 20/01/2026]',-93904.46,-181086.6,-118587.3,-179507,-375000,-375000,-147873.4,-173254.4,0.05,0.00,0.88,-4,0,-2,54,0
'[12:41:02.848 20/01/2026]',-93871.73,-181069.1,-118537.2,-179706.3,-375000,-375000,-147870.2,-173399,0.05,0.00,0.88,-4,0,-2,54,0
'[12:41:02.852 20/01/2026]',-93885.91,-181070.8,-118545.3,-179697.6,-375000,-375000,-147850,-173326.5,0.05,0.00,0.88,-4,0,-2,54,0
'[12:41:02.856 20/01/2026]',-93916.75,-181081.1,-118562.5,-179494.2,-375000,-375000,-147825.5,-173155.6,0.05,0.00,0.88,-4,0,-2,54,0
'[12:41:02.860 20/01/2026]',-93912.15,-181072.3,-118546.7,-179481.2,-375000,-375000,-147838.5,-173211.8,0.05,0.00,0.88,-4,0,-2,54,0
'[12:41:02.864 20/01/2026]',-93869.23,-181048.6,-118523.3,-179652.2,-375000,-375000,-147861.8,-173381.7,0.05,0.00,0.88,-4,0,-2,54,0
'[12:41:02.868 20/01/2026]',-93858.73,-181034,-118541.5,-179657.7,-375000,-375000,-147851.8,-173331.6,0.05,0.00,0.88,-4,0,-2,54,0
'[12:41:02.872 20/01/2026]',-93857.84,-181054.4,-118573.7,-179428.1,-375000,-375000,-147828.2,-173149.3,0.05,0.00,0.88,-4,0,-2,54,0
'[12:41:02.876 20/01/2026]',-93855.91,-181067.1,-118569.3,-179382.2,-375000,-375000,-147830.4,-173167,0.05,0.00,0.88,-4,0,-2,54,0
'[12:41:02.880 20/01/2026]',-93865.43,-181057.3,-118540,-179566.5,-375000,-375000,-147859.3,-173363.4,0.03,-0.02,0.88,-4,0,-2,54,0
'[12:41:02.884 20/01/2026]',-93889.13,-181044.3,-118511.4,-179647.5,-375000,-375000,-147840.7,-173361.5,0.03,-0.02,0.88,-4,0,-2,54,0
'[12:41:02.888 20/01/2026]',-93895.7,-181047.3,-118519.7,-179427.1,-375000,-375000,-147801,-173171.8,0.03,-0.02,0.88,-4,0,-2,54,0
'[12:41:02.892 20/01/2026]',-93862.57,-181038.1,-118514.1,-179307.4,-375000,-375000,-147786.1,-173111.5,0.03,-0.02,0.88,-4,0,-2,54,0
'[12:41:02.896 20/01/2026]',-93853.09,-181027.5,-118505,-179484.8,-375000,-375000,-147826.4,-173316.8,0.03,-0.02,0.88,-4,0,-2,54,0
'[12:41:02.900 20/01/2026]',-93822.25,-181011,-118511,-179594.9,-375000,-375000,-147816.6,-173344.7,0.03,-0.02,0.88,-4,0,-2,54,0
'[12:41:02.904 20/01/2026]',-93821.63,-181010.4,-118517.2,-179409,-375000,-375000,-147778.9,-173172.9,0.03,-0.02,0.88,-4,0,-2,54,0
'[12:41:02.908 20/01/2026]',-93854.26,-181030.4,-118517.9,-179266.4,-375000,-375000,-147762.6,-173078.8,0.03,-0.02,0.88,-4,0,-2,54,0
'[12:41:02.912 20/01/2026]',-93870.44,-181017,-118485.7,-179449.5,-375000,-375000,-147796.7,-173284.8,0.03,-0.02,0.88,-4,0,-2,54,0
'[12:41:02.916 20/01/2026]',-93841.74,-180986.1,-118466.1,-179571.3,-375000,-375000,-147781.1,-173323,0.05,-0.02,0.88,-4,0,-2,54,0
'[12:41:02.920 20/01/2026]',-93838.38,-181005.8,-118508.5,-179430,-375000,-375000,-147774.9,-173192.8,0.05,-0.02,0.88,-4,0,-2,54,0
'[12:41:02.924 20/01/2026]',-93841.52,-181013.1,-118495.4,-179254.1,-375000,-375000,-147752,-173071.3,0.05,-0.02,0.88,-4,0,-2,54,0
'[12:41:02.928 20/01/2026]',-93817.42,-180980.2,-118450.3,-179354.8,-375000,-375000,-147759.7,-173203.4,0.05,-0.02,0.88,-4,0,-2,54,0
'[12:41:02.932 20/01/2026]',-93785.15,-180972.8,-118467,-179536.3,-375000,-375000,-147772.5,-173320.6,0.05,-0.02,0.88,-4,0,-2,54,0
'[12:41:02.936 20/01/2026]',-93789.48,-180968.1,-118462.4,-179436.6,-375000,-375000,-147746.6,-173202,0.05,-0.02,0.88,-4,0,-2,54,0
'[12:41:02.940 20/01/2026]',-93808.26,-180963.9,-118453.6,-179219.7,-375000,-375000,-147710.7,-173038.4,0.05,-0.02,0.88,-4,0,-2,54,0
'[12:41:02.944 20/01/2026]',-93801.73,-180947.3,-118440.9,-179280.6,-375000,-375000,-147728.1,-173158.6,0.05,-0.02,0.88,-4,0,-2,54,0
'[12:41:02.948 20/01/2026]',-93783.49,-180951.6,-118427.1,-179493.2,-375000,-375000,-147739.6,-173308.5,0.05,-0.02,0.88,-4,0,-2,54,0
'[12:41:02.952 20/01/2026]',-93785.73,-180959.3,-118429.4,-179454.3,-375000,-375000,-147721.3,-173223,0.06,0.00,0.89,-4,0,-2,54,0
'[12:41:02.956 20/01/2026]',-93821.98,-180954.4,-118439.3,-179211,-375000,-375000,-147693.2,-173038.7,0.06,0.00,0.89,-4,0,-2,54,0
'[12:41:02.960 20/01/2026]',-93807.9,-180942.7,-118430.9,-179250.1,-375000,-375000,-147714.1,-173129.5,0.06,0.00,0.89,-4,0,-2,54,0
'[12:41:02.964 20/01/2026]',-93786.62,-180945.2,-118420.4,-179476,-375000,-375000,-147745.3,-173313.1,0.06,0.00,0.89,-4,0,-2,54,0
'[12:41:02.968 20/01/2026]',-93797.13,-180952.1,-118428.9,-179472.2,-375000,-375000,-147727.4,-173252.1,0.06,0.00,0.89,-4,0,-2,54,0
'[12:41:02.972 20/01/2026]',-93771.69,-180949.1,-118447.4,-179247.3,-375000,-375000,-147684.9,-173064.3,0.06,0.00,0.89,-4,0,-2,54,0
'[12:41:02.976 20/01/2026]',-93746.12,-180934.1,-118446.3,-179211,-375000,-375000,-147681.7,-173080.3,0.06,0.00,0.89,-4,0,-2,54,0
'[12:41:02.980 20/01/2026]',-93755.69,-180914,-118397.6,-179438.6,-375000,-375000,-147701.9,-173273.7,0.06,0.00,0.89,-4,0,-2,54,0
'[12:41:02.984 20/01/2026]',-93778.8,-180916,-118390.1,-179478.1,-375000,-375000,-147685.2,-173234.9,0.06,0.00,0.89,-4,0,-2,54,0
'[12:41:02.988 20/01/2026]',-93780.95,-180923.9,-118409.1,-179250.9,-375000,-375000,-147664.1,-173058.2,0.05,0.00,0.88,-4,0,-2,54,0
'[12:41:02.992 20/01/2026]',-93785.86,-180925.7,-118407.5,-179169.7,-375000,-375000,-147667.6,-173043.6,0.05,0.00,0.88,-4,0,-2,54,0
'[12:41:02.996 20/01/2026]',-93772.05,-180909.6,-118374.4,-179346.8,-375000,-375000,-147701.3,-173246.3,0.05,0.00,0.88,-4,0,-2,54,0
'[12:41:03.000 20/01/2026]',-93748.04,-180901.6,-118363.1,-179446.8,-375000,-375000,-147681.8,-173255.1,0.05,0.00,0.88,-4,0,-2,54,0
'[12:41:03.004 20/01/2026]',-93768.6,-180914.3,-118394.9,-179260.5,-375000,-375000,-147648.6,-173084.3,0.05,0.00,0.88,-4,0,-2,54,0
'[12:41:03.008 20/01/2026]',-93793.51,-180932.8,-118417.3,-179122.7,-375000,-375000,-147629.3,-172987.8,0.05,0.00,0.88,-4,0,-2,54,0
'[12:41:03.012 20/01/2026]',-93768.2,-180937.3,-118407.4,-179294.1,-375000,-375000,-147670.8,-173183.6,0.05,0.00,0.88,-4,0,-2,54,0
'[12:41:03.016 20/01/2026]',-93767.09,-180935.8,-118403,-179451,-375000,-375000,-147666.1,-173250.2,0.05,0.00,0.88,-4,0,-2,54,0
'[12:41:03.020 20/01/2026]',-93816.35,-180953,-118449.4,-179341.9,-375000,-375000,-147637.7,-173107.1,0.05,0.00,0.88,-4,0,-2,54,0
'[12:41:03.024 20/01/2026]',-93907.14,-180976.8,-118420.7,-179192.2,-375000,-375000,-147617.4,-172986,0.05,0.00,0.88,-4,0,-2,54,0
'[12:41:03.028 20/01/2026]',-93910.41,-180975.3,-118389.5,-179304.2,-375000,-375000,-147647.7,-173144.8,0.05,0.00,0.88,-4,0,-2,54,0
'[12:41:03.032 20/01/2026]',-93891.09,-180971.5,-118400.5,-179490.3,-375000,-375000,-147667.5,-173251.8,0.05,0.00,0.88,-4,0,-2,54,0
'[12:41:03.036 20/01/2026]',-93874.77,-180995,-118456,-179387.2,-375000,-375000,-147663.7,-173128.1,0.05,0.00,0.88,-4,0,-2,54,0
'[12:41:03.040 20/01/2026]',-93865.3,-181006.8,-118480.8,-179186.1,-375000,-375000,-147631.3,-172967,0.05,0.00,0.88,-4,0,-2,54,0
'[12:41:03.044 20/01/2026]',-93945.01,-181019,-118434.7,-179269.3,-375000,-375000,-147671.6,-173105.3,0.05,0.00,0.88,-4,0,-2,54,0
'[12:41:03.048 20/01/2026]',-93958.02,-181000.1,-118402.8,-179464.3,-375000,-375000,-147677,-173240,0.05,0.00,0.88,-4,0,-2,54,0
'[12:41:03.052 20/01/2026]',-93918.77,-180984.9,-118409.2,-179399.3,-375000,-375000,-147646.1,-173131.8,0.05,0.00,0.88,-4,0,-2,54,0
'[12:41:03.056 20/01/2026]',-93912.1,-180998.9,-118424.7,-179170.9,-375000,-375000,-147618.7,-172943.3,0.05,0.00,0.88,-4,0,-2,54,0
'[12:41:03.060 20/01/2026]',-93890.11,-180976.5,-118421.8,-179202.3,-375000,-375000,-147634.8,-173021,0.03,0.00,0.89,-4,0,-2,54,0
'[12:41:03.064 20/01/2026]',-93882.06,-180958.5,-118411.6,-179442.5,-375000,-375000,-147668.7,-173216.7,0.03,0.00,0.89,-4,0,-2,54,0
'[12:41:03.068 20/01/2026]',-93887.56,-180986.1,-118421.1,-179463.8,-375000,-375000,-147667.5,-173160.3,0.03,0.00,0.89,-4,0,-2,54,0
'[12:41:03.072 20/01/2026]',-93870.35,-180977.4,-118432.5,-179262.7,-375000,-375000,-147632.5,-172976.5,0.03,0.00,0.89,-4,0,-2,54,0
'[12:41:03.076 20/01/2026]',-93816.03,-180949.9,-118447.9,-179225.5,-375000,-375000,-147632.1,-172989.9,0.03,0.00,0.89,-4,0,-2,54,0
'[12:41:03.080 20/01/2026]',-93864.76,-180957.5,-118387,-179474,-375000,-375000,-147655.8,-173199.2,0.03,0.00,0.89,-4,0,-2,54,0
'[12:41:03.084 20/01/2026]',-93894.76,-180957,-118357.4,-179515.2,-375000,-375000,-147633.3,-173157,0.03,0.00,0.89,-4,0,-2,54,0
'[12:41:03.088 20/01/2026]',-93888.59,-180931,-118365.2,-179319.6,-375000,-375000,-147609,-172991.9,0.03,0.00,0.89,-4,0,-2,54,0
'[12:41:03.092 20/01/2026]',-93844.29,-180918.6,-118376.8,-179244.9,-375000,-375000,-147609.3,-172968.9,0.03,0.00,0.89,-4,0,-2,54,0
'[12:41:03.096 20/01/2026]',-93752.91,-180892.5,-118345.1,-179409.7,-375000,-375000,-147626.4,-173144.7,0.03,-0.02,0.89,-4,0,-2,54,0
'[12:41:03.100 20/01/2026]',-93744.51,-180880.5,-118347.2,-179507.5,-375000,-375000,-147633.7,-173174.9,0.03,-0.02,0.89,-4,0,-2,54,0
'[12:41:03.104 20/01/2026]',-93772.45,-180869.8,-118336.8,-179330.4,-375000,-375000,-147605.2,-173024.9,0.03,-0.02,0.89,-4,0,-2,54,0
'[12:41:03.108 20/01/2026]',-93760.6,-180856.6,-118319.1,-179194,-375000,-375000,-147577.1,-172934.7,0.03,-0.02,0.89,-4,0,-2,54,0
'[12:41:03.112 20/01/2026]',-93716.13,-180836.1,-118276.9,-179353.2,-375000,-375000,-147601.8,-173114.7,0.03,-0.02,0.89,-4,0,-2,54,0
'[12:41:03.116 20/01/2026]',-93692.79,-180825.3,-118268.3,-179490.1,-375000,-375000,-147599,-173172.2,0.03,-0.02,0.89,-4,0,-2,54,0
'[12:41:03.120 20/01/2026]',-93696.54,-180821.6,-118274.1,-179348.3,-375000,-375000,-147564.7,-173021.7,0.03,-0.02,0.89,-4,0,-2,54,0
'[12:41:03.124 20/01/2026]',-93683,-180821.7,-118295.6,-179218.6,-375000,-375000,-147561.6,-172919.7,0.03,-0.02,0.89,-4,0,-2,54,0
'[12:41:03.128 20/01/2026]',-93648.48,-180792.3,-118272.6,-179341.3,-375000,-375000,-147587.5,-173084.8,0.03,-0.02,0.89,-4,0,-2,54,0
'[12:41:03.132 20/01/2026]',-93641.34,-180769.6,-118254.9,-179491.2,-375000,-375000,-147571.4,-173158.9,0.05,0.00,0.88,-4,0,-2,54,0
'[12:41:03.136 20/01/2026]',-93652.2,-180787.8,-118277.5,-179394.3,-375000,-375000,-147551,-173040.6,0.05,0.00,0.88,-4,0,-2,54,0
'[12:41:03.140 20/01/2026]',-93648.35,-180795.3,-118270,-179230.6,-375000,-375000,-147527.5,-172907.6,0.05,0.00,0.88,-4,0,-2,54,0
'[12:41:03.144 20/01/2026]',-93636.69,-180764.5,-118230.1,-179278,-375000,-375000,-147532,-173004.2,0.05,0.00,0.88,-4,0,-2,54,0
'[12:41:03.148 20/01/2026]',-93602.71,-180757.6,-118237.9,-179457.7,-375000,-375000,-147553.7,-173141.8,0.05,0.00,0.88,-4,0,-2,54,0
'[12:41:03.152 20/01/2026]',-93592.83,-180751.4,-118271.9,-179413,-375000,-375000,-147555,-173065,0.05,0.00,0.88,-4,0,-2,54,0
'[12:41:03.156 20/01/2026]',-93657.7,-180778.6,-118281.6,-179208.3,-375000,-375000,-147542,-172910.9,0.05,0.00,0.88,-4,0,-2,54,0
'[12:41:03.160 20/01/2026]',-93683.58,-180797.8,-118230.5,-179266.8,-375000,-375000,-147547.8,-172999,0.05,0.00,0.88,-4,0,-2,54,0
'[12:41:03.164 20/01/2026]',-93639.77,-180770,-118205.6,-179421.3,-375000,-375000,-147565.7,-173144.8,0.05,0.00,0.88,-4,0,-2,54,0
'[12:41:03.168 20/01/2026]',-93609.05,-180755.3,-118216.5,-179374.3,-375000,-375000,-147541,-173058.1,0.03,-0.02,0.88,-4,0,-2,54,0
'[12:41:03.172 20/01/2026]',-93599.4,-180762.4,-118222.3,-179145.7,-375000,-375000,-147510.1,-172875,0.03,-0.02,0.88,-4,0,-2,54,0
'[12:41:03.176 20/01/2026]',-93557.52,-180756.5,-118218.3,-179174.8,-375000,-375000,-147533.7,-172946.6,0.03,-0.02,0.88,-4,0,-2,54,0
'[12:41:03.180 20/01/2026]',-93522.11,-180714.8,-118225.5,-179339,-375000,-375000,-147558.1,-173120.1,0.03,-0.02,0.88,-4,0,-2,54,0
'[12:41:03.184 20/01/2026]',-93544.46,-180706.3,-118217.8,-179353.9,-375000,-375000,-147528.4,-173067.6,0.03,-0.02,0.88,-4,0,-2,54,0
'[12:41:03.188 20/01/2026]',-93595.55,-180743.2,-118213.3,-179155.6,-375000,-375000,-147499.9,-172888.1,0.03,-0.02,0.88,-4,0,-2,54,0
'[12:41:03.192 20/01/2026]',-93611.29,-180748.9,-118185.8,-179069.8,-375000,-375000,-147490.6,-172857.8,0.03,-0.02,0.88,-4,0,-2,54,0
'[12:41:03.196 20/01/2026]',-93580.13,-180715.5,-118156.9,-179220.3,-375000,-375000,-147514.6,-173053.9,0.03,-0.02,0.88,-4,0,-2,54,0
'[12:41:03.200 20/01/2026]',-93527.92,-180684.4,-118156.7,-179295,-375000,-375000,-147497.5,-173064,0.03,-0.02,0.88,-4,0,-2,54,0
'[12:41:03.204 20/01/2026]',-93511.83,-180705.4,-118190.5,-179200.4,-375000,-375000,-147490,-172956.5,0.05,-0.02,0.88,-4,0,-2,54,0
'[12:41:03.208 20/01/2026]',-93476.06,-180696.5,-118188.4,-179108.4,-375000,-375000,-147464.4,-172873.8,0.05,-0.02,0.88,-4,0,-2,54,0
'[12:41:03.212 20/01/2026]',-93490.02,-180676.4,-118163.3,-179233.3,-375000,-375000,-147501.5,-173046.8,0.05,-0.02,0.88,-4,0,-2,54,0
'[12:41:03.216 20/01/2026]',-93525.33,-180678,-118148.1,-179327.9,-375000,-375000,-147504.2,-173103.3,0.05,-0.02,0.88,-4,0,-2,54,0
'[12:41:03.220 20/01/2026]',-93547.05,-180672.5,-118132.7,-179139.3,-375000,-375000,-147459.1,-172936.5,0.05,-0.02,0.88,-4,0,-2,54,0
'[12:41:03.224 20/01/2026]',-93509.64,-180657.5,-118118.9,-178960.3,-375000,-375000,-147413.2,-172797.5,0.05,-0.02,0.88,-4,0,-2,54,0
'[12:41:03.228 20/01/2026]',-93451.88,-180624.3,-118102.4,-179057.5,-375000,-375000,-147426.3,-172944.1,0.05,-0.02,0.88,-4,0,-2,54,0
'[12:41:03.232 20/01/2026]',-93420.63,-180608.6,-118086.4,-179195.8,-375000,-375000,-147422.8,-173032.6,0.05,-0.02,0.88,-4,0,-2,54,0
'[12:41:03.236 20/01/2026]',-93426.22,-180606.3,-118084,-179105.8,-375000,-375000,-147381.2,-172909.7,0.05,-0.02,0.88,-4,0,-2,54,0
'[12:41:03.240 20/01/2026]',-93447.14,-180611.1,-118084,-178914.9,-375000,-375000,-147356.4,-172746.9,0.05,0.00,0.89,-4,0,-2,54,0
'[12:41:03.244 20/01/2026]',-93454.02,-180608.7,-118077,-178998.8,-375000,-375000,-147401.2,-172899.3,0.05,0.00,0.89,-4,0,-2,54,0
'[12:41:03.248 20/01/2026]',-93413.44,-180581,-118041.9,-179147.8,-375000,-375000,-147395,-173009.7,0.05,0.00,0.89,-4,0,-2,54,0
'[12:41:03.252 20/01/2026]',-93390.81,-180570.2,-118048.8,-179059.1,-375000,-375000,-147360.5,-172891.3,0.05,0.00,0.89,-4,0,-2,54,0
'[12:41:03.256 20/01/2026]',-93406.33,-180585.1,-118068.2,-178865.3,-375000,-375000,-147335,-172726.2,0.05,0.00,0.89,-4,0,-2,54,0
'[12:41:03.260 20/01/2026]',-93394.34,-180572.9,-118065.1,-178911.4,-375000,-375000,-147358.6,-172829.4,0.05,0.00,0.89,-4,0,-2,54,0
'[12:41:03.264 20/01/2026]',-93368.55,-180541.4,-118059.7,-179091.5,-375000,-375000,-147384.6,-173003.1,0.05,0.00,0.89,-4,0,-2,54,0
'[12:41:03.268 20/01/2026]',-93359.39,-180530.3,-118042.6,-179065.5,-375000,-375000,-147343.9,-172904,0.05,0.00,0.89,-4,0,-2,54,0
'[12:41:03.272 20/01/2026]',-93349.38,-180534.6,-118057.2,-178877.1,-375000,-375000,-147317.9,-172736.1,0.05,0.00,0.89,-4,0,-2,54,0
'[12:41:03.276 20/01/2026]',-93371.23,-180542.2,-118026.1,-178873.2,-375000,-375000,-147325.1,-172770,0.05,0.00,0.88,-4,0,-2,54,0
'[12:41:03.280 20/01/2026]',-93367.57,-180520.3,-117977.1,-179059.6,-375000,-375000,-147325.1,-172919.2,0.05,0.00,0.88,-4,0,-2,54,0
'[12:41:03.284 20/01/2026]',-93375.13,-180525.9,-118004.4,-179077.5,-375000,-375000,-147327.8,-172884.8,0.05,0.00,0.88,-4,0,-2,54,0
'[12:41:03.288 20/01/2026]',-93366.81,-180534.7,-118028.3,-178882.9,-375000,-375000,-147300.8,-172715.5,0.05,0.00,0.88,-4,0,-2,54,0
'[12:41:03.292 20/01/2026]',-93342.98,-180523.3,-118015.5,-178877.5,-375000,-375000,-147292.5,-172707.6,0.05,0.00,0.88,-4,0,-2,54,0
'[12:41:03.296 20/01/2026]',-93328.55,-180496.6,-117980.6,-179044.1,-375000,-375000,-147323.4,-172888.8,0.05,0.00,0.88,-4,0,-2,54,0
'[12:41:03.300 20/01/2026]',-93330.91,-180482.6,-117971.7,-179124.5,-375000,-375000,-147315.8,-172903.5,0.05,0.00,0.88,-4,0,-2,54,0
'[12:41:03.304 20/01/2026]',-93323.63,-180491,-117998.5,-178975.7,-375000,-375000,-147297,-172742.3,0.05,0.00,0.88,-4,0,-2,54,0
'[12:41:03.308 20/01/2026]',-93310.53,-180490.9,-118003.4,-178881.1,-375000,-375000,-147302.3,-172689.7,0.05,0.00,0.88,-4,0,-2,54,0
'[12:41:03.312 20/01/2026]',-93309.81,-180474.4,-117964.5,-179049,-375000,-375000,-147309.1,-172868.1,0.05,0.00,0.88,-4,0,-2,54,0
'[12:41:03.316 20/01/2026]',-93298.86,-180451.4,-117935.5,-179147.8,-375000,-375000,-147279,-172882.8,0.05,0.00,0.88,-4,0,-2,54,0
'[12:41:03.320 20/01/2026]',-93296.05,-180453.3,-117948.2,-178991.1,-375000,-375000,-147247.4,-172720.7,0.05,0.00,0.88,-4,0,-2,54,0
'[12:41:03.324 20/01/2026]',-93281.38,-180454.7,-117959.4,-178839.9,-375000,-375000,-147238.2,-172611.7,0.05,0.00,0.88,-4,0,-2,54,0
'[12:41:03.328 20/01/2026]',-93259.52,-180430.9,-117940.3,-178956.5,-375000,-375000,-147263.3,-172782.3,0.05,0.00,0.88,-4,0,-2,54,0
'[12:41:03.332 20/01/2026]',-93241.02,-180405.9,-117905,-179174.1,-375000,-375000,-147255.6,-172900.2,0.05,0.00,0.88,-4,0,-2,54,0
'[12:41:03.336 20/01/2026]',-93242.8,-180408.5,-117915.6,-179063.2,-375000,-375000,-147214.7,-172739.5,0.05,0.00,0.88,-4,0,-2,54,0
'[12:41:03.340 20/01/2026]',-93241.06,-180403.8,-117924.2,-178834.5,-375000,-375000,-147182.5,-172569.7,0.05,0.00,0.88,-4,0,-2,54,0
'[12:41:03.344 20/01/2026]',-93209.41,-180377,-117908.6,-178907.3,-375000,-375000,-147205.6,-172707.5,0.05,0.00,0.88,-4,0,-2,54,0
'[12:41:03.348 20/01/2026]',-93191.98,-180356.5,-117887,-179095,-375000,-375000,-147221.1,-172848.8,0.05,-0.02,0.88,-4,0,-2,54,0
'[12:41:03.352 20/01/2026]',-93191.66,-180345.1,-117890.6,-179016,-375000,-375000,-147193.3,-172729.7,0.05,-0.02,0.88,-4,0,-2,54,0
'[12:41:03.356 20/01/2026]',-93175.66,-180339.8,-117885.6,-178823.7,-375000,-375000,-147156.6,-172560.4,0.05,-0.02,0.88,-4,0,-2,54,0
'[12:41:03.360 20/01/2026]',-93133.5,-180317.1,-117844.9,-178943.7,-375000,-375000,-147157.1,-172667.5,0.05,-0.02,0.88,-4,0,-2,54,0
'[12:41:03.364 20/01/2026]',-93109.59,-180287.1,-117815.1,-179122.2,-375000,-375000,-147162,-172802.1,0.05,-0.02,0.88,-4,0,-2,54,0
'[12:41:03.368 20/01/2026]',-93142.66,-180296.7,-117848,-179094.2,-375000,-375000,-147159,-172712.4,0.05,-0.02,0.88,-4,0,-2,54,0
'[12:41:03.372 20/01/2026]',-93192.33,-180346.3,-117916.8,-178981.9,-375000,-375000,-147168.3,-172579.3,0.05,-0.02,0.88,-4,0,-2,54,0
'[12:41:03.376 20/01/2026]',-93165.24,-180330,-117898.6,-179042.9,-375000,-375000,-147158.1,-172616.3,0.05,-0.02,0.88,-4,0,-2,54,0
'[12:41:03.380 20/01/2026]',-93137.8,-180305.3,-117860.6,-179336.6,-375000,-375000,-147171.2,-172802.9,0.05,-0.02,0.88,-4,0,-2,54,0
'[12:41:03.384 20/01/2026]',-93123.22,-180301.3,-117880.2,-179465.6,-375000,-375000,-147158.2,-172778.8,0.03,0.00,0.89,-4,0,-2,54,0
'[12:41:03.388 20/01/2026]',-93140.92,-180308.3,-117883.6,-179286,-375000,-375000,-147119,-172578.4,0.03,0.00,0.89,-4,0,-2,54,0
'[12:41:03.392 20/01/2026]',-93156.97,-180303.5,-117847.5,-179208.9,-375000,-375000,-147103.5,-172543.3,0.03,0.00,0.89,-4,0,-2,54,0
'[12:41:03.396 20/01/2026]',-93140.61,-180281.8,-117829.4,-179423.3,-375000,-375000,-147141.2,-172761.7,0.03,0.00,0.89,-4,0,-2,54,0
'[12:41:03.400 20/01/2026]',-93118.17,-180253.9,-117818.5,-179517.1,-375000,-375000,-147124.3,-172763.5,0.03,0.00,0.89,-4,0,-2,54,0
'[12:41:03.404 20/01/2026]',-93128.27,-180260.1,-117831.5,-179338.3,-375000,-375000,-147098.5,-172593.6,0.03,0.00,0.89,-4,0,-2,54,0
'[12:41:03.408 20/01/2026]',-93108.91,-180264.5,-117828.2,-179205.7,-375000,-375000,-147087.6,-172515.1,0.03,0.00,0.89,-4,0,-2,54,0
'[12:41:03.412 20/01/2026]',-93081.91,-180258.8,-117822.4,-179400,-375000,-375000,-147141.6,-172758.3,0.03,0.00,0.89,-4,0,-2,54,0
'[12:41:03.416 20/01/2026]',-93056.75,-180236.2,-117805,-179525.6,-375000,-375000,-147143.6,-172820.2,0.03,0.00,0.89,-4,0,-2,54,0
'[12:41:03.420 20/01/2026]',-93087.01,-180230.9,-117795.7,-179325.9,-375000,-375000,-147116.2,-172644.9,0.05,0.00,0.89,-4,0,-2,54,0
'[12:41:03.424 20/01/2026]',-93100.24,-180246.2,-117806.8,-179149.4,-375000,-375000,-147099.7,-172530.6,0.05,0.00,0.89,-4,0,-2,54,0
'[12:41:03.428 20/01/2026]',-93070.42,-180224.8,-117779.5,-179256.8,-375000,-375000,-147119.5,-172698.1,0.05,0.00,0.89,-4,0,-2,54,0
'[12:41:03.432 20/01/2026]',-93051.74,-180198.4,-117757,-179385.6,-375000,-375000,-147108.3,-172778.2,0.05,0.00,0.89,-4,0,-2,54,0
'[12:41:03.436 20/01/2026]',-93073.82,-180215.9,-117782.8,-179228.7,-375000,-375000,-147081.4,-172627.6,0.05,0.00,0.89,-4,0,-2,54,0
'[12:41:03.440 20/01/2026]',-93115.27,-180261.7,-117835.1,-179050.3,-375000,-375000,-147092.2,-172500.4,0.05,0.00,0.89,-4,0,-2,54,0
'[12:41:03.444 20/01/2026]',-93112.09,-180269.5,-117825.7,-179184.4,-375000,-375000,-147129.6,-172673,0.05,0.00,0.89,-4,0,-2,54,0
'[12:41:03.448 20/01/2026]',-93092.2,-180255.1,-117807.3,-179331.1,-375000,-375000,-147132.7,-172782.8,0.05,0.00,0.89,-4,0,-2,54,0
'[12:41:03.452 20/01/2026]',-93103.91,-180267.3,-117836.3,-179243.1,-375000,-375000,-147117.1,-172680.6,0.05,0.00,0.89,-4,0,-2,54,0
'[12:41:03.456 20/01/2026]',-93108.24,-180272.1,-117860.7,-179048.3,-375000,-375000,-147094.9,-172519,0.03,0.00,0.88,-4,0,-2,54,0
'[12:41:03.460 20/01/2026]',-93096.53,-180261.7,-117843,-179081.6,-375000,-375000,-147120,-172623.8,0.03,0.00,0.88,-4,0,-2,54,0
'[12:41:03.464 20/01/2026]',-93085.27,-180247.4,-117801.6,-179241.1,-375000,-375000,-147132.8,-172774.8,0.03,0.00,0.88,-4,0,-2,54,0
'[12:41:03.468 20/01/2026]',-93105.02,-180241.8,-117805.4,-179203.7,-375000,-375000,-147127.9,-172702.6,0.03,0.00,0.88,-4,0,-2,54,0
'[12:41:03.472 20/01/2026]',-93112.67,-180238.9,-117818.5,-179005.6,-375000,-375000,-147104.1,-172528.1,0.03,0.00,0.88,-4,0,-2,54,0
'[12:41:03.476 20/01/2026]',-93086.66,-180226.2,-117793.2,-178976,-375000,-375000,-147089.9,-172544,0.03,0.00,0.88,-4,0,-2,54,0
'[12:41:03.480 20/01/2026]',-93059.96,-180209.1,-117763.9,-179146.1,-375000,-375000,-147105.8,-172716.3,0.03,0.00,0.88,-4,0,-2,54,0
'[12:41:03.484 20/01/2026]',-93051.02,-180199.8,-117772.3,-179147,-375000,-375000,-147098.4,-172672.8,0.03,0.00,0.88,-4,0,-2,54,0
'[12:41:03.488 20/01/2026]',-93061.98,-180208.3,-117777.4,-178953.8,-375000,-375000,-147066.6,-172487.9,0.03,0.00,0.88,-4,0,-2,54,0
'[12:41:03.492 20/01/2026]',-93058.09,-180210,-117764.4,-178933.8,-375000,-375000,-147073.2,-172500.6,0.05,0.00,0.88,-4,0,-2,54,0
'[12:41:03.496 20/01/2026]',-93037.93,-180173.5,-117731.9,-179134.8,-375000,-375000,-147089.7,-172688.2,0.05,0.00,0.88,-4,0,-2,54,0
'[12:41:03.500 20/01/2026]',-93031.8,-180152.5,-117724.5,-179161.9,-375000,-375000,-147074.3,-172658.4,0.05,0.00,0.88,-4,0,-2,54,0
'[12:41:03.504 20/01/2026]',-93048.3,-180163.9,-117759.5,-178949.4,-375000,-375000,-147057.1,-172488.6,0.05,0.00,0.88,-4,0,-2,54,0
'[12:41:03.508 20/01/2026]',-93022.28,-180159.4,-117741.5,-178842.3,-375000,-375000,-147026.3,-172410,0.05,0.00,0.88,-4,0,-2,54,0
'[12:41:03.512 20/01/2026]',-93000.38,-180136.5,-117706,-178998.9,-375000,-375000,-147056.2,-172601.4,0.05,0.00,0.88,-4,0,-2,54,0
'[12:41:03.516 20/01/2026]',-92995.23,-180126.4,-117695.9,-179083.8,-375000,-375000,-147047,-172629.6,0.05,0.00,0.88,-4,0,-2,54,0
'[12:41:03.520 20/01/2026]',-93030.69,-180148.3,-117717.1,-178906.2,-375000,-375000,-147026.4,-172464.5,0.05,0.00,0.88,-4,0,-2,54,0
'[12:41:03.524 20/01/2026]',-93044.14,-180170.3,-117714.4,-178815.6,-375000,-375000,-147013.2,-172390.4,0.05,0.00,0.88,-4,0,-2,54,0
'[12:41:03.528 20/01/2026]',-93033.27,-180144.1,-117690.2,-178970.9,-375000,-375000,-147046.9,-172582.5,0.05,0.00,0.88,-4,0,-2,54,0
'[12:41:03.532 20/01/2026]',-93012.27,-180116.1,-117673.3,-179092.2,-375000,-375000,-147037.2,-172646.7,0.05,0.00,0.88,-4,0,-2,54,0
'[12:41:03.536 20/01/2026]',-93011.38,-180119.4,-117697.4,-178947.2,-375000,-375000,-147008.6,-172491.4,0.05,0.00,0.88,-4,0,-2,54,0
'[12:41:03.540 20/01/2026]',-93010.39,-180118.1,-117695,-178762.7,-375000,-375000,-146983.8,-172345.1,0.05,0.00,0.88,-4,0,-2,54,0
'[12:41:03.544 20/01/2026]',-93005.96,-180092.7,-117660.8,-178867.9,-375000,-375000,-147009.9,-172505,0.05,0.00,0.88,-4,0,-2,54,0
'[12:41:03.548 20/01/2026]',-92995.37,-180075.1,-117618.2,-179017.1,-375000,-375000,-147006.3,-172615.2,0.05,0.00,0.88,-4,0,-2,54,0
'[12:41:03.552 20/01/2026]',-93004.09,-180079.1,-117643.6,-178950.4,-375000,-375000,-146984.1,-172501.3,0.05,0.00,0.88,-4,0,-2,54,0
'[12:41:03.556 20/01/2026]',-93022.28,-180087.5,-117650.9,-178801.3,-375000,-375000,-146947.7,-172343.8,0.05,0.00,0.88,-4,0,-2,54,0
'[12:41:03.560 20/01/2026]',-93012.67,-180087.5,-117624.8,-178809.5,-375000,-375000,-146954.1,-172405.3,0.05,0.00,0.88,-4,0,-2,54,0
'[12:41:03.564 20/01/2026]',-93004.48,-180085.1,-117618,-178993.2,-375000,-375000,-146984.7,-172582.8,0.05,-0.02,0.88,-4,0,-2,54,0
'[12:41:03.568 20/01/2026]',-93003.77,-180078.6,-117631.6,-178966.1,-375000,-375000,-146955.8,-172504.5,0.05,-0.02,0.88,-4,0,-2,54,0
'[12:41:03.572 20/01/2026]',-93018.7,-180081.1,-117645.6,-178744.1,-375000,-375000,-146925.3,-172319.2,0.05,-0.02,0.88,-4,0,-2,54,0
'[12:41:03.576 20/01/2026]',-93011.28,-180072.4,-117630.7,-178730.2,-375000,-375000,-146937.3,-172363.2,0.05,-0.02,0.88,-4,0,-2,54,0
'[12:41:03.580 20/01/2026]',-93002.97,-180047.2,-117606.2,-178938.3,-375000,-375000,-146969.3,-172572.3,0.05,-0.02,0.88,-4,0,-2,54,0
'[12:41:03.584 20/01/2026]',-93003.64,-180043.6,-117589.6,-178922.5,-375000,-375000,-146938.3,-172500.2,0.05,-0.02,0.88,-4,0,-2,54,0
'[12:41:03.588 20/01/2026]',-93021.61,-180050.8,-117615.1,-178679.2,-375000,-375000,-146913.4,-172297,0.05,-0.02,0.88,-4,0,-2,54,0
'[12:41:03.592 20/01/2026]',-93017.59,-180039.9,-117611.5,-178610.5,-375000,-375000,-146915.4,-172296,0.05,-0.02,0.88,-4,0,-2,54,0
'[12:41:03.596 20/01/2026]',-93010.79,-180032,-117604.6,-178807.5,-375000,-375000,-146953.1,-172521.1,0.05,-0.02,0.88,-4,0,-2,54,0
'[12:41:03.600 20/01/2026]',-93035.87,-180042.2,-117624.1,-178929,-375000,-375000,-146965.9,-172558.5,0.05,-0.02,0.88,-4,0,-2,54,0
'[12:41:03.604 20/01/2026]',-93054.6,-180045.8,-117630.2,-178734.1,-375000,-375000,-146916.8,-172344.9,0.05,-0.02,0.88,-4,0,-2,54,0
'[12:41:03.608 20/01/2026]',-93063.98,-180050.8,-117631.3,-178638.5,-375000,-375000,-146911.7,-172289.3,0.05,-0.02,0.88,-4,0,-2,54,0
'[12:41:03.612 20/01/2026]',-93053.98,-180047.5,-117605.1,-178798.9,-375000,-375000,-146948.5,-172495.3,0.05,-0.02,0.88,-4,0,-2,54,0
'[12:41:03.616 20/01/2026]',-93046.15,-180035.5,-117594.7,-178877.5,-375000,-375000,-146936.2,-172514.9,0.05,-0.02,0.88,-4,0,-2,54,0
'[12:41:03.620 20/01/2026]',-93060.99,-180034.5,-117619.8,-178703.7,-375000,-375000,-146910,-172349.8,0.05,-0.02,0.88,-4,0,-2,54,0
'[12:41:03.624 20/01/2026]',-93059.38,-180035,-117628.8,-178576.8,-375000,-375000,-146894.2,-172248.1,0.05,-0.02,0.88,-4,0,-2,54,0
'[12:41:03.628 20/01/2026]',-93041.63,-180006.5,-117603.1,-178723.1,-375000,-375000,-146925.3,-172432.9,0.05,-0.02,0.88,-4,0,-2,54,0
'[12:41:03.632 20/01/2026]',-93027.82,-179988.5,-117582,-178897.5,-375000,-375000,-146924.3,-172524,0.05,-0.02,0.88,-4,0,-2,54,0
'[12:41:03.636 20/01/2026]',-93040.52,-179997.1,-117597.5,-178751.5,-375000,-375000,-146893.7,-172360.7,0.05,0.00,0.88,-4,0,-2,54,0
'[12:41:03.640 20/01/2026]',-93045.84,-180008,-117609.6,-178598.9,-375000,-375000,-146882.1,-172233.7,0.05,0.00,0.88,-4,0,-2,54,0
'[12:41:03.644 20/01/2026]',-93049.23,-180007.6,-117617.2,-178724.9,-375000,-375000,-146933.7,-172419.6,0.05,0.00,0.88,-4,0,-2,54,0
'[12:41:03.648 20/01/2026]',-93039.67,-179980.3,-117589.8,-178864.3,-375000,-375000,-146924.4,-172504.2,0.05,0.00,0.88,-4,0,-2,54,0
