'Time and date','Fp1','Fp2','F3','Fz','F4','P3','Pz','P4','AccX','AccY','AccZ','GyroX','GyroY','GyroZ','Battery','Event'
'[hh:mm:ss.mmm dd/mm/yyyy]','uV','uV','uV','uV','uV','uV','uV','uV','G','G','G','Deg/s','Deg/s','Deg/s','%','Button'
'[11:30:00.000 21/01/2026]',-105733.1,-173565.9,-116468.4,19750.54,-375000,-375000,-147945.9,-127914.6,0.03,-0.02,0.88,-4,0,-2,29,0
'[11:30:00.004 21/01/2026]',-105082.8,-173341.4,-115763.3,20695.84,-375000,-375000,-147352.6,-127061.2,0.03,-0.02,0.88,-4,0,-2,29,0
'[11:30:00.008 21/01/2026]',-102994.1,-170460.9,-113719.8,22770.17,-375000,-375000,-145508.7,-125297.2,0.03,-0.02,0.88,-4,0,-2,29,0
'[11:30:00.012 21/01/2026]',-103339.2,-170268.4,-114137.7,22108.82,-375000,-375000,-145848.8,-125920.3,0.03,-0.02,0.88,-4,0,-2,29,0
'[11:30:00.016 21/01/2026]',-105474.3,-173161.5,-116221.4,19962.34,-375000,-375000,-147732.6,-127737.6,0.03,-0.02,0.88,-4,0,-2,29,0
'[11:30:00.020 21/01/2026]',-105398.8,-173691,-116070.7,20342.46,-375000,-375000,-147637.7,-127363.9,0.03,-0.02,0.88,-4,0,-2,29,0
'[11:30:00.024 21/01/2026]',-103238,-170881.3,-113939.9,22549.11,-375000,-375000,-145727.3,-125484.1,0.03,-0.02,0.88,-4,0,-2,29,0
'[11:30:00.028 21/01/2026]',-103025.7,-169938.3,-113811,22463.64,-375000,-375000,-145579.3,-125622.9,0.03,-0.02,0.88,-4,0,-2,29,0
'[11:30:00.032 21/01/2026]',-105183.6,-172692.6,-115949.5,20231.14,-375000,-375000,-147471.9,-127518.8,0.03,-0.02,0.88,-4,0,-2,29,0
'[11:30:00.036 21/01/2026]',-105708.6,-173997.3,-116385.5,19990.77,-375000,-375000,-147901.7,-127673.5,0.03,0.00,0.88,-4,0,-2,29,0
'[11:30:00.040 21/01/2026]',-103570.5,-171399.7,-114267.7,22230.55,-375000,-375000,-146027.6,-125761.3,0.03,0.00,0.88,-4,0,-2,29,0
'[11:30:00.044 21/01/2026]',-102771.4,-169743.1,-113551.6,22771.2,-375000,-375000,-145354.8,-125360.2,0.03,0.00,0.88,-4,0,-2,29,0
'[11:30:00.048 21/01/2026]',-104816.1,-172178,-115600.2,20576.17,-375000,-375000,-147154.5,-127233.5,0.03,0.00,0.88,-4,0,-2,29,0
'[11:30:00.052 21/01/2026]',-105845.2,-174084.5,-116545.7,19783.75,-375000,-375000,-148046.3,-127865.7,0.03,0.00,0.88,-4,0,-2,29,0
'[11:30:00.056 21/01/2026]',-103920.9,-171896.7,-114626,21876.59,-375000,-375000,-146334.5,-126044.2,0.03,0.00,0.88,-4,0,-2,29,0
'[11:30:00.060 21/01/2026]',-102650.8,-169707.5,-113421.8,22940.58,-375000,-375000,-145247.7,-125192.8,0.03,0.00,0.88,-4,0,-2,29,0
'[11:30:00.064 21/01/2026]',-104447.1,-171676,-115245.6,20926.46,-375000,-375000,-146838.1,-126926,0.03,0.00,0.88,-4,0,-2,29,0
'[11:30:00.068 21/01/2026]',-105920.3,-174066.1,-116635.9,19648.21,-375000,-375000,-148121.1,-127988.4,0.03,0.00,0.88,-4,0,-2,29,0
'[11:30:00.072 21/01/2026]',-104299.4,-172401.5,-114994.2,21495.58,-375000,-375000,-146680.5,-126377,0.03,-0.02,0.86,-4,0,-2,29,0
'[11:30:00.076 21/01/2026]',-102620.2,-169790,-113378.6,23027.57,-375000,-375000,-145217.5,-125113.1,0.03,-0.02,0.86,-4,0,-2,29,0
'[11:30:00.080 21/01/2026]',-104061.6,-171152.1,-114861.5,21317.48,-375000,-375000,-146501.1,-126599,0.03,-0.02,0.86,-4,0,-2,29,0
'[11:30:00.084 21/01/2026]',-105880.9,-173896.1,-116619.7,19629.97,-375000,-375000,-148099.2,-128016.6,0.03,-0.02,0.86,-4,0,-2,29,0
'[11:30:00.088 21/01/2026]',-104666,-172873.9,-115359.9,21119.67,-375000,-375000,-147006.9,-126702.4,0.03,-0.02,0.86,-4,0,-2,29,0
'[11:30:00.092 21/01/2026]',-102721,-170036.4,-113467.4,22978.22,-375000,-375000,-145302.2,-125145.4,0.03,-0.02,0.86,-4,0,-2,29,0
'[11:30:00.096 21/01/2026]',-103687.1,-170681.8,-114486.9,21712.71,-375000,-375000,-146177.4,-126275.9,0.03,-0.02,0.86,-4,0,-2,29,0
'[11:30:00.100 21/01/2026]',-105711.9,-173580.4,-116466.8,19748.93,-375000,-375000,-147969.2,-127937.4,0.03,-0.02,0.86,-4,0,-2,29,0
'[11:30:00.104 21/01/2026]',-105029.5,-173307.3,-115723.8,20731.2,-375000,-375000,-147340,-127040.8,0.03,-0.02,0.86,-4,0,-2,29,0
'[11:30:00.108 21/01/2026]',-102921,-170405,-113663.9,22812.14,-375000,-375000,-145488,-125283,0.02,-0.02,0.88,-4,0,-2,29,0
'[11:30:00.112 21/01/2026]',-103312.8,-170273.8,-114129.8,22096.76,-375000,-375000,-145871.3,-125953.7,0.02,-0.02,0.88,-4,0,-2,29,0
'[11:30:00.116 21/01/2026]',-105498.7,-173199,-116268.4,19925.33,-375000,-375000,-147780.4,-127783.9,0.02,-0.02,0.88,-4,0,-2,29,0
'[11:30:00.120 21/01/2026]',-105362.3,-173663.3,-116063.5,20363.69,-375000,-375000,-147631.5,-127357.2,0.02,-0.02,0.88,-4,0,-2,29,0
'[11:30:00.124 21/01/2026]',-103170.8,-170817.9,-113906.1,22589.97,-375000,-375000,-145699,-125458.5,0.02,-0.02,0.88,-4,0,-2,29,0
'[11:30:00.128 21/01/2026]',-103015.1,-169946.3,-113820.1,22452.73,-375000,-375000,-145594.8,-125647.3,0.02,-0.02,0.88,-4,0,-2,29,0
'[11:30:00.132 21/01/2026]',-105184.4,-172721,-115960.3,20215.41,-375000,-375000,-147502.3,-127549.6,0.02,-0.02,0.88,-4,0,-2,29,0
'[11:30:00.136 21/01/2026]',-105642.9,-173938.7,-116340.6,20040.08,-375000,-375000,-147883,-127641,0.02,-0.02,0.88,-4,0,-2,29,0
'[11:30:00.140 21/01/2026]',-103521.1,-171324.8,-114229.1,22269.89,-375000,-375000,-146002.1,-125727.4,0.02,-0.02,0.88,-4,0,-2,29,0
'[11:30:00.144 21/01/2026]',-102781.9,-169744.8,-113577.9,22742.09,-375000,-375000,-145390.6,-125393.5,0.03,-0.02,0.86,-4,0,-2,29,0
'[11:30:00.148 21/01/2026]',-104822.5,-172207,-115614.7,20555.96,-375000,-375000,-147196.3,-127273.2,0.03,-0.02,0.86,-4,0,-2,29,0
'[11:30:00.152 21/01/2026]',-105821.8,-174072.3,-116532.4,19802.3,-375000,-375000,-148055.1,-127868.9,0.03,-0.02,0.86,-4,0,-2,29,0
'[11:30:00.156 21/01/2026]',-103878.6,-171838.6,-114592.1,21914.37,-375000,-375000,-146330.7,-126042.6,0.03,-0.02,0.86,-4,0,-2,29,0
'[11:30:00.160 21/01/2026]',-102625.1,-169680.9,-113417.6,22943.35,-375000,-375000,-145264.7,-125221.8,0.03,-0.02,0.86,-4,0,-2,29,0
'[11:30:00.164 21/01/2026]',-104449.5,-171686.4,-115255.2,20914.04,-375000,-375000,-146873.2,-126968.6,0.03,-0.02,0.86,-4,0,-2,29,0
'[11:30:00.168 21/01/2026]',-105913.8,-174070,-116643.8,19650.94,-375000,-375000,-148148.7,-128013.7,0.03,-0.02,0.86,-4,0,-2,29,0
'[11:30:00.172 21/01/2026]',-104245.9,-172343,-114951.7,21545.03,-375000,-375000,-146660.7,-126353.8,0.03,-0.02,0.86,-4,0,-2,29,0
'[11:30:00.176 21/01/2026]',-102616.3,-169778.3,-113380.9,23021.89,-375000,-375000,-145241,-125134.2,0.03,-0.02,0.86,-4,0,-2,29,0
'[11:30:00.180 21/01/2026]',-104073.7,-171187.3,-114885.5,21289.63,-375000,-375000,-146545.7,-126645.7,0.03,0.00,0.88,-4,0,-2,29,0
'[11:30:00.184 21/01/2026]',-105872.6,-173922.3,-116629.2,19617.99,-375000,-375000,-148133.1,-128043.3,0.03,0.00,0.88,-4,0,-2,29,0
'[11:30:00.188 21/01/2026]',-104632.4,-172851.4,-115344.9,21137.15,-375000,-375000,-147011.8,-126696.2,0.03,0.00,0.88,-4,0,-2,29,0
'[11:30:00.192 21/01/2026]',-102697.9,-170013,-113457.6,22985.82,-375000,-375000,-145308.1,-125151.1,0.03,0.00,0.88,-4,0,-2,29,0
'[11:30:00.196 21/01/2026]',-103688.8,-170706.6,-114506.5,21689.28,-375000,-375000,-146202.1,-126299.1,0.03,0.00,0.88,-4,0,-2,29,0
'[11:30:00.200 21/01/2026]',-105723.9,-173610.9,-116486.8,19727.69,-375000,-375000,-147993.4,-127950.6,0.03,0.00,0.88,-4,0,-2,29,0
'[11:30:00.204 21/01/2026]',-104996.1,-173268.9,-115702.2,20761.69,-375000,-375000,-147322.8,-127018.2,0.03,0.00,0.88,-4,0,-2,29,0
'[11:30:00.208 21/01/2026]',-102882.8,-170351.2,-113626.6,22845.99,-375000,-375000,-145464,-125257.6,0.03,0.00,0.88,-4,0,-2,29,0
'[11:30:00.212 21/01/2026]',-103336.2,-170290.5,-114155.3,22075.61,-375000,-375000,-145897.3,-125973.9,0.03,0.00,0.88,-4,0,-2,29,0
'[11:30:00.216 21/01/2026]',-105501.2,-173227,-116283,19916.16,-375000,-375000,-147802.7,-127801,0.03,-0.02,0.88,-4,0,-2,29,0
'[11:30:00.220 21/01/2026]',-105336.7,-173646.2,-116045.4,20389.84,-375000,-375000,-147627.2,-127346.2,0.03,-0.02,0.88,-4,0,-2,29,0
'[11:30:00.224 21/01/2026]',-103169.2,-170805.9,-113906.2,22593.5,-375000,-375000,-145711.2,-125470.5,0.03,-0.02,0.88,-4,0,-2,29,0
'[11:30:00.228 21/01/2026]',-103014.4,-169961.7,-113823.4,22443.25,-375000,-375000,-145614.4,-125664.4,0.03,-0.02,0.88,-4,0,-2,29,0
'[11:30:00.232 21/01/2026]',-105194.7,-172754.3,-115991.6,20193.64,-375000,-375000,-147538.5,-127577,0.03,-0.02,0.88,-4,0,-2,29,0
'[11:30:00.236 21/01/2026]',-105604.7,-173915.2,-116323.9,20065.21,-375000,-375000,-147882.1,-127637,0.03,-0.02,0.88,-4,0,-2,29,0
'[11:30:00.240 21/01/2026]',-103461.8,-171262.5,-114193.4,22306.19,-375000,-375000,-145991.2,-125719.4,0.03,-0.02,0.88,-4,0,-2,29,0
'[11:30:00.244 21/01/2026]',-102769,-169724,-113583.5,22729.18,-375000,-375000,-145421.9,-125424.3,0.03,-0.02,0.88,-4,0,-2,29,0
'[11:30:00.248 21/01/2026]',-104854.3,-172235.3,-115661.1,20519.57,-375000,-375000,-147233.5,-127295.7,0.03,-0.02,0.88,-4,0,-2,29,0
'[11:30:00.252 21/01/2026]',-105834.3,-174076.8,-116555.1,19798.01,-375000,-375000,-148066.8,-127859.8,0.03,0.00,0.88,-4,0,-2,29,0
'[11:30:00.256 21/01/2026]',-103865.9,-171792,-114569,21944.9,-375000,-375000,-146302.8,-126001.7,0.03,0.00,0.88,-4,0,-2,29,0
'[11:30:00.260 21/01/2026]',-102673.9,-169680.5,-113441,22927.39,-375000,-375000,-145275.2,-125220,0.03,0.00,0.88,-4,0,-2,29,0
'[11:30:00.264 21/01/2026]',-104513.6,-171719.9,-115292.6,20886.14,-375000,-375000,-146895.9,-126976.5,0.03,0.00,0.88,-4,0,-2,29,0
'[11:30:00.268 21/01/2026]',-105946.5,-174056,-116645.8,19666.14,-375000,-375000,-148126.8,-127974.2,0.03,0.00,0.88,-4,0,-2,29,0
'[11:30:00.272 21/01/2026]',-104264.7,-172284.6,-114932.3,21583.25,-375000,-375000,-146609.1,-126294.2,0.03,0.00,0.88,-4,0,-2,29,0
'[11:30:00.276 21/01/2026]',-102656.7,-169730.7,-113390.9,23034.05,-375000,-375000,-145213.9,-125102.3,0.03,0.00,0.88,-4,0,-2,29,0
'[11:30:00.280 21/01/2026]',-104148.7,-171177.6,-114925.2,21280.02,-375000,-375000,-146543.7,-126631.7,0.03,0.00,0.88,-4,0,-2,29,0
'[11:30:00.284 21/01/2026]',-105938.3,-173893.5,-116652.4,19627.47,-375000,-375000,-148116.9,-128012.4,0.03,0.00,0.88,-4,0,-2,29,0
'[11:30:00.288 21/01/2026]',-104661.1,-172765.8,-115326.5,21178.86,-375000,-375000,-146962.9,-126641.4,0.03,-0.02,0.88,-4,0,-2,29,0
'[11:30:00.292 21/01/2026]',-102754.3,-169958.4,-113473.3,22992.3,-375000,-375000,-145294,-125127.2,0.03,-0.02,0.88,-4,0,-2,29,0
'[11:30:00.296 21/01/2026]',-103784.8,-170712.8,-114562.3,21651.51,-375000,-375000,-146234.2,-126321.9,0.03,-0.02,0.88,-4,0,-2,29,0
'[11:30:00.300 21/01/2026]',-105797.4,-173597.1,-116523.8,19722.96,-375000,-375000,-147996.1,-127944.4,0.03,-0.02,0.88,-4,0,-2,29,0
'[11:30:00.304 21/01/2026]',-105004.4,-173192.6,-115679.1,20810.81,-375000,-375000,-147278.2,-126966.6,0.03,-0.02,0.88,-4,0,-2,29,0
'[11:30:00.308 21/01/2026]',-102906.5,-170281,-113622.5,22874.01,-375000,-375000,-145430.8,-125220.5,0.03,-0.02,0.88,-4,0,-2,29,0
'[11:30:00.312 21/01/2026]',-103409.3,-170285.2,-114184.8,22058.67,-375000,-375000,-145906.1,-125976.8,0.03,-0.02,0.88,-4,0,-2,29,0
'[11:30:00.316 21/01/2026]',-105590.7,-173235,-116330.3,19897.03,-375000,-375000,-147812.3,-127796,0.03,-0.02,0.88,-4,0,-2,29,0
'[11:30:00.320 21/01/2026]',-105370.9,-173600.7,-116044.2,20411.08,-375000,-375000,-147601.4,-127306.3,0.03,-0.02,0.88,-4,0,-2,29,0
'[11:30:00.324 21/01/2026]',-103193.1,-170740.5,-113904.6,22612.86,-375000,-375000,-145689.4,-125433.8,0.03,0.00,0.88,-4,0,-2,29,0
'[11:30:00.328 21/01/2026]',-103091.6,-169942.5,-113873.7,22415.49,-375000,-375000,-145635.3,-125667.9,0.03,0.00,0.88,-4,0,-2,29,0
'[11:30:00.332 21/01/2026]',-105254.8,-172753.4,-116012.2,20185.81,-375000,-375000,-147544.3,-127567.5,0.03,0.00,0.88,-4,0,-2,29,0
'[11:30:00.336 21/01/2026]',-105638.8,-173864.7,-116324.1,20092.16,-375000,-375000,-147855.3,-127598.1,0.03,0.00,0.88,-4,0,-2,29,0
'[11:30:00.340 21/01/2026]',-103499.5,-171204,-114197.3,22330.33,-375000,-375000,-145956.3,-125675,0.03,0.00,0.88,-4,0,-2,29,0
'[11:30:00.344 21/01/2026]',-102850.8,-169719,-113635.8,22710.53,-375000,-375000,-145417.7,-125415.1,0.03,0.00,0.88,-4,0,-2,29,0
'[11:30:00.348 21/01/2026]',-104912.8,-172237,-115682.5,20510.23,-375000,-375000,-147239.3,-127292.4,0.03,0.00,0.88,-4,0,-2,29,0
'[11:30:00.352 21/01/2026]',-105850.7,-174035.7,-116536,19823.36,-375000,-375000,-148049.4,-127837.3,0.03,0.00,0.88,-4,0,-2,29,0
'[11:30:00.356 21/01/2026]',-103868.8,-171731,-114550.5,21973.73,-375000,-375000,-146281.5,-125972.5,0.03,0.00,0.88,-4,0,-2,29,0
'[11:30:00.360 21/01/2026]',-102705.7,-169654.6,-113473.5,22911.48,-375000,-375000,-145285.8,-125225.1,0.03,-0.02,0.86,-4,0,-2,29,0
'[11:30:00.364 21/01/2026]',-104542.1,-171726.4,-115320.9,20862.63,-375000,-375000,-146927,-127002.8,0.03,-0.02,0.86,-4,0,-2,29,0
'[11:30:00.368 21/01/2026]',-105936.4,-174039.1,-116652.1,19668.24,-375000,-375000,-148145.4,-127988.4,0.03,-0.02,0.86,-4,0,-2,29,0
'[11:30:00.372 21/01/2026]',-104219.3,-172214.7,-114903.8,21618.29,-375000,-375000,-146596.6,-126286.3,0.03,-0.02,0.86,-4,0,-2,29,0
'[11:30:00.376 21/01/2026]',-102629.4,-169694.6,-113381.6,23037.27,-375000,-375000,-145220.6,-125126,0.03,-0.02,0.86,-4,0,-2,29,0
'[11:30:00.380 21/01/2026]',-104166.1,-171213.7,-114955.6,21240.59,-375000,-375000,-146583.8,-126680,0.03,-0.02,0.86,-4,0,-2,29,0
'[11:30:00.384 21/01/2026]',-105939.3,-173901.2,-116669.1,19620.27,-375000,-375000,-148128.2,-128028.8,0.03,-0.02,0.86,-4,0,-2,29,0
'[11:30:00.388 21/01/2026]',-104637.3,-172740.8,-115324.3,21189.19,-375000,-375000,-146960,-126648.4,0.03,-0.02,0.86,-4,0,-2,29,0
'[11:30:00.392 21/01/2026]',-102717.3,-169933.3,-113450.6,23001.55,-375000,-375000,-145288.3,-125137.6,0.03,-0.02,0.86,-4,0,-2,29,0
'[11:30:00.396 21/01/2026]',-103793.9,-170740.5,-114578.7,21631.35,-375000,-375000,-146251.8,-126346.6,0.03,-0.02,0.88,-4,0,-2,29,0
'[11:30:00.400 21/01/2026]',-105820.7,-173641.6,-116557.5,19694.35,-375000,-375000,-148021.3,-127963.6,0.03,-0.02,0.88,-4,0,-2,29,0
'[11:30:00.404 21/01/2026]',-104988.1,-173176.8,-115676.7,20813.01,-375000,-375000,-147276.7,-126961.2,0.03,-0.02,0.88,-4,0,-2,29,0
'[11:30:00.408 21/01/2026]',-102896.3,-170262.4,-113620.9,22867.85,-375000,-375000,-145438.3,-125229.3,0.03,-0.02,0.88,-4,0,-2,29,0
'[11:30:00.412 21/01/2026]',-103448.8,-170325.3,-114233.9,22003.64,-375000,-375000,-145947.8,-126016.9,0.03,-0.02,0.88,-4,0,-2,29,0
'[11:30:00.416 21/01/2026]',-105596.3,-173258.3,-116341.7,19877.81,-375000,-375000,-147831.2,-127813.1,0.03,-0.02,0.88,-4,0,-2,29,0
'[11:30:00.420 21/01/2026]',-105343.7,-173565.6,-116029,20429.76,-375000,-375000,-147586.6,-127286.3,0.03,-0.02,0.88,-4,0,-2,29,0
'[11:30:00.424 21/01/2026]',-103176.6,-170705,-113903.8,22615.45,-375000,-375000,-145683.1,-125430.9,0.03,-0.02,0.88,-4,0,-2,29,0
'[11:30:00.428 21/01/2026]',-103125.5,-169975.8,-113910.1,22369.4,-375000,-375000,-145665.7,-125703.9,0.03,-0.02,0.88,-4,0,-2,29,0
'[11:30:00.432 21/01/2026]',-105300.7,-172799.2,-116059.2,20138.47,-375000,-375000,-147580,-127599.4,0.03,-0.02,0.88,-4,0,-2,29,0
'[11:30:00.436 21/01/2026]',-105614.5,-173845.7,-116311.8,20098.06,-375000,-375000,-147843.6,-127580.1,0.03,-0.02,0.88,-4,0,-2,29,0
'[11:30:00.440 21/01/2026]',-103478.3,-171168.8,-114191.5,22334,-375000,-375000,-145950.6,-125668,0.03,-0.02,0.88,-4,0,-2,29,0
'[11:30:00.444 21/01/2026]',-102858.6,-169729.6,-113638.5,22689.08,-375000,-375000,-145438.3,-125435.1,0.03,-0.02,0.88,-4,0,-2,29,0
'[11:30:00.448 21/01/2026]',-104956.3,-172289.6,-115736,20460.03,-375000,-375000,-147282.8,-127328.9,0.03,-0.02,0.88,-4,0,-2,29,0
'[11:30:00.452 21/01/2026]',-105834.7,-174013.5,-116551.8,19832.75,-375000,-375000,-148033.2,-127810.6,0.03,-0.02,0.88,-4,0,-2,29,0
'[11:30:00.456 21/01/2026]',-103848.5,-171678,-114553.2,21988.26,-375000,-375000,-146258.1,-125951,0.03,-0.02,0.88,-4,0,-2,29,0
'[11:30:00.460 21/01/2026]',-102689.8,-169641.3,-113457.9,22911.25,-375000,-375000,-145284.6,-125231.1,0.03,-0.02,0.88,-4,0,-2,29,0
'[11:30:00.464 21/01/2026]',-104583.1,-171774.5,-115365.8,20823.42,-375000,-375000,-146947.8,-127020.8,0.03,-0.02,0.88,-4,0,-2,29,0
'[11:30:00.468 21/01/2026]',-105948.1,-174049.4,-116656.6,19665.2,-375000,-375000,-148135.6,-127972.7,0.03,-0.02,0.88,-4,0,-2,29,0
'[11:30:00.472 21/01/2026]',-104225.2,-172204.1,-114916.2,21615.61,-375000,-375000,-146599.1,-126280.4,0.03,-0.02,0.88,-4,0,-2,29,0
'[11:30:00.476 21/01/2026]',-102638.3,-169688.5,-113394.2,23035.71,-375000,-375000,-145225.2,-125114.8,0.03,-0.02,0.88,-4,0,-2,29,0
'[11:30:00.480 21/01/2026]',-104188.1,-171238.5,-114975.5,21225.3,-375000,-375000,-146605.6,-126691.5,0.03,-0.02,0.88,-4,0,-2,29,0
'[11:30:00.484 21/01/2026]',-105927.4,-173899.7,-116645.5,19640.57,-375000,-375000,-148121.9,-128013.1,0.03,-0.02,0.88,-4,0,-2,29,0
'[11:30:00.488 21/01/2026]',-104590.1,-172675.5,-115275.6,21240.19,-375000,-375000,-146922.1,-126602.9,0.03,-0.02,0.88,-4,0,-2,29,0
'[11:30:00.492 21/01/2026]',-102708.7,-169893.5,-113456,23014.43,-375000,-375000,-145279,-125122.2,0.03,-0.02,0.88,-4,0,-2,29,0
'[11:30:00.496 21/01/2026]',-103814.8,-170759.8,-114611.6,21613.15,-375000,-375000,-146271.2,-126357.9,0.03,-0.02,0.88,-4,0,-2,29,0
'[11:30:00.500 21/01/2026]',-105820.7,-173656.8,-116552.5,19697.61,-375000,-375000,-148032.7,-127969.6,0.03,-0.02,0.88,-4,0,-2,29,0
'[11:30:00.504 21/01/2026]',-104957.3,-173140.2,-115650.6,20843.4,-375000,-375000,-147259.8,-126944.9,0.03,0.00,0.88,-4,0,-2,29,0
'[11:30:00.508 21/01/2026]',-102859.2,-170225.3,-113604.9,22890.69,-375000,-375000,-145426.1,-125224,0.03,0.00,0.88,-4,0,-2,29,0
'[11:30:00.512 21/01/2026]',-103448.9,-170339.4,-114253,21996.13,-375000,-375000,-145965.7,-126038.8,0.03,0.00,0.88,-4,0,-2,29,0
'[11:30:00.516 21/01/2026]',-105588.7,-173262.3,-116333.5,19892.65,-375000,-375000,-147829.6,-127819.8,0.03,0.00,0.88,-4,0,-2,29,0
'[11:30:00.520 21/01/2026]',-105294.9,-173514.6,-115980.7,20483.41,-375000,-375000,-147549,-127256.9,0.03,0.00,0.88,-4,0,-2,29,0
'[11:30:00.524 21/01/2026]',-103133.2,-170655.4,-113859.6,22661.81,-375000,-375000,-145649,-125403.3,0.03,0.00,0.88,-4,0,-2,29,0
'[11:30:00.528 21/01/2026]',-103148.1,-170007.5,-113936.3,22345.22,-375000,-375000,-145699.3,-125742.4,0.03,0.00,0.88,-4,0,-2,29,0
'[11:30:00.532 21/01/2026]',-105318.5,-172827.9,-116083.4,20133.87,-375000,-375000,-147600.7,-127616.7,0.03,0.00,0.88,-4,0,-2,29,0
'[11:30:00.536 21/01/2026]',-105592.5,-173823.1,-116287.5,20143.3,-375000,-375000,-147824.6,-127556.1,0.03,0.00,0.88,-4,0,-2,29,0
'[11:30:00.540 21/01/2026]',-103459.7,-171140.5,-114158.4,22370.07,-375000,-375000,-145933.5,-125651.7,0.03,0.00,0.86,-4,0,-2,29,0
'[11:30:00.544 21/01/2026]',-102879.1,-169754.4,-113655.5,22675.84,-375000,-375000,-145461.9,-125455.6,0.03,0.00,0.86,-4,0,-2,29,0
'[11:30:00.548 21/01/2026]',-104970.3,-172315.7,-115743.9,20461.59,-375000,-375000,-147307.6,-127347.4,0.03,0.00,0.86,-4,0,-2,29,0
'[11:30:00.552 21/01/2026]',-105807.7,-173985.8,-116510.8,19872.35,-375000,-375000,-148037.3,-127810.8,0.03,0.00,0.86,-4,0,-2,29,0
'[11:30:00.556 21/01/2026]',-103778.4,-171607.2,-114493.8,22043.78,-375000,-375000,-146242,-125932.7,0.03,0.00,0.86,-4,0,-2,29,0
'[11:30:00.560 21/01/2026]',-102696,-169638.6,-113468.8,22913.8,-375000,-375000,-145291.2,-125240.5,0.03,0.00,0.86,-4,0,-2,29,0
'[11:30:00.564 21/01/2026]',-104623.2,-171833.1,-115398,20802.01,-375000,-375000,-146984.8,-127053.4,0.03,0.00,0.86,-4,0,-2,29,0
'[11:30:00.568 21/01/2026]',-105946.5,-174075,-116647.3,19687.59,-375000,-375000,-148137.1,-127963.1,0.03,0.00,0.86,-4,0,-2,29,0
'[11:30:00.572 21/01/2026]',-104198,-172200,-114882.9,21647.48,-375000,-375000,-146575.1,-126254.5,0.03,0.00,0.86,-4,0,-2,29,0
'[11:30:00.576 21/01/2026]',-102685.7,-169755.5,-113426.5,23000.57,-375000,-375000,-145252.5,-125143.9,0.02,0.00,0.88,-4,0,-2,29,0
'[11:30:00.580 21/01/2026]',-104279.3,-171364.2,-115038.2,21169.25,-375000,-375000,-146655.5,-126731.7,0.02,0.00,0.88,-4,0,-2,29,0
'[11:30:00.584 21/01/2026]',-105971,-173984.2,-116668.9,19624.29,-375000,-375000,-148154.5,-128028,0.02,0.00,0.88,-4,0,-2,29,0
'[11:30:00.588 21/01/2026]',-104602.4,-172715.8,-115255.9,21261.16,-375000,-375000,-146914.3,-126583,0.02,0.00,0.88,-4,0,-2,29,0
'[11:30:00.592 21/01/2026]',-102758.2,-169967.9,-113476.3,22991.05,-375000,-375000,-145302.3,-125141.6,0.02,0.00,0.88,-4,0,-2,29,0
'[11:30:00.596 21/01/2026]',-103909.9,-170896.3,-114680,21546.5,-375000,-375000,-146336.4,-126412.3,0.02,0.00,0.88,-4,0,-2,29,0
'[11:30:00.600 21/01/2026]',-105857.1,-173735.7,-116562.7,19688.44,-375000,-375000,-148051.6,-127972.5,0.02,0.00,0.88,-4,0,-2,29,0
'[11:30:00.604 21/01/2026]',-104959.9,-173169.1,-115622.4,20873.44,-375000,-375000,-147242.2,-126920,0.02,0.00,0.88,-4,0,-2,29,0
'[11:30:00.608 21/01/2026]',-102907.8,-170286.6,-113619.5,22877.19,-375000,-375000,-145440.1,-125236.9,0.02,0.00,0.88,-4,0,-2,29,0
'[11:30:00.612 21/01/2026]',-103528.1,-170454.6,-114303.2,21943.06,-375000,-375000,-146012.6,-126085.2,0.02,0.00,0.88,-4,0,-2,29,0
'[11:30:00.616 21/01/2026]',-105645.4,-173369.5,-116374.7,19860.64,-375000,-375000,-147874.4,-127851.4,0.02,0.00,0.88,-4,0,-2,29,0
'[11:30:00.620 21/01/2026]',-105324.8,-173592.2,-115990.8,20479.25,-375000,-375000,-147572.4,-127271.3,0.02,0.00,0.88,-4,0,-2,29,0
'[11:30:00.624 21/01/2026]',-103146.6,-170704.6,-113853,22669.18,-375000,-375000,-145653.5,-125403.5,0.02,0.00,0.88,-4,0,-2,29,0
'[11:30:00.628 21/01/2026]',-103186.9,-170101.9,-113972.4,22314.82,-375000,-375000,-145730.4,-125763.5,0.02,0.00,0.88,-4,0,-2,29,0
'[11:30:00.632 21/01/2026]',-105366.5,-172937.1,-116118.3,20097.84,-375000,-375000,-147645.2,-127652.3,0.02,0.00,0.88,-4,0,-2,29,0
'[11:30:00.636 21/01/2026]',-105602.4,-173870.7,-116275.8,20156.4,-375000,-375000,-147827.4,-127554.5,0.02,0.00,0.88,-4,0,-2,29,0
'[11:30:00.640 21/01/2026]',-103453.6,-171169.3,-114153.6,22384.69,-375000,-375000,-145927,-125641.4,0.02,0.00,0.88,-4,0,-2,29,0
'[11:30:00.644 21/01/2026]',-102913.3,-169830,-113684.9,22650.77,-375000,-375000,-145485.1,-125481.2,0.02,0.00,0.88,-4,0,-2,29,0
'[11:30:00.648 21/01/2026]',-105019.9,-172421.8,-115781.2,20427.57,-375000,-375000,-147343.1,-127378,0.03,-0.02,0.88,-4,0,-2,29,0
'[11:30:00.652 21/01/2026]',-105829,-174061.6,-116515.7,19876.42,-375000,-375000,-148039,-127802.6,0.03,-0.02,0.88,-4,0,-2,29,0
'[11:30:00.656 21/01/2026]',-103806.1,-171677.7,-114495.6,22043.2,-375000,-375000,-146250,-125942.4,0.03,-0.02,0.88,-4,0,-2,29,0
'[11:30:00.660 21/01/2026]',-102737.1,-169715.2,-113500.7,22886.8,-375000,-375000,-145338.1,-125287.5,0.03,-0.02,0.88,-4,0,-2,29,0
'[11:30:00.664 21/01/2026]',-104649.1,-171898.7,-115422.7,20789.94,-375000,-375000,-147026.3,-127085.5,0.03,-0.02,0.88,-4,0,-2,29,0
'[11:30:00.668 21/01/2026]',-105938,-174104.8,-116645,19700.74,-375000,-375000,-148160,-127975.7,0.03,-0.02,0.88,-4,0,-2,29,0
'[11:30:00.672 21/01/2026]',-104170.4,-172189.2,-114860.9,21684.28,-375000,-375000,-146577.1,-126252.4,0.03,-0.02,0.88,-4,0,-2,29,0
'[11:30:00.676 21/01/2026]',-102649.8,-169732.3,-113405.3,23029.54,-375000,-375000,-145257.8,-125154.9,0.03,-0.02,0.88,-4,0,-2,29,0
'[11:30:00.680 21/01/2026]',-104257.3,-171366.3,-115046.6,21171.13,-375000,-375000,-146688.7,-126775.6,0.03,-0.02,0.88,-4,0,-2,29,0
'[11:30:00.684 21/01/2026]',-105937.5,-173976.5,-116645.1,19662.34,-375000,-375000,-148147.4,-128034.1,0.03,0.00,0.88,-4,0,-2,29,0
'[11:30:00.688 21/01/2026]',-104538.4,-172664.9,-115216.9,21323.61,-375000,-375000,-146884.4,-126570.2,0.03,0.00,0.88,-4,0,-2,29,0
'[11:30:00.692 21/01/2026]',-102719.8,-169931.5,-113455.8,23030.25,-375000,-375000,-145293.4,-125153.2,0.03,0.00,0.88,-4,0,-2,29,0
'[11:30:00.696 21/01/2026]',-103885.4,-170898.7,-114675.9,21560,-375000,-375000,-146353,-126446.8,0.03,0.00,0.88,-4,0,-2,29,0
'[11:30:00.700 21/01/2026]',-105832.4,-173743.5,-116568.9,19710.71,-375000,-375000,-148056.9,-127989.4,0.03,0.00,0.88,-4,0,-2,29,0
'[11:30:00.704 21/01/2026]',-104901.5,-173114.6,-115582.7,20941.48,-375000,-375000,-147204.1,-126887.4,0.03,0.00,0.88,-4,0,-2,29,0
'[11:30:00.708 21/01/2026]',-102844.8,-170220.7,-113578.9,22934.86,-375000,-375000,-145406.9,-125210.7,0.03,0.00,0.88,-4,0,-2,29,0
'[11:30:00.712 21/01/2026]',-103511.9,-170455.3,-114301.7,21959.2,-375000,-375000,-146019.6,-126094.9,0.03,0.00,0.88,-4,0,-2,29,0
'[11:30:00.716 21/01/2026]',-105654.6,-173399.5,-116387.4,19864.75,-375000,-375000,-147892.6,-127865.3,0.03,0.00,0.88,-4,0,-2,29,0
'[11:30:00.720 21/01/2026]',-105276.5,-173534.5,-115957.1,20539.29,-375000,-375000,-147541.2,-127235.4,0.03,-0.02,0.88,-4,0,-2,29,0
'[11:30:00.724 21/01/2026]',-103102.8,-170636.2,-113812.7,22723.23,-375000,-375000,-145630.1,-125383.9,0.03,-0.02,0.88,-4,0,-2,29,0
'[11:30:00.728 21/01/2026]',-103184.1,-170067.3,-113971.4,22330.64,-375000,-375000,-145735,-125779.3,0.03,-0.02,0.88,-4,0,-2,29,0
'[11:30:00.732 21/01/2026]',-105371.1,-172947.7,-116126.4,20109.6,-375000,-375000,-147655.3,-127663,0.03,-0.02,0.88,-4,0,-2,29,0
'[11:30:00.736 21/01/2026]',-105569.8,-173853.3,-116257.5,20195.29,-375000,-375000,-147814,-127541.7,0.03,-0.02,0.88,-4,0,-2,29,0
'[11:30:00.740 21/01/2026]',-103415.3,-171129,-114120.4,22426.44,-375000,-375000,-145909.2,-125628.6,0.03,-0.02,0.88,-4,0,-2,29,0
'[11:30:00.744 21/01/2026]',-102921.1,-169841.3,-113698.3,22649.96,-375000,-375000,-145499.6,-125493.6,0.03,-0.02,0.88,-4,0,-2,29,0
'[11:30:00.748 21/01/2026]',-105047,-172459.9,-115804.2,20422.21,-375000,-375000,-147359.9,-127394.7,0.03,-0.02,0.88,-4,0,-2,29,0
'[11:30:00.752 21/01/2026]',-105809.8,-174036.6,-116492.8,19919.25,-375000,-375000,-148011.6,-127776.2,0.03,-0.02,0.88,-4,0,-2,29,0
'[11:30:00.756 21/01/2026]',-103766.6,-171605.2,-114469.1,22095.95,-375000,-375000,-146214.3,-125906.9,0.03,-0.02,0.88,-4,0,-2,29,0
'[11:30:00.760 21/01/2026]',-102731.6,-169691.2,-113510.1,22889.79,-375000,-375000,-145343.9,-125292.9,0.03,-0.02,0.88,-4,0,-2,29,0
'[11:30:00.764 21/01/2026]',-104677.2,-171954.5,-115447.5,20774.65,-375000,-375000,-147034.9,-127093.9,0.03,-0.02,0.88,-4,0,-2,29,0
'[11:30:00.768 21/01/2026]',-105946.9,-174136.4,-116634.6,19727.74,-375000,-375000,-148126.8,-127940.8,0.03,-0.02,0.88,-4,0,-2,29,0
'[11:30:00.772 21/01/2026]',-104149.4,-172183.5,-114824.5,21724.51,-375000,-375000,-146530,-126205.1,0.03,-0.02,0.88,-4,0,-2,29,0
'[11:30:00.776 21/01/2026]',-102680.7,-169798.1,-113433.1,23005.67,-375000,-375000,-145261.1,-125159.6,0.03,-0.02,0.88,-4,0,-2,29,0
'[11:30:00.780 21/01/2026]',-104328.8,-171521.4,-115090.4,21120.07,-375000,-375000,-146709.3,-126784.3,0.03,-0.02,0.88,-4,0,-2,29,0
'[11:30:00.784 21/01/2026]',-105986.3,-174111.4,-116681.6,19620.23,-375000,-375000,-148167.1,-128039.2,0.03,-0.02,0.88,-4,0,-2,29,0
'[11:30:00.788 21/01/2026]',-104559.9,-172754.1,-115222.4,21303.22,-375000,-375000,-146890.3,-126564.3,0.03,-0.02,0.88,-4,0,-2,29,0
'[11:30:00.792 21/01/2026]',-102739.7,-170034.8,-113469.4,22997.22,-375000,-375000,-145300.7,-125151.2,0.03,-0.02,0.88,-4,0,-2,29,0
'[11:30:00.796 21/01/2026]',-103951.9,-171057.1,-114719.4,21499.61,-375000,-375000,-146388,-126470.9,0.03,-0.02,0.88,-4,0,-2,29,0
'[11:30:00.800 21/01/2026]',-105907.2,-173902.3,-116611.8,19653.08,-375000,-375000,-148098.4,-128022.3,0.03,-0.02,0.88,-4,0,-2,29,0
'[11:30:00.804 21/01/2026]',-104923.6,-173215.6,-115584.3,20921.37,-375000,-375000,-147216.2,-126895,0.03,-0.02,0.88,-4,0,-2,29,0
'[11:30:00.808 21/01/2026]',-102875.8,-170298,-113589.7,22908.88,-375000,-375000,-145419.1,-125220.1,0.03,-0.02,0.88,-4,0,-2,29,0
'[11:30:00.812 21/01/2026]',-103579.1,-170581.6,-114356.4,21894.7,-375000,-375000,-146067.3,-126140.9,0.03,-0.02,0.88,-4,0,-2,29,0
'[11:30:00.816 21/01/2026]',-105684.8,-173518.5,-116409.5,19831.99,-375000,-375000,-147916.4,-127888.9,0.03,-0.02,0.88,-4,0,-2,29,0
'[11:30:00.820 21/01/2026]',-105267.5,-173617.5,-115930.9,20544.96,-375000,-375000,-147529.3,-127230.3,0.03,-0.02,0.88,-4,0,-2,29,0
'[11:30:00.824 21/01/2026]',-103112.1,-170728.7,-113819.7,22704.23,-375000,-375000,-145631.1,-125393.5,0.03,-0.02,0.88,-4,0,-2,29,0
'[11:30:00.828 21/01/2026]',-103255,-170245.7,-114040,22250.67,-375000,-375000,-145795.2,-125843.8,0.02,0.00,0.88,-4,0,-2,29,0
'[11:30:00.832 21/01/2026]',-105424.5,-173105.3,-116173.9,20048.84,-375000,-375000,-147702.6,-127709.8,0.02,0.00,0.88,-4,0,-2,29,0
'[11:30:00.836 21/01/2026]',-105564.2,-173939.4,-116251.1,20192.03,-375000,-375000,-147818.4,-127542,0.02,0.00,0.88,-4,0,-2,29,0
'[11:30:00.840 21/01/2026]',-103411.8,-171186,-114123.4,22420.1,-375000,-375000,-145913,-125635.1,0.02,0.00,0.88,-4,0,-2,29,0
'[11:30:00.844 21/01/2026]',-102973,-169950,-113742.7,22589.12,-375000,-375000,-145547.8,-125553.2,0.02,0.00,0.88,-4,0,-2,29,0
'[11:30:00.848 21/01/2026]',-105086.4,-172584.4,-115836.7,20372.68,-375000,-375000,-147407.7,-127441.6,0.02,0.00,0.88,-4,0,-2,29,0
'[11:30:00.852 21/01/2026]',-105805.3,-174125.1,-116482.9,19915.31,-375000,-375000,-148019.2,-127778.7,0.02,0.00,0.88,-4,0,-2,29,0
'[11:30:00.856 21/01/2026]',-103761.2,-171688.9,-114450.7,22093.94,-375000,-375000,-146206.2,-125895.7,0.02,0.00,0.88,-4,0,-2,29,0
'[11:30:00.860 21/01/2026]',-102765.2,-169810.6,-113528.9,22850.14,-375000,-375000,-145365.5,-125313.3,0.02,0.00,0.88,-4,0,-2,29,0
'[11:30:00.864 21/01/2026]',-104738.4,-172073.3,-115507.6,20696.55,-375000,-375000,-147110.6,-127162.6,0.03,-0.02,0.88,-4,0,-2,29,0
'[11:30:00.868 21/01/2026]',-105960.8,-174183.6,-116654.5,19696.71,-375000,-375000,-148171,-127977.6,0.03,-0.02,0.88,-4,0,-2,29,0
'[11:30:00.872 21/01/2026]',-104125.7,-172194.7,-114807.5,21733.54,-375000,-375000,-146541.1,-126217.2,0.03,-0.02,0.88,-4,0,-2,29,0
'[11:30:00.876 21/01/2026]',-102674.2,-169827.2,-113427.5,22996.64,-375000,-375000,-145289.7,-125191.3,0.03,-0.02,0.88,-4,0,-2,29,0
'[11:30:00.880 21/01/2026]',-104354.3,-171560.9,-115144.4,21082.12,-375000,-375000,-146768.3,-126844.7,0.03,-0.02,0.88,-4,0,-2,29,0
'[11:30:00.884 21/01/2026]',-105962.3,-174101.7,-116672.2,19636.86,-375000,-375000,-148183.7,-128053.5,0.03,-0.02,0.88,-4,0,-2,29,0
'[11:30:00.888 21/01/2026]',-104482.7,-172669,-115155.2,21367.87,-375000,-375000,-146856.7,-126534.3,0.03,-0.02,0.88,-4,0,-2,29,0
'[11:30:00.892 21/01/2026]',-102704.6,-169977.6,-113444.1,23017.87,-375000,-375000,-145306,-125164,0.03,-0.02,0.88,-4,0,-2,29,0
'[11:30:00.896 21/01/2026]',-103964.8,-171055.8,-114753.5,21471.22,-375000,-375000,-146430.8,-126521.8,0.03,-0.02,0.88,-4,0,-2,29,0
'[11:30:00.900 21/01/2026]',-105886.4,-173885.4,-116609.6,19654.96,-375000,-375000,-148116.4,-128040.5,0.03,0.00,0.88,-4,0,-2,29,0
'[11:30:00.904 21/01/2026]',-104869,-173157.1,-115550,20955.83,-375000,-375000,-147200.2,-126882.5,0.03,0.00,0.88,-4,0,-2,29,0
'[11:30:00.908 21/01/2026]',-102836.6,-170269.1,-113569.7,22924.48,-375000,-375000,-145414.9,-125223.5,0.03,0.00,0.88,-4,0,-2,29,0
'[11:30:00.912 21/01/2026]',-103581.6,-170595.2,-114364.7,21878.74,-375000,-375000,-146087.8,-126164.2,0.03,0.00,0.88,-4,0,-2,29,0
'[11:30:00.916 21/01/2026]',-105698.9,-173532.8,-116434.7,19802.97,-375000,-375000,-147945.8,-127911.3,0.03,0.00,0.88,-4,0,-2,29,0
'[11:30:00.920 21/01/2026]',-105235.2,-173568.3,-115911.8,20565.13,-375000,-375000,-147516,-127207.2,0.03,0.00,0.88,-4,0,-2,29,0
'[11:30:00.924 21/01/2026]',-103082.9,-170662.3,-113794.1,22724.39,-375000,-375000,-145620.5,-125382.5,0.03,0.00,0.88,-4,0,-2,29,0
'[11:30:00.928 21/01/2026]',-103260.2,-170230.3,-114047.9,22233.01,-375000,-375000,-145816.2,-125863.4,0.03,0.00,0.88,-4,0,-2,29,0
'[11:30:00.932 21/01/2026]',-105425.9,-173108.8,-116179.9,20031.81,-375000,-375000,-147724.9,-127722.2,0.03,0.00,0.88,-4,0,-2,29,0
'[11:30:00.936 21/01/2026]',-105540.4,-173886.6,-116226.3,20206.42,-375000,-375000,-147799.8,-127515.1,0.02,-0.02,0.88,-4,0,-2,29,0
'[11:30:00.940 21/01/2026]',-103380.3,-171135.9,-114087.5,22440.08,-375000,-375000,-145896.4,-125617.2,0.02,-0.02,0.88,-4,0,-2,29,0
'[11:30:00.944 21/01/2026]',-102967.5,-169948.5,-113749,22570.97,-375000,-375000,-145568.6,-125576.2,0.02,-0.02,0.88,-4,0,-2,29,0
'[11:30:00.948 21/01/2026]',-105109.6,-172623.5,-115876.8,20328.82,-375000,-375000,-147452.1,-127486.6,0.02,-0.02,0.88,-4,0,-2,29,0
'[11:30:00.952 21/01/2026]',-105786.4,-174108.1,-116469.3,19924.03,-375000,-375000,-148017.3,-127776.7,0.02,-0.02,0.88,-4,0,-2,29,0
'[11:30:00.956 21/01/2026]',-103723.5,-171628.9,-114415.6,22117.41,-375000,-375000,-146189.7,-125885.1,0.02,-0.02,0.88,-4,0,-2,29,0
'[11:30:00.960 21/01/2026]',-102785.4,-169825.9,-113556.1,22811.34,-375000,-375000,-145398.6,-125355.7,0.02,-0.02,0.88,-4,0,-2,29,0
'[11:30:00.964 21/01/2026]',-104750.7,-172123.7,-115525.3,20673.75,-375000,-375000,-147130.5,-127188.2,0.02,-0.02,0.88,-4,0,-2,29,0
'[11:30:00.968 21/01/2026]',-105927.4,-174193.5,-116632.8,19716.92,-375000,-375000,-148152.9,-127960.7,0.02,-0.02,0.88,-4,0,-2,29,0
'[11:30:00.972 21/01/2026]',-104094.6,-172149.1,-114780.1,21756.38,-375000,-375000,-146513,-126191.6,0.03,-0.02,0.88,-4,0,-2,29,0
'[11:30:00.976 21/01/2026]',-102676.8,-169804.3,-113434.9,22986.04,-375000,-375000,-145289.8,-125195.4,0.03,-0.02,0.88,-4,0,-2,29,0
'[11:30:00.980 21/01/2026]',-104377.1,-171599.2,-115166.5,21045.33,-375000,-375000,-146801.5,-126874.6,0.03,-0.02,0.88,-4,0,-2,29,0
'[11:30:00.984 21/01/2026]',-105974.4,-174112.1,-116686.6,19620.76,-375000,-375000,-148193,-128048.5,0.03,-0.02,0.88,-4,0,-2,29,0
'[11:30:00.988 21/01/2026]',-104466.8,-172641.7,-115156.5,21364.06,-375000,-375000,-146853.1,-126519.2,0.03,-0.02,0.88,-4,0,-2,29,0
'[11:30:00.992 21/01/2026]',-102700,-169957.7,-113449.6,23010.9,-375000,-375000,-145307.3,-125157.8,0.03,-0.02,0.88,-4,0,-2,29,0
'[11:30:00.996 21/01/2026]',-103977.2,-171087.1,-114758.2,21452.62,-375000,-375000,-146453,-126530.5,0.03,-0.02,0.88,-4,0,-2,29,0
'[11:30:01.000 21/01/2026]',-105895.7,-173900.6,-116612.4,19651.92,-375000,-375000,-148130.9,-128042.1,0.03,-0.02,0.88,-4,0,-2,29,0
'[11:30:01.004 21/01/2026]',-104841.7,-173112.7,-115515.9,20985.87,-375000,-375000,-147177.9,-126851.5,0.03,-0.02,0.88,-4,0,-2,29,0
'[11:30:01.008 21/01/2026]',-102840.9,-170256.7,-113570.1,22918.54,-375000,-375000,-145428.4,-125231.1,0.02,-0.02,0.86,-4,0,-2,29,0
'[11:30:01.012 21/01/2026]',-103608.5,-170627.4,-114390.9,21849.99,-375000,-375000,-146125.8,-126195.8,0.02,-0.02,0.86,-4,0,-2,29,0
'[11:30:01.016 21/01/2026]',-105716.9,-173570.8,-116451.2,19786.17,-375000,-375000,-147977.2,-127935.4,0.02,-0.02,0.86,-4,0,-2,29,0
'[11:30:01.020 21/01/2026]',-105208.6,-173535.6,-115886.5,20592.48,-375000,-375000,-147504.6,-127193.7,0.02,-0.02,0.86,-4,0,-2,29,0
'[11:30:01.024 21/01/2026]',-103061.2,-170632,-113777.5,22734.99,-375000,-375000,-145614.8,-125374.1,0.02,-0.02,0.86,-4,0,-2,29,0
'[11:30:01.028 21/01/2026]',-103280.6,-170256.9,-114069.6,22207.22,-375000,-375000,-145837.9,-125880.4,0.02,-0.02,0.86,-4,0,-2,29,0
'[11:30:01.032 21/01/2026]',-105469.9,-173156.3,-116218.6,19999.58,-375000,-375000,-147752.5,-127745.4,0.02,-0.02,0.86,-4,0,-2,29,0
'[11:30:01.036 21/01/2026]',-105534.7,-173883.3,-116210.7,20230.29,-375000,-375000,-147784.5,-127496.3,0.02,-0.02,0.86,-4,0,-2,29,0
'[11:30:01.040 21/01/2026]',-103378.3,-171118.6,-114078.5,22454.88,-375000,-375000,-145870.6,-125592.5,0.02,-0.02,0.86,-4,0,-2,29,0
'[11:30:01.044 21/01/2026]',-103004,-169982.2,-113778.5,22547.14,-375000,-375000,-145566.4,-125575.8,0.03,0.00,0.88,-4,0,-2,29,0
'[11:30:01.048 21/01/2026]',-105153,-172679,-115901.9,20301.73,-375000,-375000,-147458.8,-127488.5,0.03,0.00,0.88,-4,0,-2,29,0
'[11:30:01.052 21/01/2026]',-105811.3,-174138,-116475.8,19919.56,-375000,-375000,-148011.3,-127759.8,0.03,0.00,0.88,-4,0,-2,29,0
'[11:30:01.056 21/01/2026]',-103747.3,-171646.9,-114416.4,22116.56,-375000,-375000,-146174.7,-125873.4,0.03,0.00,0.88,-4,0,-2,29,0
'[11:30:01.060 21/01/2026]',-102849.2,-169879.8,-113602.6,22765.29,-375000,-375000,-145421.7,-125379.7,0.03,0.00,0.88,-4,0,-2,29,0
'[11:30:01.064 21/01/2026]',-104842.1,-172218.7,-115597,20605.45,-375000,-375000,-147175.6,-127222,0.03,0.00,0.88,-4,0,-2,29,0
'[11:30:01.068 21/01/2026]',-106002.6,-174252.1,-116660.9,19692.96,-375000,-375000,-148151.7,-127951.2,0.03,0.00,0.88,-4,0,-2,29,0
'[11:30:01.072 21/01/2026]',-104146.9,-172171.1,-114785.2,21755.13,-375000,-375000,-146480,-126156.1,0.03,0.00,0.88,-4,0,-2,29,0
'[11:30:01.076 21/01/2026]',-102763.7,-169869.8,-113466,22943.13,-375000,-375000,-145293.1,-125198.6,0.03,0.00,0.88,-4,0,-2,29,0
'[11:30:01.080 21/01/2026]',-104473,-171681.3,-115209.4,20996.02,-375000,-375000,-146814.4,-126880.7,0.03,-0.02,0.88,-4,0,-2,29,0
'[11:30:01.084 21/01/2026]',-106052,-174177.1,-116713.3,19602.3,-375000,-375000,-148182.5,-128032,0.03,-0.02,0.88,-4,0,-2,29,0
'[11:30:01.088 21/01/2026]',-104510.5,-172650.9,-115151.4,21385.61,-375000,-375000,-146807.9,-126472.7,0.03,-0.02,0.88,-4,0,-2,29,0
'[11:30:01.092 21/01/2026]',-102755.1,-169968.8,-113466.1,23000.35,-375000,-375000,-145293.1,-125142.5,0.03,-0.02,0.88,-4,0,-2,29,0
'[11:30:01.096 21/01/2026]',-104062,-171144,-114815.6,21408.1,-375000,-375000,-146463.5,-126538.9,0.03,-0.02,0.88,-4,0,-2,29,0
'[11:30:01.100 21/01/2026]',-105928.4,-173915.6,-116623.4,19654.69,-375000,-375000,-148104.8,-128007.1,0.03,-0.02,0.88,-4,0,-2,29,0
'[11:30:01.104 21/01/2026]',-104853.4,-173071.4,-115511.3,21015.15,-375000,-375000,-147131.3,-126800.7,0.03,-0.02,0.88,-4,0,-2,29,0
'[11:30:01.108 21/01/2026]',-102855.1,-170213.1,-113563.8,22937.45,-375000,-375000,-145389.9,-125192.1,0.03,-0.02,0.88,-4,0,-2,29,0
'[11:30:01.112 21/01/2026]',-103648.8,-170636.7,-114418.4,21830.1,-375000,-375000,-146122.8,-126188.2,0.03,-0.02,0.88,-4,0,-2,29,0
'[11:30:01.116 21/01/2026]',-105744.8,-173564,-116470.6,19786.3,-375000,-375000,-147955.4,-127908,0.02,-0.02,0.88,-4,0,-2,29,0
'[11:30:01.120 21/01/2026]',-105200.1,-173486.2,-115862.5,20629.99,-375000,-375000,-147459.3,-127145.1,0.02,-0.02,0.88,-4,0,-2,29,0
'[11:30:01.124 21/01/2026]',-103032.3,-170547.3,-113727.3,22796.28,-375000,-375000,-145550.4,-125310.9,0.02,-0.02,0.88,-4,0,-2,29,0
'[11:30:01.128 21/01/2026]',-103278.3,-170200.1,-114050.5,22237.62,-375000,-375000,-145793.6,-125841.7,0.02,-0.02,0.88,-4,0,-2,29,0
'[11:30:01.132 21/01/2026]',-105459,-173099.2,-116197.4,20034.63,-375000,-375000,-147712.2,-127708.6,0.02,-0.02,0.88,-4,0,-2,29,0
'[11:30:01.136 21/01/2026]',-105486.1,-173775.5,-116157.9,20301.91,-375000,-375000,-147718.8,-127434,0.02,-0.02,0.88,-4,0,-2,29,0
'[11:30:01.140 21/01/2026]',-103314.3,-170986.9,-114011,22531.94,-375000,-375000,-145802.9,-125530,0.02,-0.02,0.88,-4,0,-2,29,0
'[11:30:01.144 21/01/2026]',-102983.7,-169906.8,-113764.4,22567.71,-375000,-375000,-145555.9,-125565.5,0.02,-0.02,0.88,-4,0,-2,29,0
'[11:30:01.148 21/01/2026]',-105127.9,-172608.4,-115888.9,20333.92,-375000,-375000,-147442,-127471.5,0.02,-0.02,0.88,-4,0,-2,29,0
'[11:30:01.152 21/01/2026]',-105721.9,-173991.2,-116413.6,20007.98,-375000,-375000,-147946.1,-127699,0.03,0.00,0.88,-4,0,-2,29,0
'[11:30:01.156 21/01/2026]',-103632,-171469.7,-114348.7,22209.99,-375000,-375000,-146106.1,-125808.5,0.03,0.00,0.88,-4,0,-2,29,0
'[11:30:01.160 21/01/2026]',-102758.5,-169731.8,-113535.5,22841.74,-375000,-375000,-145361.4,-125330.2,0.03,0.00,0.88,-4,0,-2,29,0
'[11:30:01.164 21/01/2026]',-104772.4,-172087.2,-115532.6,20684.35,-375000,-375000,-147121.5,-127176.7,0.03,0.00,0.88,-4,0,-2,29,0
'[11:30:01.168 21/01/2026]',-105902.7,-174097.8,-116590.1,19789.96,-375000,-375000,-148089.3,-127888.7,0.03,0.00,0.88,-4,0,-2,29,0
'[11:30:01.172 21/01/2026]',-104011.4,-171983.7,-114703.2,21861.3,-375000,-375000,-146415.5,-126092.5,0.03,0.00,0.88,-4,0,-2,29,0
'[11:30:01.176 21/01/2026]',-102643,-169700.1,-113405,23019.66,-375000,-375000,-145254.2,-125162.4,0.03,0.00,0.88,-4,0,-2,29,0
'[11:30:01.180 21/01/2026]',-104390.4,-171570.1,-115165.2,21047.97,-375000,-375000,-146801.4,-126870.8,0.03,0.00,0.88,-4,0,-2,29,0
'[11:30:01.184 21/01/2026]',-105957.9,-174059.8,-116667.2,19660.64,-375000,-375000,-148165.5,-128014.7,0.03,0.00,0.88,-4,0,-2,29,0
'[11:30:01.188 21/01/2026]',-104379.7,-172481.3,-115060.6,21484,-375000,-375000,-146751.1,-126420.3,0.03,-0.02,0.86,-4,0,-2,29,0
'[11:30:01.192 21/01/2026]',-102654.1,-169830.5,-113396.5,23070.31,-375000,-375000,-145250.2,-125107.4,0.03,-0.02,0.86,-4,0,-2,29,0
'[11:30:01.196 21/01/2026]',-104031.6,-171085.9,-114816.8,21419.36,-375000,-375000,-146478.9,-126554.4,0.03,-0.02,0.86,-4,0,-2,29,0
'[11:30:01.200 21/01/2026]',-105895.3,-173867.7,-116627.4,19673.07,-375000,-375000,-148116.9,-128019.2,0.03,-0.02,0.86,-4,0,-2,29,0
'[11:30:01.204 21/01/2026]',-104770,-172972.2,-115458.6,21074.34,-375000,-375000,-147106.1,-126774.8,0.03,-0.02,0.86,-4,0,-2,29,0
'[11:30:01.208 21/01/2026]',-102763.9,-170087.5,-113492.6,23006.56,-375000,-375000,-145343.7,-125155.8,0.03,-0.02,0.86,-4,0,-2,29,0
'[11:30:01.212 21/01/2026]',-103625.5,-170592.1,-114412.3,21840.02,-375000,-375000,-146126.2,-126205.3,0.03,-0.02,0.86,-4,0,-2,29,0
'[11:30:01.216 21/01/2026]',-105712.5,-173524.8,-116457.1,19810.84,-375000,-375000,-147959.3,-127916.6,0.03,-0.02,0.86,-4,0,-2,29,0
'[11:30:01.220 21/01/2026]',-105111.8,-173377.6,-115794.3,20709.07,-375000,-375000,-147407.7,-127096.7,0.03,-0.02,0.86,-4,0,-2,29,0
'[11:30:01.224 21/01/2026]',-102966,-170458.7,-113690.4,22835.17,-375000,-375000,-145521.8,-125296.7,0.03,-0.02,0.86,-4,0,-2,29,0
'[11:30:01.228 21/01/2026]',-103282.1,-170196.8,-114071.9,22215.22,-375000,-375000,-145824.3,-125886.2,0.03,-0.02,0.86,-4,0,-2,29,0
'[11:30:01.232 21/01/2026]',-105449.4,-173109.4,-116211.1,20029.8,-375000,-375000,-147738.9,-127741.1,0.03,-0.02,0.86,-4,0,-2,29,0
'[11:30:01.236 21/01/2026]',-105440.2,-173732.3,-116136.9,20333.92,-375000,-375000,-147707,-127422.4,0.03,-0.02,0.86,-4,0,-2,29,0
'[11:30:01.240 21/01/2026]',-103257.3,-170918.1,-113980.3,22563.55,-375000,-375000,-145779.9,-125511.3,0.03,-0.02,0.86,-4,0,-2,29,0
'[11:30:01.244 21/01/2026]',-102971.3,-169895.6,-113774.7,22549.69,-375000,-375000,-145565.9,-125581.8,0.03,-0.02,0.86,-4,0,-2,29,0
'[11:30:01.248 21/01/2026]',-105156.9,-172634.5,-115934.7,20289.3,-375000,-375000,-147484.2,-127504.9,0.03,-0.02,0.86,-4,0,-2,29,0
'[11:30:01.252 21/01/2026]',-105715.4,-173978.1,-116408.6,20011.92,-375000,-375000,-147945,-127686.3,0.03,-0.02,0.86,-4,0,-2,29,0
'[11:30:01.256 21/01/2026]',-103598.9,-171415.2,-114296.6,22248.84,-375000,-375000,-146072.2,-125766,0.03,-0.02,0.86,-4,0,-2,29,0
'[11:30:01.260 21/01/2026]',-102751.2,-169716.5,-113538.2,22833.02,-375000,-375000,-145369.4,-125330.7,0.03,-0.02,0.88,-4,0,-2,29,0
'[11:30:01.264 21/01/2026]',-104795.1,-172128.4,-115587.5,20634.95,-375000,-375000,-147168.8,-127211.6,0.03,-0.02,0.88,-4,0,-2,29,0
'[11:30:01.268 21/01/2026]',-105884.1,-174103.6,-116597.2,19779.95,-375000,-375000,-148113.9,-127899.9,0.03,-0.02,0.88,-4,0,-2,29,0
'[11:30:01.272 21/01/2026]',-103972.9,-171937.7,-114674,21878.42,-375000,-375000,-146408,-126078.4,0.03,-0.02,0.88,-4,0,-2,29,0
'[11:30:01.276 21/01/2026]',-102643,-169689.6,-113415.4,23000.79,-375000,-375000,-145265.6,-125172.9,0.03,-0.02,0.88,-4,0,-2,29,0
'[11:30:01.280 21/01/2026]',-104408.5,-171599,-115205.9,21012.65,-375000,-375000,-146829.9,-126890.4,0.03,-0.02,0.88,-4,0,-2,29,0
'[11:30:01.284 21/01/2026]',-105956.9,-174061.9,-116683.8,19657.91,-375000,-375000,-148172.3,-128009.5,0.03,-0.02,0.88,-4,0,-2,29,0
'[11:30:01.288 21/01/2026]',-104357.3,-172440.3,-115049.8,21496.61,-375000,-375000,-146745.5,-126408.1,0.03,-0.02,0.88,-4,0,-2,29,0
'[11:30:01.292 21/01/2026]',-102651,-169809.4,-113418.4,23048.67,-375000,-375000,-145266.1,-125121.6,0.03,-0.02,0.88,-4,0,-2,29,0
'[11:30:01.296 21/01/2026]',-104018.6,-171087,-114812.1,21408.99,-375000,-375000,-146487.9,-126559.1,0.03,-0.02,0.88,-4,0,-2,29,0
'[11:30:01.300 21/01/2026]',-105891.8,-173869.3,-116621.3,19671.9,-375000,-375000,-148120.8,-128009,0.03,-0.02,0.88,-4,0,-2,29,0
'[11:30:01.304 21/01/2026]',-104730,-172924.6,-115425.2,21106.66,-375000,-375000,-147077.9,-126736,0.03,-0.02,0.88,-4,0,-2,29,0
'[11:30:01.308 21/01/2026]',-102771.1,-170094.4,-113514.5,22980.81,-375000,-375000,-145369.6,-125174.9,0.03,-0.02,0.88,-4,0,-2,29,0
'[11:30:01.312 21/01/2026]',-103666.3,-170644.8,-114464.3,21778.6,-375000,-375000,-146185,-126253.9,0.03,-0.02,0.88,-4,0,-2,29,0
'[11:30:01.316 21/01/2026]',-105728.8,-173561,-116473.4,19782.14,-375000,-375000,-147986.1,-127926.4,0.03,-0.02,0.88,-4,0,-2,29,0
'[11:30:01.320 21/01/2026]',-105096.8,-173355.6,-115778.4,20716.4,-375000,-375000,-147400.6,-127071,0.03,-0.02,0.88,-4,0,-2,29,0
'[11:30:01.324 21/01/2026]',-102971.6,-170440.9,-113701.9,22823.5,-375000,-375000,-145525.5,-125283.7,0.03,-0.02,0.88,-4,0,-2,29,0
'[11:30:01.328 21/01/2026]',-103322.5,-170238.6,-114112.3,22163.54,-375000,-375000,-145860,-125902.9,0.03,-0.02,0.88,-4,0,-2,29,0
'[11:30:01.332 21/01/2026]',-105505.2,-173166.8,-116255.3,19978.26,-375000,-375000,-147772.8,-127756.4,0.02,-0.02,0.86,-4,0,-2,29,0
'[11:30:01.336 21/01/2026]',-105448.9,-173732.9,-116123.7,20335.66,-375000,-375000,-147699.8,-127404.9,0.02,-0.02,0.86,-4,0,-2,29,0
'[11:30:01.340 21/01/2026]',-103277.3,-170906.5,-113987.3,22559.53,-375000,-375000,-145772.4,-125500.4,0.02,-0.02,0.86,-4,0,-2,29,0
'[11:30:01.344 21/01/2026]',-103046.9,-169939.8,-113833.7,22496.85,-375000,-375000,-145605.3,-125619.2,0.02,-0.02,0.86,-4,0,-2,29,0
'[11:30:01.348 21/01/2026]',-105205.3,-172707.9,-115956.9,20260.16,-375000,-375000,-147501.1,-127522.4,0.02,-0.02,0.86,-4,0,-2,29,0
'[11:30:01.352 21/01/2026]',-105735.8,-174022,-116407.1,20014.6,-375000,-375000,-147924.2,-127665.2,0.02,-0.02,0.86,-4,0,-2,29,0
'[11:30:01.356 21/01/2026]',-103630.5,-171450,-114318.9,22225.59,-375000,-375000,-146072.4,-125780.5,0.02,-0.02,0.86,-4,0,-2,29,0
'[11:30:01.360 21/01/2026]',-102838.3,-169822.2,-113600.1,22759.66,-375000,-375000,-145406.5,-125384.1,0.02,-0.02,0.86,-4,0,-2,29,0
'[11:30:01.364 21/01/2026]',-104869.7,-172245.3,-115612.7,20589.04,-375000,-375000,-147181.4,-127226,0.02,-0.02,0.86,-4,0,-2,29,0
'[11:30:01.368 21/01/2026]',-105913.1,-174180.4,-116592.5,19771.73,-375000,-375000,-148091.8,-127878.4,0.03,-0.02,0.88,-4,0,-2,29,0
'[11:30:01.372 21/01/2026]',-103996.5,-172006.1,-114661.4,21870.47,-375000,-375000,-146381.8,-126070.1,0.03,-0.02,0.88,-4,0,-2,29,0
'[11:30:01.376 21/01/2026]',-102714.2,-169808.3,-113455.7,22941.74,-375000,-375000,-145287.7,-125214.3,0.03,-0.02,0.88,-4,0,-2,29,0
'[11:30:01.380 21/01/2026]',-104496.9,-171753,-115260.4,20943.4,-375000,-375000,-146858.3,-126927,0.03,-0.02,0.88,-4,0,-2,29,0
'[11:30:01.384 21/01/2026]',-105966.1,-174148.9,-116662.6,19649.6,-375000,-375000,-148159.5,-128001.8,0.03,-0.02,0.88,-4,0,-2,29,0
'[11:30:01.388 21/01/2026]',-104355,-172512.7,-115030.5,21489.9,-375000,-375000,-146727.2,-126403.4,0.03,-0.02,0.88,-4,0,-2,29,0
'[11:30:01.392 21/01/2026]',-102682.1,-169916.8,-113431.2,23017.29,-375000,-375000,-145272.1,-125141.7,0.03,-0.02,0.88,-4,0,-2,29,0
'[11:30:01.396 21/01/2026]',-104085.5,-171250.9,-114867.8,21340.19,-375000,-375000,-146528.6,-126614.9,0.03,-0.02,0.88,-4,0,-2,29,0
'[11:30:01.400 21/01/2026]',-105912.1,-173991.3,-116627.6,19644.32,-375000,-375000,-148130.7,-128032.5,0.03,-0.02,0.88,-4,0,-2,29,0
'[11:30:01.404 21/01/2026]',-104708.6,-172975.7,-115387.7,21122.31,-375000,-375000,-147050.7,-126720,0.03,-0.02,0.89,-4,0,-2,29,0
'[11:30:01.408 21/01/2026]',-102765.2,-170145.9,-113505.4,22982.06,-375000,-375000,-145345.5,-125165.2,0.03,-0.02,0.89,-4,0,-2,29,0
'[11:30:01.412 21/01/2026]',-103705.5,-170772.2,-114495.5,21734.12,-375000,-375000,-146210,-126290.3,0.03,-0.02,0.89,-4,0,-2,29,0
'[11:30:01.416 21/01/2026]',-105750.5,-173669.1,-116489.6,19758.85,-375000,-375000,-148002.8,-127949.1,0.03,-0.02,0.89,-4,0,-2,29,0
'[11:30:01.420 21/01/2026]',-105066.1,-173403.1,-115748.5,20736.16,-375000,-375000,-147373.9,-127058.9,0.03,-0.02,0.89,-4,0,-2,29,0
'[11:30:01.424 21/01/2026]',-102952.8,-170504.2,-113676.5,22824.57,-375000,-375000,-145516.6,-125297,0.03,-0.02,0.89,-4,0,-2,29,0
'[11:30:01.428 21/01/2026]',-103342.8,-170365.6,-114137.4,22118.44,-375000,-375000,-145893,-125953.4,0.03,-0.02,0.89,-4,0,-2,29,0
'[11:30:01.432 21/01/2026]',-105503.9,-173266.7,-116258.3,19960.6,-375000,-375000,-147792.5,-127782.9,0.03,-0.02,0.89,-4,0,-2,29,0
'[11:30:01.436 21/01/2026]',-105411.4,-173761.7,-116099.8,20363.24,-375000,-375000,-147676.9,-127384.8,0.03,-0.02,0.89,-4,0,-2,29,0
'[11:30:01.440 21/01/2026]',-103221.2,-170926.9,-113941.1,22588.58,-375000,-375000,-145749.1,-125486.1,0.02,-0.02,0.88,-4,0,-2,29,0
'[11:30:01.444 21/01/2026]',-103021.1,-170016.3,-113809.3,22489.12,-375000,-375000,-145614.2,-125640.8,0.02,-0.02,0.88,-4,0,-2,29,0
'[11:30:01.448 21/01/2026]',-105181.9,-172778.2,-115953.4,20249.47,-375000,-375000,-147518.1,-127545,0.02,-0.02,0.88,-4,0,-2,29,0
'[11:30:01.452 21/01/2026]',-105664.3,-174020.2,-116360.6,20050.5,-375000,-375000,-147915.6,-127664.5,0.02,-0.02,0.88,-4,0,-2,29,0
'[11:30:01.456 21/01/2026]',-103542.6,-171421.7,-114253.8,22273.87,-375000,-375000,-146043.4,-125758.9,0.02,-0.02,0.88,-4,0,-2,29,0
'[11:30:01.460 21/01/2026]',-102782.3,-169812.5,-113572.6,22777.46,-375000,-375000,-145406.2,-125394.1,0.02,-0.02,0.88,-4,0,-2,29,0
'[11:30:01.464 21/01/2026]',-104838.4,-172267.4,-115625.6,20577.28,-375000,-375000,-147216.2,-127271.8,0.02,-0.02,0.88,-4,0,-2,29,0
'[11:30:01.468 21/01/2026]',-105840.8,-174142.6,-116550.3,19814.69,-375000,-375000,-148084.9,-127877,0.02,-0.02,0.88,-4,0,-2,29,0
'[11:30:01.472 21/01/2026]',-103891.4,-171925.1,-114605,21928.09,-375000,-375000,-146364,-126055,0.02,-0.02,0.88,-4,0,-2,29,0
'[11:30:01.476 21/01/2026]',-102643.6,-169756.3,-113431.2,22970.39,-375000,-375000,-145297.2,-125224.1,0.02,-0.02,0.88,-4,0,-2,29,0
'[11:30:01.480 21/01/2026]',-104440.1,-171739.3,-115240.2,20960.04,-375000,-375000,-146883.7,-126951.2,0.02,-0.02,0.88,-4,0,-2,29,0
'[11:30:01.484 21/01/2026]',-105903.1,-174115.3,-116620.3,19696.94,-375000,-375000,-148152.9,-127993.9,0.02,-0.02,0.88,-4,0,-2,29,0
'[11:30:01.488 21/01/2026]',-104262.6,-172412.2,-114961.2,21570.6,-375000,-375000,-146687.5,-126364.5,0.02,-0.02,0.88,-4,0,-2,29,0
'[11:30:01.492 21/01/2026]',-102607.4,-169835.5,-113375.3,23066.15,-375000,-375000,-145258.8,-125139,0.02,-0.02,0.88,-4,0,-2,29,0
'[11:30:01.496 21/01/2026]',-104053.1,-171224,-114861.6,21346.05,-375000,-375000,-146550.7,-126631.7,0.02,-0.02,0.88,-4,0,-2,29,0
'[11:30:01.500 21/01/2026]',-105861.7,-173947.6,-116604.1,19675.66,-375000,-375000,-148132.3,-128029.4,0.02,-0.02,0.88,-4,0,-2,29,0
'[11:30:01.504 21/01/2026]',-104641,-172902.5,-115341,21168.26,-375000,-375000,-147033.1,-126707.7,0.02,-0.02,0.88,-4,0,-2,29,0
'[11:30:01.508 21/01/2026]',-102697.4,-170078,-113466.2,23013.89,-375000,-375000,-145341.4,-125165.5,0.02,-0.02,0.88,-4,0,-2,29,0
'[11:30:01.512 21/01/2026]',-103691.8,-170768.8,-114522.2,21716.42,-375000,-375000,-146236.5,-126312.3,0.03,-0.02,0.89,-4,0,-2,29,0
'[11:30:01.516 21/01/2026]',-105728.3,-173663.3,-116485.7,19760.86,-375000,-375000,-148018.3,-127961.7,0.03,-0.02,0.89,-4,0,-2,29,0
'[11:30:01.520 21/01/2026]',-105002.2,-173334.6,-115701.6,20782.47,-375000,-375000,-147352.7,-127036,0.03,-0.02,0.89,-4,0,-2,29,0
'[11:30:01.524 21/01/2026]',-102902,-170431.6,-113646.6,22859.31,-375000,-375000,-145501.7,-125278,0.03,-0.02,0.89,-4,0,-2,29,0
'[11:30:01.528 21/01/2026]',-103327.1,-170341.5,-114139.6,22116.42,-375000,-375000,-145913.8,-125972.1,0.03,-0.02,0.89,-4,0,-2,29,0
'[11:30:01.532 21/01/2026]',-105490.5,-173264.4,-116264.5,19960.78,-375000,-375000,-147810,-127794.4,0.03,-0.02,0.89,-4,0,-2,29,0
'[11:30:01.536 21/01/2026]',-105322.8,-173706.6,-116043.3,20409.29,-375000,-375000,-147657.5,-127359.5,0.03,-0.02,0.89,-4,0,-2,29,0
'[11:30:01.540 21/01/2026]',-103169.4,-170880.6,-113915.8,22604.94,-375000,-375000,-145755.9,-125487.8,0.03,-0.02,0.89,-4,0,-2,29,0
'[11:30:01.544 21/01/2026]',-103025.4,-170024.9,-113835.6,22460.87,-375000,-375000,-145653.9,-125673,0.03,-0.02,0.89,-4,0,-2,29,0
'[11:30:01.548 21/01/2026]',-105182.2,-172797.9,-115977.9,20230.61,-375000,-375000,-147553.4,-127563.6,0.03,-0.02,0.88,-4,0,-2,30,0
'[11:30:01.552 21/01/2026]',-105610,-173976.3,-116336,20081.61,-375000,-375000,-147913.8,-127645.1,0.03,-0.02,0.88,-4,0,-2,30,0
'[11:30:01.556 21/01/2026]',-103488,-171359.6,-114217.3,22309.19,-375000,-375000,-146037.3,-125739.4,0.03,-0.02,0.88,-4,0,-2,30,0
'[11:30:01.560 21/01/2026]',-102781.2,-169814.7,-113583.7,22759.13,-375000,-375000,-145439.9,-125416.2,0.03,-0.02,0.88,-4,0,-2,30,0
'[11:30:01.564 21/01/2026]',-104828,-172287.3,-115630.1,20563.52,-375000,-375000,-147255.8,-127294.7,0.03,-0.02,0.88,-4,0,-2,30,0
'[11:30:01.568 21/01/2026]',-105804.1,-174117.8,-116533.4,19827.92,-375000,-375000,-148104.1,-127880.8,0.03,-0.02,0.88,-4,0,-2,30,0
'[11:30:01.572 21/01/2026]',-103853.1,-171854.2,-114572.3,21960.54,-375000,-375000,-146348.7,-126026.5,0.03,-0.02,0.88,-4,0,-2,30,0
'[11:30:01.576 21/01/2026]',-102643.6,-169731.9,-113440.6,22959.8,-375000,-375000,-145303.4,-125224.9,0.03,-0.02,0.88,-4,0,-2,30,0
'[11:30:01.580 21/01/2026]',-104472.5,-171756.9,-115276.5,20924.27,-375000,-375000,-146923.8,-126985.9,0.03,-0.02,0.88,-4,0,-2,30,0
'[11:30:01.584 21/01/2026]',-105923.2,-174111.3,-116654.1,19677.4,-375000,-375000,-148184.1,-128012.9,0.03,-0.02,0.88,-4,0,-2,30,0
'[11:30:01.588 21/01/2026]',-104264.2,-172344.4,-114966.6,21582.26,-375000,-375000,-146678.9,-126344.8,0.03,-0.02,0.88,-4,0,-2,30,0
'[11:30:01.592 21/01/2026]',-102615.3,-169770.6,-113377.6,23069.14,-375000,-375000,-145252.6,-125121.1,0.03,-0.02,0.88,-4,0,-2,30,0
'[11:30:01.596 21/01/2026]',-104097.3,-171205.6,-114905.5,21323.88,-375000,-375000,-146569.8,-126635.8,0.03,-0.02,0.88,-4,0,-2,30,0
'[11:30:01.600 21/01/2026]',-105887.2,-173906.6,-116622.3,19675.21,-375000,-375000,-148136.5,-128009.7,0.03,-0.02,0.88,-4,0,-2,30,0
'[11:30:01.604 21/01/2026]',-104628.8,-172782.5,-115318.9,21212.56,-375000,-375000,-146996.6,-126653.6,0.03,-0.02,0.88,-4,0,-2,30,0
'[11:30:01.608 21/01/2026]',-102701.5,-169966,-113443,23042.68,-375000,-375000,-145311.2,-125129.8,0.03,-0.02,0.88,-4,0,-2,30,0
'[11:30:01.612 21/01/2026]',-103733.5,-170710.3,-114536.5,21707.07,-375000,-375000,-146245.4,-126314.7,0.03,-0.02,0.88,-4,0,-2,30,0
'[11:30:01.616 21/01/2026]',-105765.7,-173610,-116520.3,19753.4,-375000,-375000,-148028.9,-127958.1,0.03,-0.02,0.88,-4,0,-2,30,0
'[11:30:01.620 21/01/2026]',-105001.5,-173227.3,-115697.9,20814.61,-375000,-375000,-147330.2,-127002.6,0.03,-0.02,0.88,-4,0,-2,30,0
'[11:30:01.624 21/01/2026]',-102880.1,-170306.5,-113623.8,22896.23,-375000,-375000,-145469.9,-125248,0.03,-0.02,0.88,-4,0,-2,30,0
'[11:30:01.628 21/01/2026]',-103351.1,-170275.6,-114164.2,22109.14,-375000,-375000,-145916.6,-125974,0.03,-0.02,0.88,-4,0,-2,30,0
'[11:30:01.632 21/01/2026]',-105520.3,-173212.6,-116280.5,19957.6,-375000,-375000,-147815.4,-127787.8,0.03,-0.02,0.88,-4,0,-2,30,0
'[11:30:01.636 21/01/2026]',-105325.4,-173593.8,-116027,20451.71,-375000,-375000,-147622.1,-127307.8,0.03,-0.02,0.88,-4,0,-2,30,0
'[11:30:01.640 21/01/2026]',-103148.4,-170730.9,-113884.8,22656.09,-375000,-375000,-145710.3,-125441.5,0.03,-0.02,0.88,-4,0,-2,30,0
'[11:30:01.644 21/01/2026]',-103047.6,-169941.8,-113849.5,22460.73,-375000,-375000,-145646.9,-125672.6,0.03,-0.02,0.88,-4,0,-2,30,0
'[11:30:01.648 21/01/2026]',-105231,-172751.8,-115998.3,20222.11,-375000,-375000,-147563.3,-127576.1,0.03,-0.02,0.88,-4,0,-2,30,0
'[11:30:01.652 21/01/2026]',-105589.8,-173858.3,-116297,20139.55,-375000,-375000,-147867.6,-127594.1,0.03,-0.02,0.88,-4,0,-2,30,0
'[11:30:01.656 21/01/2026]',-103449.5,-171205.4,-114181.3,22371.23,-375000,-375000,-145972.1,-125674,0.03,-0.02,0.88,-4,0,-2,30,0
'[11:30:01.660 21/01/2026]',-102787.3,-169711,-113593.9,22769.54,-375000,-375000,-145421,-125399.6,0.03,-0.02,0.88,-4,0,-2,30,0
'[11:30:01.664 21/01/2026]',-104882.5,-172243.3,-115678.8,20545.23,-375000,-375000,-147265,-127298.4,0.03,-0.02,0.88,-4,0,-2,30,0
'[11:30:01.668 21/01/2026]',-105822.4,-174031.2,-116525.5,19864.62,-375000,-375000,-148066.3,-127834.5,0.03,-0.02,0.88,-4,0,-2,30,0
'[11:30:01.672 21/01/2026]',-103828.1,-171725.5,-114540.5,22017.59,-375000,-375000,-146297.3,-125973.2,0.03,-0.02,0.88,-4,0,-2,30,0
'[11:30:01.676 21/01/2026]',-102634.2,-169640.2,-113420.2,22988.99,-375000,-375000,-145275.8,-125197.6,0.03,-0.02,0.88,-4,0,-2,30,0
'[11:30:01.680 21/01/2026]',-104485.2,-171703.8,-115273,20938.22,-375000,-375000,-146919.1,-126973.8,0.03,-0.02,0.88,-4,0,-2,30,0
'[11:30:01.684 21/01/2026]',-105899.5,-174026.1,-116622.4,19717.72,-375000,-375000,-148156.9,-127978.5,0.03,-0.02,0.88,-4,0,-2,30,0
'[11:30:01.688 21/01/2026]',-104204.5,-172244.3,-114906.8,21640.42,-375000,-375000,-146641.5,-126302.1,0.03,-0.02,0.88,-4,0,-2,30,0
'[11:30:01.692 21/01/2026]',-102590.7,-169708.1,-113374.9,23083.81,-375000,-375000,-145251.3,-125120.7,0.05,0.00,0.88,-4,0,-2,30,0
'[11:30:01.696 21/01/2026]',-104106,-171195.4,-114927.7,21306.08,-375000,-375000,-146595.8,-126669.4,0.05,0.00,0.88,-4,0,-2,30,0
'[11:30:01.700 21/01/2026]',-105869.4,-173881.7,-116604.6,19694.97,-375000,-375000,-148137.2,-128023,0.05,0.00,0.88,-4,0,-2,30,0
'[11:30:01.704 21/01/2026]',-104573.1,-172716.1,-115266.5,21266.52,-375000,-375000,-146963.1,-126634.9,0.05,0.00,0.88,-4,0,-2,30,0
'[11:30:01.708 21/01/2026]',-102689.8,-169932.7,-113447.6,23049.74,-375000,-375000,-145315.8,-125148.9,0.05,0.00,0.88,-4,0,-2,30,0
'[11:30:01.712 21/01/2026]',-103731,-170723.8,-114548,21693.89,-375000,-375000,-146268.2,-126350.2,0.05,0.00,0.88,-4,0,-2,30,0
'[11:30:01.716 21/01/2026]',-105745.1,-173618.5,-116497.2,19761.94,-375000,-375000,-148037.4,-127972.9,0.05,0.00,0.88,-4,0,-2,30,0
'[11:30:01.720 21/01/2026]',-104937.8,-173169.6,-115639.8,20863.39,-375000,-375000,-147302.5,-126978.5,0.05,0.00,0.88,-4,0,-2,30,0
'[11:30:01.724 21/01/2026]',-102849,-170260.8,-113606,22912.68,-375000,-375000,-145466.9,-125243.8,0.05,0.00,0.88,-4,0,-2,30,0
'[11:30:01.728 21/01/2026]',-103376.9,-170299.5,-114189.6,22077.4,-375000,-375000,-145957.5,-126009.9,0.03,-0.02,0.88,-4,0,-2,30,0
'[11:30:01.732 21/01/2026]',-105541.4,-173238.8,-116313.2,19932.35,-375000,-375000,-147853.2,-127818.2,0.03,-0.02,0.88,-4,0,-2,30,0
'[11:30:01.736 21/01/2026]',-105290.6,-173560.1,-116001.2,20474.69,-375000,-375000,-147619.8,-127301,0.03,-0.02,0.88,-4,0,-2,30,0
'[11:30:01.740 21/01/2026]',-103114.5,-170692.1,-113858.7,22681.25,-375000,-375000,-145702,-125426.8,0.03,-0.02,0.88,-4,0,-2,30,0
'[11:30:01.744 21/01/2026]',-103048.1,-169946.7,-113865.4,22442.22,-375000,-375000,-145677.5,-125692.8,0.03,-0.02,0.88,-4,0,-2,30,0
'[11:30:01.748 21/01/2026]',-105248.4,-172788.9,-116036.4,20184.79,-375000,-375000,-147614.8,-127611.8,0.03,-0.02,0.88,-4,0,-2,30,0
'[11:30:01.752 21/01/2026]',-105594.5,-173864.9,-116306,20128.28,-375000,-375000,-147893.8,-127608.2,0.03,-0.02,0.88,-4,0,-2,30,0
'[11:30:01.756 21/01/2026]',-103439,-171179.5,-114168.5,22376.29,-375000,-375000,-145984.2,-125673.9,0.03,-0.02,0.88,-4,0,-2,30,0
'[11:30:01.760 21/01/2026]',-102802.2,-169727.6,-113621.8,22741.29,-375000,-375000,-145449.5,-125417.2,0.03,-0.02,0.88,-4,0,-2,30,0
'[11:30:01.764 21/01/2026]',-104889.9,-172278.2,-115692.3,20523.59,-375000,-375000,-147291,-127319,0.03,-0.02,0.86,-4,0,-2,30,0
'[11:30:01.768 21/01/2026]',-105798.3,-174025.1,-116513.3,19874.46,-375000,-375000,-148069.4,-127832.3,0.03,-0.02,0.86,-4,0,-2,30,0
'[11:30:01.772 21/01/2026]',-103806.1,-171704.1,-114525.4,22022.81,-375000,-375000,-146307.3,-125982.1,0.03,-0.02,0.86,-4,0,-2,30,0
'[11:30:01.776 21/01/2026]',-102658.1,-169656.1,-113444.6,22955.15,-375000,-375000,-145315.8,-125241.5,0.03,-0.02,0.86,-4,0,-2,30,0
'[11:30:01.780 21/01/2026]',-104519,-171754.6,-115323.2,20890.57,-375000,-375000,-146962.4,-127012.4,0.03,-0.02,0.86,-4,0,-2,30,0
'[11:30:01.784 21/01/2026]',-105884.2,-174032.5,-116631.2,19722.46,-375000,-375000,-148155.3,-127963.8,0.03,-0.02,0.86,-4,0,-2,30,0
'[11:30:01.788 21/01/2026]',-104153.1,-172186.3,-114868.2,21674.22,-375000,-375000,-146613,-126269.6,0.03,-0.02,0.86,-4,0,-2,30,0
'[11:30:01.792 21/01/2026]',-102596.3,-169694.3,-113370.7,23071.65,-375000,-375000,-145259,-125131,0.03,-0.02,0.86,-4,0,-2,30,0
'[11:30:01.796 21/01/2026]',-104141.8,-171232.6,-114952.7,21270.14,-375000,-375000,-146630.9,-126694.8,0.03,-0.02,0.86,-4,0,-2,30,0
'[11:30:01.800 21/01/2026]',-105879.6,-173890.4,-116623.5,19687.82,-375000,-375000,-148141.1,-128003.4,0.02,0.00,0.88,-4,0,-2,30,0
'[11:30:01.804 21/01/2026]',-104543.3,-172692.8,-115255.5,21278.01,-375000,-375000,-146955.2,-126608.6,0.02,0.00,0.88,-4,0,-2,30,0
'[11:30:01.808 21/01/2026]',-102655.5,-169908.4,-113419.5,23054.79,-375000,-375000,-145319.8,-125138.1,0.02,0.00,0.88,-4,0,-2,30,0
'[11:30:01.812 21/01/2026]',-103764.4,-170762.5,-114587.6,21651.69,-375000,-375000,-146311.2,-126371.9,0.02,0.00,0.88,-4,0,-2,30,0
'[11:30:01.816 21/01/2026]',-105761.2,-173629.1,-116513.2,19761,-375000,-375000,-148033.5,-127947.1,0.02,0.00,0.88,-4,0,-2,30,0
'[11:30:01.820 21/01/2026]',-104912,-173125.8,-115606.7,20899.51,-375000,-375000,-147259.5,-126922.5,0.02,0.00,0.88,-4,0,-2,30,0
'[11:30:01.824 21/01/2026]',-102833.8,-170211.2,-113580.2,22938.61,-375000,-375000,-145428.1,-125201.6,0.02,0.00,0.88,-4,0,-2,30,0
'[11:30:01.828 21/01/2026]',-103400.6,-170295.4,-114213.4,22065.87,-375000,-375000,-145943.6,-125996.2,0.02,0.00,0.88,-4,0,-2,30,0
'[11:30:01.832 21/01/2026]',-105557,-173234.7,-116319.8,19930.83,-375000,-375000,-147844.5,-127808.6,0.02,0.00,0.88,-4,0,-2,30,0
'[11:30:01.836 21/01/2026]',-105268.9,-173487.1,-115965.8,20522.16,-375000,-375000,-147567.6,-127250.5,0.02,-0.02,0.88,-4,0,-2,30,0
'[11:30:01.840 21/01/2026]',-103090.9,-170604.8,-113821.6,22723.63,-375000,-375000,-145652.2,-125383.7,0.02,-0.02,0.88,-4,0,-2,30,0
'[11:30:01.844 21/01/2026]',-103072.6,-169931.5,-113872.9,22434.58,-375000,-375000,-145678.1,-125699.2,0.02,-0.02,0.88,-4,0,-2,30,0
'[11:30:01.848 21/01/2026]',-105272.8,-172780,-116048.6,20185.46,-375000,-375000,-147611.8,-127606.1,0.02,-0.02,0.88,-4,0,-2,30,0
'[11:30:01.852 21/01/2026]',-105564.4,-173787.5,-116270.5,20178.89,-375000,-375000,-147838.6,-127552,0.02,-0.02,0.88,-4,0,-2,30,0
'[11:30:01.856 21/01/2026]',-103405.6,-171086.5,-114130.1,22425.59,-375000,-375000,-145930,-125634.9,0.02,-0.02,0.88,-4,0,-2,30,0
'[11:30:01.860 21/01/2026]',-102827.8,-169696.2,-113627.9,22733.73,-375000,-375000,-145450.1,-125426.8,0.02,-0.02,0.88,-4,0,-2,30,0
'[11:30:01.864 21/01/2026]',-104935,-172275.3,-115720.1,20509.33,-375000,-375000,-147290.6,-127314.9,0.02,-0.02,0.88,-4,0,-2,30,0
'[11:30:01.868 21/01/2026]',-105767.4,-173953.3,-116479,19923.54,-375000,-375000,-148018.3,-127773.1,0.02,-0.02,0.88,-4,0,-2,30,0
'[11:30:01.872 21/01/2026]',-103762.8,-171598,-114469.5,22085.94,-375000,-375000,-146235.9,-125913.2,0.03,-0.02,0.88,-4,0,-2,30,0
'[11:30:01.876 21/01/2026]',-102637.8,-169578.5,-113419.6,22982.69,-375000,-375000,-145279.9,-125210.8,0.03,-0.02,0.88,-4,0,-2,30,0
'[11:30:01.880 21/01/2026]',-104549.6,-171744,-115357.4,20872.28,-375000,-375000,-146974.7,-127021.7,0.03,-0.02,0.88,-4,0,-2,30,0
'[11:30:01.884 21/01/2026]',-105888.7,-173993.8,-116614.5,19743.88,-375000,-375000,-148141.5,-127950.9,0.03,-0.02,0.88,-4,0,-2,30,0
'[11:30:01.888 21/01/2026]',-104133.3,-172099.5,-114828.4,21723.12,-375000,-375000,-146564.3,-126230.4,0.03,-0.02,0.88,-4,0,-2,30,0
'[11:30:01.892 21/01/2026]',-102594.2,-169639.6,-113359.5,23086.71,-375000,-375000,-145237.5,-125114.7,0.03,-0.02,0.88,-4,0,-2,30,0
'[11:30:01.896 21/01/2026]',-104170.3,-171232.2,-114969.6,21255.03,-375000,-375000,-146640.7,-126702.9,0.03,-0.02,0.88,-4,0,-2,30,0
'[11:30:01.900 21/01/2026]',-105880.7,-173877.8,-116620.9,19688.13,-375000,-375000,-148146,-128008.3,0.03,-0.02,0.88,-4,0,-2,30,0
'[11:30:01.904 21/01/2026]',-104499.9,-172599.6,-115208.4,21332.95,-375000,-375000,-146906.6,-126561.7,0.03,-0.02,0.88,-4,0,-2,30,0
'[11:30:01.908 21/01/2026]',-102650.1,-169830.4,-113419.3,23075.49,-375000,-375000,-145285.2,-125106.2,0.03,-0.02,0.88,-4,0,-2,30,0
'[11:30:01.912 21/01/2026]',-103788.8,-170742.9,-114596.9,21647.8,-375000,-375000,-146302.5,-126363,0.03,-0.02,0.88,-4,0,-2,30,0
'[11:30:01.916 21/01/2026]',-105776.6,-173616.9,-116517.5,19758.05,-375000,-375000,-148044.5,-127953.9,0.03,-0.02,0.88,-4,0,-2,30,0
'[11:30:01.920 21/01/2026]',-104893.2,-173058.7,-115578.6,20937.73,-375000,-375000,-147238,-126898.3,0.03,-0.02,0.88,-4,0,-2,30,0
'[11:30:01.924 21/01/2026]',-102816.8,-170150.5,-113551.6,22964.76,-375000,-375000,-145415,-125189.1,0.03,-0.02,0.88,-4,0,-2,30,0
'[11:30:01.928 21/01/2026]',-103439.8,-170310.7,-114248.3,22031.67,-375000,-375000,-145988.7,-126040,0.03,-0.02,0.88,-4,0,-2,30,0
'[11:30:01.932 21/01/2026]',-105582.5,-173261.8,-116352.9,19909.77,-375000,-375000,-147874,-127834.1,0.03,-0.02,0.88,-4,0,-2,30,0
'[11:30:01.936 21/01/2026]',-105221.7,-173447.4,-115916.6,20562.71,-375000,-375000,-147539.3,-127229.2,0.03,-0.02,0.88,-4,0,-2,30,0
'[11:30:01.940 21/01/2026]',-103051.2,-170554,-113772.2,22759.8,-375000,-375000,-145618.4,-125359.3,0.03,-0.02,0.88,-4,0,-2,30,0
'[11:30:01.944 21/01/2026]',-103101.7,-169947.2,-113900,22410.44,-375000,-375000,-145688.8,-125716.2,0.03,0.00,0.88,-4,0,-2,30,0
'[11:30:01.948 21/01/2026]',-105291.4,-172806.4,-116063.2,20173.7,-375000,-375000,-147620,-127620,0.03,0.00,0.88,-4,0,-2,30,0
'[11:30:01.952 21/01/2026]',-105539.8,-173768.9,-116237.9,20207.14,-375000,-375000,-147826.9,-127544.6,0.03,0.00,0.88,-4,0,-2,30,0
'[11:30:01.956 21/01/2026]',-103383.7,-171052.9,-114097,22450.27,-375000,-375000,-145908.3,-125620.1,0.03,0.00,0.88,-4,0,-2,30,0
'[11:30:01.960 21/01/2026]',-102821,-169697.3,-113622.9,22727.25,-375000,-375000,-145452.9,-125439.8,0.03,0.00,0.88,-4,0,-2,30,0
'[11:30:01.964 21/01/2026]',-104935.4,-172302.5,-115736.1,20484.57,-375000,-375000,-147331.3,-127366,0.03,0.00,0.88,-4,0,-2,30,0
'[11:30:01.968 21/01/2026]',-105771.4,-173957.9,-116486.1,19918.13,-375000,-375000,-148036.4,-127789.2,0.03,0.00,0.88,-4,0,-2,30,0
'[11:30:01.972 21/01/2026]',-103743.1,-171567.9,-114454.6,22097.65,-375000,-375000,-146232.6,-125902.9,0.03,0.00,0.88,-4,0,-2,30,0
'[11:30:01.976 21/01/2026]',-102655.2,-169589.4,-113440.9,22954.39,-375000,-375000,-145306.8,-125234.7,0.03,0.00,0.88,-4,0,-2,30,0
'[11:30:01.980 21/01/2026]',-104575,-171778.6,-115372.8,20848.77,-375000,-375000,-146996.8,-127041.1,0.03,-0.02,0.88,-4,0,-2,30,0
'[11:30:01.984 21/01/2026]',-105875.4,-173985.5,-116595.4,19759.57,-375000,-375000,-148131.1,-127933.3,0.03,-0.02,0.88,-4,0,-2,30,0
'[11:30:01.988 21/01/2026]',-104101.4,-172071.3,-114805,21741.32,-375000,-375000,-146548.9,-126211,0.03,-0.02,0.88,-4,0,-2,30,0
'[11:30:01.992 21/01/2026]',-102595.5,-169632.9,-113361.6,23079.47,-375000,-375000,-145242.1,-125123.9,0.03,-0.02,0.88,-4,0,-2,30,0
'[11:30:01.996 21/01/2026]',-104204.1,-171272.7,-114998.4,21222.44,-375000,-375000,-146669,-126731.9,0.03,-0.02,0.88,-4,0,-2,30,0
'[11:30:02.000 21/01/2026]',-105905.5,-173897.9,-116639.7,19677.85,-375000,-375000,-148157.4,-128012.6,0.03,-0.02,0.88,-4,0,-2,30,0
'[11:30:02.004 21/01/2026]',-104509,-172583,-115202,21342.74,-375000,-375000,-146893.7,-126541.9,0.03,-0.02,0.88,-4,0,-2,30,0
'[11:30:02.008 21/01/2026]',-102643.9,-169829.4,-113409.8,23073.04,-375000,-375000,-145283.2,-125103.5,0.03,-0.02,0.88,-4,0,-2,30,0
'[11:30:02.012 21/01/2026]',-103818.4,-170773.3,-114632.3,21617.09,-375000,-375000,-146331.3,-126385.9,0.03,-0.02,0.88,-4,0,-2,30,0
'[11:30:02.016 21/01/2026]',-105786.9,-173630.2,-116540.4,19748.57,-375000,-375000,-148054.9,-127960,0.03,0.00,0.88,-4,0,-2,30,0
'[11:30:02.020 21/01/2026]',-104843.9,-173005,-115540.1,20975.05,-375000,-375000,-147209.1,-126868.6,0.03,0.00,0.88,-4,0,-2,30,0
'[11:30:02.024 21/01/2026]',-102804.3,-170124.9,-113553.1,22966.01,-375000,-375000,-145412.5,-125186.4,0.03,0.00,0.88,-4,0,-2,30,0
'[11:30:02.028 21/01/2026]',-103452.4,-170350.5,-114271.4,21997.38,-375000,-375000,-146017.5,-126067.1,0.03,0.00,0.88,-4,0,-2,30,0
'[11:30:02.032 21/01/2026]',-105595.2,-173287.6,-116364.8,19894.97,-375000,-375000,-147892.7,-127844.3,0.03,0.00,0.88,-4,0,-2,30,0
'[11:30:02.036 21/01/2026]',-105222.2,-173438.5,-115920.9,20565.04,-375000,-375000,-147542.3,-127220.2,0.03,0.00,0.88,-4,0,-2,30,0
'[11:30:02.040 21/01/2026]',-103034.4,-170535,-113773.9,22762.03,-375000,-375000,-145615.5,-125348.8,0.03,0.00,0.88,-4,0,-2,30,0
'[11:30:02.044 21/01/2026]',-103103.9,-169973.9,-113933.8,22372.13,-375000,-375000,-145719.8,-125743.1,0.03,0.00,0.88,-4,0,-2,30,0
'[11:30:02.048 21/01/2026]',-105300.4,-172831.6,-116084.4,20150.32,-375000,-375000,-147638.8,-127627.2,0.03,0.00,0.88,-4,0,-2,30,0
'[11:30:02.052 21/01/2026]',-105515.1,-173732.6,-116215,20237.54,-375000,-375000,-147795.8,-127502,0.02,0.00,0.88,-4,0,-2,30,0
'[11:30:02.056 21/01/2026]',-103363.8,-171012.8,-114080.4,22466.54,-375000,-375000,-145895.8,-125594.8,0.02,0.00,0.88,-4,0,-2,30,0
'[11:30:02.060 21/01/2026]',-102874.2,-169730.4,-113667,22680.36,-375000,-375000,-145496.3,-125475.7,0.02,0.00,0.88,-4,0,-2,30,0
'[11:30:02.064 21/01/2026]',-104981,-172348,-115770.1,20450.64,-375000,-375000,-147362.6,-127380.6,0.02,0.00,0.88,-4,0,-2,30,0
'[11:30:02.068 21/01/2026]',-105763,-173947.9,-116483.6,19927.43,-375000,-375000,-148028.5,-127772.2,0.02,0.00,0.88,-4,0,-2,30,0
'[11:30:02.072 21/01/2026]',-103714.6,-171531.9,-114436.1,22110.43,-375000,-375000,-146221.8,-125895.8,0.02,0.00,0.88,-4,0,-2,30,0
'[11:30:02.076 21/01/2026]',-102679.4,-169602.5,-113476.2,22918.54,-375000,-375000,-145331,-125257.6,0.02,0.00,0.88,-4,0,-2,30,0
'[11:30:02.080 21/01/2026]',-104606.1,-171808.7,-115417.5,20805.41,-375000,-375000,-147030.5,-127065.5,0.02,0.00,0.88,-4,0,-2,30,0
'[11:30:02.084 21/01/2026]',-105870.7,-173967.7,-116600.7,19755.19,-375000,-375000,-148133.9,-127928.3,0.02,0.00,0.88,-4,0,-2,30,0
'[11:30:02.088 21/01/2026]',-104091.1,-172038.4,-114802.7,21742.21,-375000,-375000,-146545,-126199.5,0.03,-0.02,0.86,-4,0,-2,30,0
'[11:30:02.092 21/01/2026]',-102604.7,-169628.2,-113381.8,23057.3,-375000,-375000,-145253.5,-125127.9,0.03,-0.02,0.86,-4,0,-2,30,0
'[11:30:02.096 21/01/2026]',-104246.2,-171317.5,-115053.4,21176.94,-375000,-375000,-146706.2,-126758.9,0.03,-0.02,0.86,-4,0,-2,30,0
'[11:30:02.100 21/01/2026]',-105905.2,-173900.2,-116644.3,19679.01,-375000,-375000,-148161.2,-128007.8,0.03,-0.02,0.86,-4,0,-2,30,0
'[11:30:02.104 21/01/2026]',-104479.9,-172534.2,-115186.3,21365.5,-375000,-375000,-146875.4,-126526.3,0.03,-0.02,0.86,-4,0,-2,30,0
'[11:30:02.108 21/01/2026]',-102627.5,-169806.5,-113417,23062.75,-375000,-375000,-145296,-125119.3,0.03,-0.02,0.86,-4,0,-2,30,0
'[11:30:02.112 21/01/2026]',-103850,-170816.9,-114670.3,21562.55,-375000,-375000,-146376.3,-126432.5,0.03,-0.02,0.86,-4,0,-2,30,0
'[11:30:02.116 21/01/2026]',-105808.1,-173655.6,-116560,19720.23,-375000,-375000,-148080.7,-127978.1,0.03,-0.02,0.86,-4,0,-2,30,0
'[11:30:02.120 21/01/2026]',-104838,-172980.4,-115534.6,20986.68,-375000,-375000,-147197.6,-126852.9,0.03,-0.02,0.86,-4,0,-2,30,0
'[11:30:02.124 21/01/2026]',-102779.4,-170096.9,-113532,22978.67,-375000,-375000,-145403.3,-125178.2,0.02,-0.02,0.88,-4,0,-2,30,0
'[11:30:02.128 21/01/2026]',-103482.1,-170380.9,-114309.3,21960.86,-375000,-375000,-146057.1,-126104.4,0.02,-0.02,0.88,-4,0,-2,30,0
'[11:30:02.132 21/01/2026]',-105600.9,-173301.1,-116384.7,19875.39,-375000,-375000,-147930,-127872.5,0.02,-0.02,0.88,-4,0,-2,30,0
'[11:30:02.136 21/01/2026]',-105172.7,-173368.8,-115880.4,20603.35,-375000,-375000,-147530.5,-127196.8,0.02,-0.02,0.88,-4,0,-2,30,0
'[11:30:02.140 21/01/2026]',-103017.9,-170495.2,-113760.5,22774.73,-375000,-375000,-145608.1,-125342.1,0.02,-0.02,0.88,-4,0,-2,30,0
'[11:30:02.144 21/01/2026]',-103174.5,-170045.3,-113973.9,22321.52,-375000,-375000,-145757.2,-125782.1,0.02,-0.02,0.88,-4,0,-2,30,0
'[11:30:02.148 21/01/2026]',-105369.8,-172924.1,-116130,20096.45,-375000,-375000,-147682.4,-127664.4,0.02,-0.02,0.88,-4,0,-2,30,0
'[11:30:02.152 21/01/2026]',-105545.7,-173783.6,-116226.8,20219.88,-375000,-375000,-147799.8,-127499.4,0.02,-0.02,0.88,-4,0,-2,30,0
'[11:30:02.156 21/01/2026]',-103410.6,-171063.8,-114107.3,22436.81,-375000,-375000,-145899.8,-125601.5,0.02,-0.02,0.88,-4,0,-2,30,0
'[11:30:02.160 21/01/2026]',-102973.6,-169838.5,-113741,22599.54,-375000,-375000,-145539.4,-125522.8,0.03,0.00,0.88,-4,0,-2,30,0
'[11:30:02.164 21/01/2026]',-105093.6,-172475.8,-115834.6,20376.92,-375000,-375000,-147402.2,-127421.5,0.03,0.00,0.88,-4,0,-2,30,0
'[11:30:02.168 21/01/2026]',-105833.7,-174033,-116500.6,19901.72,-375000,-375000,-148023.5,-127763.2,0.03,0.00,0.88,-4,0,-2,30,0
'[11:30:02.172 21/01/2026]',-103782.9,-171580.1,-114468.1,22087.19,-375000,-375000,-146202.3,-125877.2,0.03,0.00,0.88,-4,0,-2,30,0
'[11:30:02.176 21/01/2026]',-102786.9,-169703.3,-113551.6,22841.52,-375000,-375000,-145365,-125296.1,0.03,0.00,0.88,-4,0,-2,30,0
'[11:30:02.180 21/01/2026]',-104738.6,-171964.8,-115499.2,20712.24,-375000,-375000,-147095.4,-127131.4,0.03,0.00,0.88,-4,0,-2,30,0
'[11:30:02.184 21/01/2026]',-105957.9,-174089.6,-116637.8,19711.91,-375000,-375000,-148156,-127945.8,0.03,0.00,0.88,-4,0,-2,30,0
'[11:30:02.188 21/01/2026]',-104142.5,-172088.8,-114823.4,21726.3,-375000,-375000,-146531.9,-126189.5,0.03,0.00,0.88,-4,0,-2,30,0
'[11:30:02.192 21/01/2026]',-102673.3,-169700.5,-113417.8,23010.49,-375000,-375000,-145265.1,-125150.6,0.03,0.00,0.88,-4,0,-2,30,0
'[11:30:02.196 21/01/2026]',-104328.9,-171423.3,-115102.7,21115.42,-375000,-375000,-146732.5,-126790.9,0.02,-0.02,0.86,-4,0,-2,30,0
'[11:30:02.200 21/01/2026]',-105969.2,-173986.7,-116682.9,19637.66,-375000,-375000,-148177.2,-128024,0.02,-0.02,0.86,-4,0,-2,30,0
'[11:30:02.204 21/01/2026]',-104503.4,-172569.5,-115182.5,21359.68,-375000,-375000,-146865.9,-126518.4,0.02,-0.02,0.86,-4,0,-2,30,0
'[11:30:02.208 21/01/2026]',-102696.5,-169863.2,-113443.1,23028.87,-375000,-375000,-145303.9,-125136.8,0.02,-0.02,0.86,-4,0,-2,30,0
'[11:30:02.212 21/01/2026]',-103954.7,-170939,-114734,21493.04,-375000,-375000,-146423,-126488.2,0.02,-0.02,0.86,-4,0,-2,30,0
'[11:30:02.216 21/01/2026]',-105881.4,-173767.8,-116600.9,19673.38,-375000,-375000,-148113.1,-128013.6,0.02,-0.02,0.86,-4,0,-2,30,0
'[11:30:02.220 21/01/2026]',-104876.3,-173041,-115553.4,20962.63,-375000,-375000,-147203.1,-126859.4,0.02,-0.02,0.86,-4,0,-2,30,0
'[11:30:02.224 21/01/2026]',-102850,-170154.7,-113568.4,22935.62,-375000,-375000,-145417.9,-125200.3,0.02,-0.02,0.86,-4,0,-2,30,0
'[11:30:02.228 21/01/2026]',-103607.3,-170491.9,-114382.3,21879.23,-375000,-375000,-146102.9,-126156.5,0.02,-0.02,0.86,-4,0,-2,30,0
'[11:30:02.232 21/01/2026]',-105699.6,-173431.7,-116434,19808.25,-375000,-375000,-147963.5,-127906.6,0.03,0.00,0.86,-4,0,-2,30,0
'[11:30:02.236 21/01/2026]',-105226.8,-173449.1,-115903.9,20577.51,-375000,-375000,-147534.6,-127203.1,0.03,0.00,0.86,-4,0,-2,30,0
'[11:30:02.240 21/01/2026]',-103071.5,-170563.2,-113794.7,22730.61,-375000,-375000,-145643,-125380.4,0.03,0.00,0.86,-4,0,-2,30,0
'[11:30:02.244 21/01/2026]',-103224.4,-170102.3,-114024.6,22267.57,-375000,-375000,-145812.7,-125840.9,0.03,0.00,0.86,-4,0,-2,30,0
'[11:30:02.248 21/01/2026]',-105426.4,-172985.1,-116186.7,20049.16,-375000,-375000,-147731.3,-127719.9,0.03,0.00,0.86,-4,0,-2,30,0
'[11:30:02.252 21/01/2026]',-105536.3,-173768.1,-116216.2,20233.96,-375000,-375000,-147797.4,-127504.6,0.03,0.00,0.86,-4,0,-2,30,0
'[11:30:02.256 21/01/2026]',-103358.2,-171004.8,-114057.3,22475.08,-375000,-375000,-145877.8,-125592.3,0.03,0.00,0.86,-4,0,-2,30,0
'[11:30:02.260 21/01/2026]',-102947,-169814.3,-113729.3,22604.59,-375000,-375000,-145542,-125545.5,0.03,0.00,0.86,-4,0,-2,30,0
'[11:30:02.264 21/01/2026]',-105089,-172489.2,-115854,20361.19,-375000,-375000,-147422.9,-127455.9,0.03,0.00,0.86,-4,0,-2,30,0
'[11:30:02.268 21/01/2026]',-105778.2,-173994.8,-116462.6,19935.79,-375000,-375000,-148011.2,-127772.8,0.02,-0.02,0.88,-4,0,-2,30,0
'[11:30:02.272 21/01/2026]',-103709.4,-171510.1,-114403.2,22141.01,-375000,-375000,-146171.9,-125866.6,0.02,-0.02,0.88,-4,0,-2,30,0
'[11:30:02.276 21/01/2026]',-102745.5,-169669.5,-113521.3,22859.71,-375000,-375000,-145357.9,-125313.8,0.02,-0.02,0.88,-4,0,-2,30,0
'[11:30:02.280 21/01/2026]',-104737,-171982,-115514.7,20697.27,-375000,-375000,-147110.7,-127165,0.02,-0.02,0.88,-4,0,-2,30,0
'[11:30:02.284 21/01/2026]',-105945.1,-174069,-116659.2,19717.41,-375000,-375000,-148153.4,-127951.4,0.02,-0.02,0.88,-4,0,-2,30,0
'[11:30:02.288 21/01/2026]',-104076.6,-172025.9,-114765.3,21773.37,-375000,-375000,-146498.1,-126165.8,0.02,-0.02,0.88,-4,0,-2,30,0
'[11:30:02.292 21/01/2026]',-102654,-169676.4,-113413.6,23007.59,-375000,-375000,-145272.7,-125166.1,0.02,-0.02,0.88,-4,0,-2,30,0
'[11:30:02.296 21/01/2026]',-104342.9,-171451.4,-115130.4,21083.06,-375000,-375000,-146768.8,-126827.5,0.02,-0.02,0.88,-4,0,-2,30,0
'[11:30:02.300 21/01/2026]',-105963.2,-173992.8,-116693.3,19634.67,-375000,-375000,-148184.7,-128026.6,0.02,-0.02,0.88,-4,0,-2,30,0
'[11:30:02.304 21/01/2026]',-104453.7,-172517.9,-115134.5,21396.25,-375000,-375000,-146829,-126481.2,0.03,-0.02,0.88,-4,0,-2,30,0
'[11:30:02.308 21/01/2026]',-102695.2,-169834.3,-113441,23027.57,-375000,-375000,-145295.6,-125130.6,0.03,-0.02,0.88,-4,0,-2,30,0
'[11:30:02.312 21/01/2026]',-103967.7,-170956.1,-114758.4,21467.64,-375000,-375000,-146443.8,-126506,0.03,-0.02,0.88,-4,0,-2,30,0
'[11:30:02.316 21/01/2026]',-105878.4,-173774.2,-116611.8,19667.08,-375000,-375000,-148125.3,-128016,0.03,-0.02,0.88,-4,0,-2,30,0
'[11:30:02.320 21/01/2026]',-104836,-173006.7,-115524.7,20987.66,-375000,-375000,-147187,-126835.9,0.03,-0.02,0.88,-4,0,-2,30,0
'[11:30:02.324 21/01/2026]',-102808.4,-170113.6,-113545.7,22953.14,-375000,-375000,-145402.6,-125180.7,0.03,-0.02,0.88,-4,0,-2,30,0
'[11:30:02.328 21/01/2026]',-103585.7,-170504.6,-114388.1,21862.51,-375000,-375000,-146117.1,-126166.1,0.03,-0.02,0.88,-4,0,-2,30,0
'[11:30:02.332 21/01/2026]',-105701.3,-173439.9,-116443.7,19804.45,-375000,-375000,-147964.1,-127903.1,0.03,-0.02,0.88,-4,0,-2,30,0
'[11:30:02.336 21/01/2026]',-105210.2,-173414.7,-115881.2,20603.57,-375000,-375000,-147497.3,-127164.5,0.03,-0.02,0.88,-4,0,-2,30,0
'[11:30:02.340 21/01/2026]',-103055.9,-170510.3,-113776.8,22745.27,-375000,-375000,-145607.7,-125344.2,0.03,-0.02,0.88,-4,0,-2,30,0
'[11:30:02.344 21/01/2026]',-103260.5,-170110.3,-114044.2,22238.42,-375000,-375000,-145815.2,-125841.3,0.03,-0.02,0.88,-4,0,-2,30,0
'[11:30:02.348 21/01/2026]',-105442.7,-172999.8,-116191.4,20036.73,-375000,-375000,-147729.7,-127706.3,0.03,-0.02,0.88,-4,0,-2,30,0
'[11:30:02.352 21/01/2026]',-105525.6,-173743.5,-116204.6,20246.7,-375000,-375000,-147772.4,-127470.4,0.03,-0.02,0.88,-4,0,-2,30,0
'[11:30:02.356 21/01/2026]',-103343.6,-170966.5,-114049.4,22487.73,-375000,-375000,-145848,-125554.6,0.03,-0.02,0.88,-4,0,-2,30,0
'[11:30:02.360 21/01/2026]',-102966.8,-169832.6,-113756.7,22574.63,-375000,-375000,-145551,-125543,0.03,-0.02,0.88,-4,0,-2,30,0
'[11:30:02.364 21/01/2026]',-105124.1,-172530.8,-115894.1,20326.14,-375000,-375000,-147441.4,-127456.5,0.03,-0.02,0.88,-4,0,-2,30,0
'[11:30:02.368 21/01/2026]',-105783,-173982.9,-116478.1,19940.35,-375000,-375000,-147997.5,-127740.5,0.03,-0.02,0.88,-4,0,-2,30,0
'[11:30:02.372 21/01/2026]',-103686.8,-171473.2,-114383.8,22161.35,-375000,-375000,-146145.8,-125836.6,0.03,-0.02,0.88,-4,0,-2,30,0
'[11:30:02.376 21/01/2026]',-102768.7,-169680.2,-113542,22838.3,-375000,-375000,-145361.6,-125313.8,0.03,0.00,0.86,-4,0,-2,30,0
'[11:30:02.380 21/01/2026]',-104751,-172005.2,-115529,20684.93,-375000,-375000,-147108.8,-127153.4,0.03,0.00,0.86,-4,0,-2,30,0
'[11:30:02.384 21/01/2026]',-105923.1,-174056.8,-116628.8,19742.54,-375000,-375000,-148123.3,-127922.2,0.03,0.00,0.86,-4,0,-2,30,0
'[11:30:02.388 21/01/2026]',-104060.4,-171992.3,-114758.7,21791.65,-375000,-375000,-146469.8,-126140.4,0.03,0.00,0.86,-4,0,-2,30,0
'[11:30:02.392 21/01/2026]',-102668.6,-169673.3,-113434.6,22989.71,-375000,-375000,-145268.3,-125169.4,0.03,0.00,0.86,-4,0,-2,30,0
'[11:30:02.396 21/01/2026]',-104367.8,-171486.1,-115157.2,21047.7,-375000,-375000,-146783.6,-126849.7,0.03,0.00,0.86,-4,0,-2,30,0
'[11:30:02.400 21/01/2026]',-105968.9,-174004.6,-116683.6,19633.19,-375000,-375000,-148175.6,-128024.3,0.03,0.00,0.86,-4,0,-2,30,0
'[11:30:02.404 21/01/2026]',-104433.6,-172492.8,-115109.4,21417.8,-375000,-375000,-146798.6,-126461.4,0.03,0.00,0.86,-4,0,-2,30,0
'[11:30:02.408 21/01/2026]',-102675.3,-169816.5,-113420,23040.22,-375000,-375000,-145268,-125115.3,0.03,0.00,0.86,-4,0,-2,30,0
'[11:30:02.412 21/01/2026]',-103997.1,-170997.2,-114787.5,21437.91,-375000,-375000,-146450.1,-126521.3,0.03,-0.02,0.88,-4,0,-2,30,0
'[11:30:02.416 21/01/2026]',-105905.4,-173796.1,-116639.3,19651.88,-375000,-375000,-148117.6,-128017.3,0.03,-0.02,0.88,-4,0,-2,30,0
'[11:30:02.420 21/01/2026]',-104815,-172971.2,-115494.6,21013.99,-375000,-375000,-147146.6,-126812.1,0.03,-0.02,0.88,-4,0,-2,30,0
'[11:30:02.424 21/01/2026]',-102807.9,-170104.2,-113538.5,22954.03,-375000,-375000,-145385,-125182.1,0.03,-0.02,0.88,-4,0,-2,30,0
'[11:30:02.428 21/01/2026]',-103629.2,-170539.7,-114429.8,21823.66,-375000,-375000,-146138.4,-126197.5,0.03,-0.02,0.88,-4,0,-2,30,0
'[11:30:02.432 21/01/2026]',-105721,-173470.9,-116460.4,19783.35,-375000,-375000,-147977.4,-127920,0.03,-0.02,0.88,-4,0,-2,30,0
'[11:30:02.436 21/01/2026]',-105174.8,-173390.2,-115854.9,20624.49,-375000,-375000,-147476,-127148.8,0.03,-0.02,0.88,-4,0,-2,30,0
'[11:30:02.440 21/01/2026]',-103022.9,-170475,-113751.3,22762.93,-375000,-375000,-145585.7,-125336.7,0.03,-0.02,0.88,-4,0,-2,30,0
'[11:30:02.444 21/01/2026]',-103266.4,-170155,-114077.4,22195.51,-375000,-375000,-145838.9,-125875.8,0.03,-0.02,0.88,-4,0,-2,30,0
'[11:30:02.448 21/01/2026]',-105435.4,-173036.8,-116217.1,20011.47,-375000,-375000,-147749.4,-127732,0.03,-0.02,0.86,-4,0,-2,30,0
'[11:30:02.452 21/01/2026]',-105495.2,-173717.9,-116182,20266.46,-375000,-375000,-147766.2,-127465.6,0.03,-0.02,0.86,-4,0,-2,30,0
'[11:30:02.456 21/01/2026]',-103331.4,-170921.4,-114043.9,22492.83,-375000,-375000,-145853.7,-125568.2,0.03,-0.02,0.86,-4,0,-2,30,0
'[11:30:02.460 21/01/2026]',-102989.9,-169841.9,-113779.1,22536.23,-375000,-375000,-145598.8,-125608.5,0.03,-0.02,0.86,-4,0,-2,30,0
'[11:30:02.464 21/01/2026]',-105139.6,-172549.7,-115907.8,20299.81,-375000,-375000,-147479.8,-127496,0.03,-0.02,0.86,-4,0,-2,30,0
'[11:30:02.468 21/01/2026]',-105780,-173984.5,-116468.9,19932.21,-375000,-375000,-148022,-127760.5,0.03,-0.02,0.86,-4,0,-2,30,0
'[11:30:02.472 21/01/2026]',-103669.3,-171449.3,-114380.4,22157.37,-375000,-375000,-146156.8,-125839.7,0.03,-0.02,0.86,-4,0,-2,30,0
'[11:30:02.476 21/01/2026]',-102780.4,-169694.8,-113575.8,22799.85,-375000,-375000,-145401.7,-125350.5,0.03,-0.02,0.86,-4,0,-2,30,0
'[11:30:02.480 21/01/2026]',-104783.7,-172047.9,-115562,20642.33,-375000,-375000,-147165.1,-127206.8,0.03,-0.02,0.86,-4,0,-2,30,0
'[11:30:02.484 21/01/2026]',-105931,-174067.7,-116637.5,19727.83,-375000,-375000,-148158.1,-127945.4,0.03,-0.02,0.89,-4,0,-2,30,0
'[11:30:02.488 21/01/2026]',-104036.3,-171950.5,-114737.3,21804.97,-375000,-375000,-146480,-126143.2,0.03,-0.02,0.89,-4,0,-2,30,0
'[11:30:02.492 21/01/2026]',-102658,-169652.1,-113424.9,22990.24,-375000,-375000,-145293.8,-125186.2,0.03,-0.02,0.89,-4,0,-2,30,0
'[11:30:02.496 21/01/2026]',-104404.5,-171516.5,-115203.2,21014.3,-375000,-375000,-146841.3,-126892.4,0.03,-0.02,0.89,-4,0,-2,30,0
'[11:30:02.500 21/01/2026]',-105956.5,-173995.5,-116672,19638.38,-375000,-375000,-148199.9,-128035.6,0.03,-0.02,0.89,-4,0,-2,30,0
'[11:30:02.504 21/01/2026]',-104422.7,-172454.8,-115103.2,21428.17,-375000,-375000,-146820.4,-126468.7,0.03,-0.02,0.89,-4,0,-2,30,0
'[11:30:02.508 21/01/2026]',-102678.9,-169790,-113425.2,23030.83,-375000,-375000,-145306.6,-125144.3,0.03,-0.02,0.89,-4,0,-2,30,0
'[11:30:02.512 21/01/2026]',-104015.4,-170998.4,-114804.9,21414.58,-375000,-375000,-146495.5,-126554.8,0.03,-0.02,0.89,-4,0,-2,30,0
'[11:30:02.516 21/01/2026]',-105889.2,-173774.5,-116623.2,19656.84,-375000,-375000,-148144.4,-128028.8,0.03,-0.02,0.89,-4,0,-2,30,0
'[11:30:02.520 21/01/2026]',-104785.5,-172903,-115476.7,21039.16,-375000,-375000,-147152.2,-126802.6,0.03,0.00,0.86,-4,0,-2,30,0
'[11:30:02.524 21/01/2026]',-102807.1,-170073.1,-113544.4,22950.19,-375000,-375000,-145408.9,-125196.6,0.03,0.00,0.86,-4,0,-2,30,0
'[11:30:02.528 21/01/2026]',-103652.9,-170574.1,-114441.6,21798.9,-375000,-375000,-146178.2,-126233.6,0.03,0.00,0.86,-4,0,-2,30,0
'[11:30:02.532 21/01/2026]',-105743.4,-173510.7,-116481.5,19760.77,-375000,-375000,-148011.8,-127947.1,0.03,0.00,0.86,-4,0,-2,30,0
'[11:30:02.536 21/01/2026]',-105177.6,-173411.3,-115856.9,20624.13,-375000,-375000,-147485.9,-127149.5,0.03,0.00,0.86,-4,0,-2,30,0
'[11:30:02.540 21/01/2026]',-103016.7,-170497.1,-113733.4,22776.34,-375000,-375000,-145583.2,-125327.6,0.03,0.00,0.86,-4,0,-2,30,0
'[11:30:02.544 21/01/2026]',-103300.8,-170214.5,-114091.9,22176.69,-375000,-375000,-145864.3,-125899.2,0.03,0.00,0.86,-4,0,-2,30,0
'[11:30:02.548 21/01/2026]',-105490.5,-173139.1,-116244,19966.05,-375000,-375000,-147788.5,-127767.1,0.03,0.00,0.86,-4,0,-2,30,0
'[11:30:02.552 21/01/2026]',-105490.4,-173770.2,-116176.5,20263.51,-375000,-375000,-147766,-127462.4,0.03,0.00,0.86,-4,0,-2,30,0
'[11:30:02.556 21/01/2026]',-103319,-170966.7,-114026.5,22495.96,-375000,-375000,-145842.3,-125557.7,0.03,-0.03,0.88,-4,0,-2,30,0
'[11:30:02.560 21/01/2026]',-103021.2,-169919.8,-113805.1,22507.36,-375000,-375000,-145606,-125609.8,0.03,-0.03,0.88,-4,0,-2,30,0
'[11:30:02.564 21/01/2026]',-105169.8,-172645.2,-115941.5,20264.22,-375000,-375000,-147501.8,-127516.1,0.03,-0.03,0.88,-4,0,-2,30,0
'[11:30:02.568 21/01/2026]',-105737.6,-174000,-116436.1,19964.76,-375000,-375000,-147986.1,-127722.6,0.03,-0.03,0.88,-4,0,-2,30,0
'[11:30:02.572 21/01/2026]',-103631.6,-171460.5,-114350.3,22180.26,-375000,-375000,-146134.3,-125823.1,0.03,-0.03,0.88,-4,0,-2,30,0
'[11:30:02.576 21/01/2026]',-102774.3,-169747.4,-113572.5,22782.86,-375000,-375000,-145410.1,-125368.4,0.03,-0.03,0.88,-4,0,-2,30,0
'[11:30:02.580 21/01/2026]',-104811.9,-172137.5,-115593.1,20602.54,-375000,-375000,-147189.5,-127233.5,0.03,-0.03,0.88,-4,0,-2,30,0
'[11:30:02.584 21/01/2026]',-105905.4,-174100.8,-116606,19744.81,-375000,-375000,-148134.7,-127923.1,0.03,-0.03,0.88,-4,0,-2,30,0
'[11:30:02.588 21/01/2026]',-104016.3,-171957.4,-114717.4,21814.14,-375000,-375000,-146456,-126124.6,0.03,-0.03,0.88,-4,0,-2,30,0
'[11:30:02.592 21/01/2026]',-102686.5,-169721,-113460.9,22946.79,-375000,-375000,-145309.2,-125207.4,0.03,0.00,0.88,-4,0,-2,30,0
'[11:30:02.596 21/01/2026]',-104417.5,-171596.3,-115202.1,20988.55,-375000,-375000,-146853.2,-126907,0.03,0.00,0.88,-4,0,-2,30,0
'[11:30:02.600 21/01/2026]',-105957.4,-174050.5,-116670.6,19636.59,-375000,-375000,-148193.3,-128030.8,0.03,0.00,0.88,-4,0,-2,30,0
'[11:30:02.604 21/01/2026]',-104390.2,-172474.1,-115070.9,21449.31,-375000,-375000,-146790.6,-126449.8,0.03,0.00,0.88,-4,0,-2,30,0
'[11:30:02.608 21/01/2026]',-102669.4,-169834.1,-113418.6,23020.15,-375000,-375000,-145301.9,-125148.5,0.03,0.00,0.88,-4,0,-2,30,0
'[11:30:02.612 21/01/2026]',-104043.6,-171114.3,-114845.6,21363.08,-375000,-375000,-146532,-126591.3,0.03,0.00,0.88,-4,0,-2,30,0
'[11:30:02.616 21/01/2026]',-105913.8,-173903.2,-116650.9,19619.42,-375000,-375000,-148168.2,-128050.9,0.03,0.00,0.88,-4,0,-2,30,0
'[11:30:02.620 21/01/2026]',-104757.3,-172945.5,-115438.8,21066.25,-375000,-375000,-147120.1,-126776,0.03,0.00,0.88,-4,0,-2,30,0
'[11:30:02.624 21/01/2026]',-102786.7,-170095.9,-113526.8,22956.27,-375000,-375000,-145400.4,-125197.2,0.03,0.00,0.88,-4,0,-2,30,0
'[11:30:02.628 21/01/2026]',-103664.8,-170639.4,-114454.6,21769.53,-375000,-375000,-146202.2,-126262.9,0.03,-0.02,0.89,-4,0,-2,30,0
'[11:30:02.632 21/01/2026]',-105719.7,-173551,-116463.8,19769.63,-375000,-375000,-148013.6,-127947.1,0.03,-0.02,0.89,-4,0,-2,30,0
'[11:30:02.636 21/01/2026]',-105121.1,-173383.9,-115811.4,20670.31,-375000,-375000,-147461.7,-127127.8,0.03,-0.02,0.89,-4,0,-2,30,0
'[11:30:02.640 21/01/2026]',-102979,-170463.2,-113713.2,22793.73,-375000,-375000,-145578.7,-125332.8,0.03,-0.02,0.89,-4,0,-2,30,0
'[11:30:02.644 21/01/2026]',-103305.2,-170226.2,-114104,22158.49,-375000,-375000,-145888.8,-125936.2,0.03,-0.02,0.89,-4,0,-2,30,0
'[11:30:02.648 21/01/2026]',-105481.7,-173152.8,-116249.4,19968.69,-375000,-375000,-147801.3,-127784.1,0.03,-0.02,0.89,-4,0,-2,30,0
'[11:30:02.652 21/01/2026]',-105431.7,-173728,-116128.8,20314.7,-375000,-375000,-147742,-127443.4,0.03,-0.02,0.89,-4,0,-2,30,0
'[11:30:02.656 21/01/2026]',-103270.2,-170910.5,-113988.2,22537.67,-375000,-375000,-145815.5,-125538,0.03,-0.02,0.89,-4,0,-2,30,0
'[11:30:02.660 21/01/2026]',-103031.3,-169926.3,-113823.2,22491.17,-375000,-375000,-145624.4,-125637.1,0.03,-0.02,0.89,-4,0,-2,30,0
'[11:30:02.664 21/01/2026]',-105160.2,-172658.3,-115932.3,20268.61,-375000,-375000,-147509.1,-127530.4,0.03,-0.02,0.86,-4,0,-2,30,0
'[11:30:02.668 21/01/2026]',-105700.2,-173981.9,-116408,20000.12,-375000,-375000,-147965.1,-127709.1,0.03,-0.02,0.86,-4,0,-2,30,0
'[11:30:02.672 21/01/2026]',-103616.3,-171423.3,-114325.4,22207.31,-375000,-375000,-146113.6,-125808.8,0.03,-0.02,0.86,-4,0,-2,30,0
'[11:30:02.676 21/01/2026]',-102782.1,-169747.9,-113562.7,22778.57,-375000,-375000,-145420.2,-125381.3,0.03,-0.02,0.86,-4,0,-2,30,0
'[11:30:02.680 21/01/2026]',-104807.7,-172157.3,-115588.1,20600.8,-375000,-375000,-147202,-127240.7,0.03,-0.02,0.86,-4,0,-2,30,0
'[11:30:02.684 21/01/2026]',-105883.2,-174103.3,-116586.6,19763.86,-375000,-375000,-148129.1,-127909.1,0.03,-0.02,0.86,-4,0,-2,30,0
'[11:30:02.688 21/01/2026]',-103972,-171934.1,-114677.7,21852.32,-375000,-375000,-146429.5,-126097.6,0.03,-0.02,0.86,-4,0,-2,30,0
'[11:30:02.692 21/01/2026]',-102678.6,-169718,-113452.3,22947.51,-375000,-375000,-145312.9,-125214.5,0.03,-0.02,0.86,-4,0,-2,30,0
'[11:30:02.696 21/01/2026]',-104453.6,-171636.8,-115234.3,20963.43,-375000,-375000,-146873.2,-126923.3,0.03,-0.02,0.86,-4,0,-2,30,0
'[11:30:02.700 21/01/2026]',-105963.5,-174061.5,-116676.6,19634.13,-375000,-375000,-148194.7,-128024.1,0.02,-0.02,0.89,-4,0,-2,30,0
'[11:30:02.704 21/01/2026]',-104369.2,-172451.1,-115052.2,21464.74,-375000,-375000,-146771.4,-126425.5,0.02,-0.02,0.89,-4,0,-2,30,0
'[11:30:02.708 21/01/2026]',-102667.3,-169831.7,-113417.3,23021.89,-375000,-375000,-145301.5,-125148.9,0.02,-0.02,0.89,-4,0,-2,30,0
'[11:30:02.712 21/01/2026]',-104072,-171152,-114872.9,21335.05,-375000,-375000,-146559.6,-126618.3,0.02,-0.02,0.89,-4,0,-2,30,0
'[11:30:02.716 21/01/2026]',-105901.5,-173888.7,-116625.7,19638.24,-375000,-375000,-148159.6,-128040,0.02,-0.02,0.89,-4,0,-2,30,0
'[11:30:02.720 21/01/2026]',-104725.4,-172909.2,-115406.1,21091.96,-375000,-375000,-147095.9,-126753.2,0.02,-0.02,0.89,-4,0,-2,30,0
'[11:30:02.724 21/01/2026]',-102780.6,-170074.8,-113517.8,22957.39,-375000,-375000,-145387.3,-125188,0.02,-0.02,0.89,-4,0,-2,30,0
'[11:30:02.728 21/01/2026]',-103700.5,-170667.8,-114510.3,21727.82,-375000,-375000,-146223.3,-126280.3,0.02,-0.02,0.89,-4,0,-2,30,0
'[11:30:02.732 21/01/2026]',-105728.9,-173571.2,-116478,19754.74,-375000,-375000,-148012,-127941.9,0.02,-0.02,0.89,-4,0,-2,30,0
'[11:30:02.736 21/01/2026]',-105093.1,-173355.9,-115776.9,20694.9,-375000,-375000,-147425.3,-127092.1,0.03,-0.02,0.88,-4,0,-2,30,0
'[11:30:02.740 21/01/2026]',-102964.1,-170446.3,-113690.6,22804.72,-375000,-375000,-145556.4,-125311.6,0.03,-0.02,0.88,-4,0,-2,30,0
'[11:30:02.744 21/01/2026]',-103328.9,-170264.1,-114126.3,22127.42,-375000,-375000,-145906.2,-125942.3,0.03,-0.02,0.88,-4,0,-2,30,0
'[11:30:02.748 21/01/2026]',-105504.6,-173180.5,-116263.1,19946.83,-375000,-375000,-147819.1,-127793.3,0.03,-0.02,0.88,-4,0,-2,30,0
'[11:30:02.752 21/01/2026]',-105426.5,-173721.9,-116127.1,20313.4,-375000,-375000,-147735,-127428,0.03,-0.02,0.88,-4,0,-2,30,0
'[11:30:02.756 21/01/2026]',-103255.8,-170900.6,-113975.9,22537.98,-375000,-375000,-145809.3,-125523.6,0.03,-0.02,0.88,-4,0,-2,30,0
'[11:30:02.760 21/01/2026]',-103028.8,-169950.9,-113819.8,22469.67,-375000,-375000,-145643.9,-125648.9,0.03,-0.02,0.88,-4,0,-2,30,0
'[11:30:02.764 21/01/2026]',-105194.2,-172705.5,-115968.2,20227.39,-375000,-375000,-147546.4,-127558.6,0.03,-0.02,0.88,-4,0,-2,30,0
'[11:30:02.768 21/01/2026]',-105694.7,-173965.9,-116388.8,20004.41,-375000,-375000,-147964.4,-127697.3,0.03,-0.02,0.88,-4,0,-2,30,0
'[11:30:02.772 21/01/2026]',-103582.5,-171377.1,-114291.1,22229.66,-375000,-375000,-146090.4,-125788.3,0.02,-0.02,0.88,-4,0,-2,30,0
'[11:30:02.776 21/01/2026]',-102815.4,-169756,-113599.3,22749.87,-375000,-375000,-145437,-125400.6,0.02,-0.02,0.88,-4,0,-2,30,0
'[11:30:02.780 21/01/2026]',-104856.1,-172199.8,-115634.7,20556.9,-375000,-375000,-147238.9,-127276.7,0.02,-0.02,0.88,-4,0,-2,30,0
'[11:30:02.784 21/01/2026]',-105868.5,-174091.4,-116590.9,19755.9,-375000,-375000,-148131.2,-127909.1,0.02,-0.02,0.88,-4,0,-2,30,0
'[11:30:02.788 21/01/2026]',-103945.9,-171891.8,-114652.5,21870.6,-375000,-375000,-146409.6,-126080.8,0.02,-0.02,0.88,-4,0,-2,30,0
'[11:30:02.792 21/01/2026]',-102672.4,-169699.5,-113439.4,22951.62,-375000,-375000,-145301,-125216.7,0.02,-0.02,0.88,-4,0,-2,30,0
'[11:30:02.796 21/01/2026]',-104451,-171655.2,-115243.8,20949.98,-375000,-375000,-146874.3,-126935.5,0.02,-0.02,0.88,-4,0,-2,30,0
'[11:30:02.800 21/01/2026]',-105947.4,-174055.8,-116663.1,19650.27,-375000,-375000,-148170.7,-128004.9,0.02,-0.02,0.88,-4,0,-2,30,0
'[11:30:02.804 21/01/2026]',-104334.6,-172411.5,-115025.3,21491.38,-375000,-375000,-146733.1,-126399.4,0.02,-0.02,0.88,-4,0,-2,30,0
'[11:30:02.808 21/01/2026]',-102645.9,-169816.3,-113398.4,23022.25,-375000,-375000,-145283.6,-125143.5,0.02,0.00,0.88,-4,0,-2,30,0
'[11:30:02.812 21/01/2026]',-104088.4,-171173,-114882.1,21320.88,-375000,-375000,-146554.4,-126617.5,0.02,0.00,0.88,-4,0,-2,30,0
'[11:30:02.816 21/01/2026]',-105900.2,-173893.4,-116629.6,19645.21,-375000,-375000,-148138.8,-128023,0.02,0.00,0.88,-4,0,-2,30,0
'[11:30:02.820 21/01/2026]',-104697.8,-172868.2,-115385.4,21119.09,-375000,-375000,-147063.3,-126721,0.02,0.00,0.88,-4,0,-2,30,0
'[11:30:02.824 21/01/2026]',-102752.4,-170036.6,-113511.1,22968.7,-375000,-375000,-145371.2,-125172.2,0.02,0.00,0.88,-4,0,-2,30,0
'[11:30:02.828 21/01/2026]',-103704.7,-170696.7,-114501.9,21716.46,-375000,-375000,-146231,-126295.9,0.02,0.00,0.88,-4,0,-2,30,0
'[11:30:02.832 21/01/2026]',-105753.7,-173619.4,-116478.5,19743.65,-375000,-375000,-148018.2,-127957.5,0.02,0.00,0.88,-4,0,-2,30,0
'[11:30:02.836 21/01/2026]',-105069.5,-173344.6,-115747.7,20720.78,-375000,-375000,-147390.1,-127064.1,0.02,0.00,0.88,-4,0,-2,30,0
'[11:30:02.840 21/01/2026]',-102957.8,-170455.9,-113686,22801.1,-375000,-375000,-145543.6,-125306.4,0.02,0.00,0.88,-4,0,-2,30,0
'[11:30:02.844 21/01/2026]',-103358.8,-170327.3,-114156.1,22087.14,-375000,-375000,-145934.4,-125978.2,0.03,-0.02,0.88,-4,0,-2,30,0
'[11:30:02.848 21/01/2026]',-105541.7,-173258.7,-116299.3,19910.49,-375000,-375000,-147852,-127826,0.03,-0.02,0.88,-4,0,-2,30,0
'[11:30:02.852 21/01/2026]',-105386.9,-173712.2,-116068.7,20359.4,-375000,-375000,-147697,-127397.9,0.03,-0.02,0.88,-4,0,-2,30,0
'[11:30:02.856 21/01/2026]',-103220.2,-170886.3,-113934,22567.97,-375000,-375000,-145783.4,-125508.3,0.03,-0.02,0.88,-4,0,-2,30,0
'[11:30:02.860 21/01/2026]',-103052,-169996.1,-113842.6,22446.38,-375000,-375000,-145667.5,-125676.6,0.03,-0.02,0.88,-4,0,-2,30,0
'[11:30:02.864 21/01/2026]',-105224,-172760.5,-115989.3,20213.04,-375000,-375000,-147563.6,-127571.1,0.03,-0.02,0.88,-4,0,-2,30,0
'[11:30:02.868 21/01/2026]',-105664.3,-173977.3,-116359.1,20032.84,-375000,-375000,-147943.3,-127675.9,0.03,-0.02,0.88,-4,0,-2,30,0
'[11:30:02.872 21/01/2026]',-103569,-171398.4,-114278.7,22232.47,-375000,-375000,-146093.3,-125791.8,0.03,-0.02,0.88,-4,0,-2,30,0
'[11:30:02.876 21/01/2026]',-102811.6,-169799.1,-113591,22738.43,-375000,-375000,-145451.4,-125423.7,0.03,-0.02,0.88,-4,0,-2,30,0
'[11:30:02.880 21/01/2026]',-104846.1,-172258,-115634.9,20545.86,-375000,-375000,-147256.6,-127299.5,0.03,-0.02,0.86,-4,0,-2,30,0
'[11:30:02.884 21/01/2026]',-105850.5,-174121.3,-116561.2,19784.15,-375000,-375000,-148121.5,-127905.3,0.03,-0.02,0.86,-4,0,-2,30,0
'[11:30:02.888 21/01/2026]',-103913.6,-171891,-114617.4,21899.52,-375000,-375000,-146396.5,-126075.7,0.03,-0.02,0.86,-4,0,-2,30,0
'[11:30:02.892 21/01/2026]',-102675.2,-169741.3,-113453.4,22931.55,-375000,-375000,-145334.8,-125254.7,0.03,-0.02,0.86,-4,0,-2,30,0
'[11:30:02.896 21/01/2026]',-104503.9,-171743.6,-115300.7,20891.1,-375000,-375000,-146948.8,-127008.2,0.03,-0.02,0.86,-4,0,-2,30,0
'[11:30:02.900 21/01/2026]',-105943.6,-174103,-116664.3,19640.97,-375000,-375000,-148209.1,-128036.4,0.03,-0.02,0.86,-4,0,-2,30,0
'[11:30:02.904 21/01/2026]',-104310.4,-172410.8,-114992.4,21511.59,-375000,-375000,-146748.5,-126404.3,0.03,-0.02,0.86,-4,0,-2,30,0
'[11:30:02.908 21/01/2026]',-102669.3,-169841.2,-113424.2,22999.1,-375000,-375000,-145321,-125176.7,0.03,-0.02,0.86,-4,0,-2,30,0
'[11:30:02.912 21/01/2026]',-104112.9,-171234.9,-114902.8,21288.02,-375000,-375000,-146605,-126668.3,0.03,-0.02,0.86,-4,0,-2,30,0
'[11:30:02.916 21/01/2026]',-105914.5,-173952.4,-116643.7,19621.61,-375000,-375000,-148188.2,-128063.9,0.03,-0.02,0.88,-4,0,-2,30,0
'[11:30:02.920 21/01/2026]',-104664.5,-172883.2,-115352,21140.5,-375000,-375000,-147073.5,-126730.5,0.03,-0.02,0.88,-4,0,-2,30,0
'[11:30:02.924 21/01/2026]',-102736.8,-170072.7,-113487.4,22974.33,-375000,-375000,-145385.1,-125198.6,0.03,-0.02,0.88,-4,0,-2,30,0
'[11:30:02.928 21/01/2026]',-103731.5,-170769.1,-114524.7,21685.26,-375000,-375000,-146280.4,-126355.8,0.03,-0.02,0.88,-4,0,-2,30,0
'[11:30:02.932 21/01/2026]',-105773.6,-173664.2,-116506.7,19721.88,-375000,-375000,-148065,-128000.1,0.03,-0.02,0.88,-4,0,-2,30,0
'[11:30:02.936 21/01/2026]',-105050.5,-173332.9,-115733.2,20739.15,-375000,-375000,-147398.2,-127071.4,0.03,-0.02,0.88,-4,0,-2,30,0
'[11:30:02.940 21/01/2026]',-102931.2,-170414.8,-113666.3,22825.96,-375000,-375000,-145536,-125310.6,0.03,-0.02,0.88,-4,0,-2,30,0
'[11:30:02.944 21/01/2026]',-103381.9,-170344.3,-114179.6,22069.13,-375000,-375000,-145961.5,-126024.1,0.03,-0.02,0.88,-4,0,-2,30,0
'[11:30:02.948 21/01/2026]',-105528.6,-173265.6,-116281.8,19921.48,-375000,-375000,-147846.7,-127833.7,0.03,-0.02,0.88,-4,0,-2,30,0
'[11:30:02.952 21/01/2026]',-105382.8,-173715.8,-116071,20365.88,-375000,-375000,-147688.9,-127396.7,0.03,0.00,0.88,-4,0,-2,30,0
'[11:30:02.956 21/01/2026]',-103209.1,-170856.5,-113925.6,22587.24,-375000,-375000,-145766.2,-125506.2,0.03,0.00,0.88,-4,0,-2,30,0
'[11:30:02.960 21/01/2026]',-103074.5,-170011.6,-113869.6,22426,-375000,-375000,-145671.3,-125695.8,0.03,0.00,0.88,-4,0,-2,30,0
'[11:30:02.964 21/01/2026]',-105239.9,-172801.7,-116009.8,20184.38,-375000,-375000,-147587,-127601.7,0.03,0.00,0.88,-4,0,-2,30,0
'[11:30:02.968 21/01/2026]',-105650,-173968.6,-116338.5,20052.91,-375000,-375000,-147929,-127662.3,0.03,0.00,0.88,-4,0,-2,30,0
'[11:30:02.972 21/01/2026]',-103516.4,-171342,-114230.2,22283.17,-375000,-375000,-146039.2,-125741.2,0.03,0.00,0.88,-4,0,-2,30,0
'[11:30:02.976 21/01/2026]',-102819.2,-169818.8,-113622.2,22710,-375000,-375000,-145464,-125437.8,0.03,0.00,0.88,-4,0,-2,30,0
'[11:30:02.980 21/01/2026]',-104903.1,-172318.4,-115700,20489.62,-375000,-375000,-147299.4,-127334.4,0.03,0.00,0.88,-4,0,-2,30,0
'[11:30:02.984 21/01/2026]',-105849.5,-174113.6,-116544.9,19796.89,-375000,-375000,-148112.2,-127885.3,0.03,0.00,0.88,-4,0,-2,30,0
'[11:30:02.988 21/01/2026]',-103892.4,-171845.2,-114587.2,21926.88,-375000,-375000,-146364.5,-126039.4,0.02,-0.02,0.86,-4,0,-2,30,0
'[11:30:02.992 21/01/2026]',-102686.4,-169745.1,-113463.6,22917.38,-375000,-375000,-145334.8,-125252.6,0.02,-0.02,0.86,-4,0,-2,30,0
'[11:30:02.996 21/01/2026]',-104529.6,-171797.8,-115322.8,20868.13,-375000,-375000,-146965.1,-127019.7,0.02,-0.02,0.86,-4,0,-2,30,0
'[11:30:03.000 21/01/2026]',-105950,-174126.9,-116667.5,19643.2,-375000,-375000,-148204.3,-128029.6,0.02,-0.02,0.86,-4,0,-2,30,0
'[11:30:03.004 21/01/2026]',-104268.5,-172359.7,-114962.6,21550.93,-375000,-375000,-146700.3,-126362,0.02,-0.02,0.86,-4,0,-2,30,0
'[11:30:03.008 21/01/2026]',-102655.1,-169825.5,-113422.6,23003.65,-375000,-375000,-145303,-125167.5,0.02,-0.02,0.86,-4,0,-2,30,0
'[11:30:03.012 21/01/2026]',-104154.6,-171290.4,-114959.7,21240.19,-375000,-375000,-146636.6,-126705.4,0.02,-0.02,0.86,-4,0,-2,30,0
'[11:30:03.016 21/01/2026]',-105925,-173976,-116657.4,19609.32,-375000,-375000,-148189.7,-128068.6,0.02,-0.02,0.86,-4,0,-2,30,0
'[11:30:03.020 21/01/2026]',-104661.5,-172855.4,-115358.1,21142.92,-375000,-375000,-147057.7,-126718,0.02,-0.02,0.86,-4,0,-2,30,0
'[11:30:03.024 21/01/2026]',-102740.4,-170052.3,-113502.7,22963.87,-375000,-375000,-145374.9,-125187.2,0.03,0.00,0.88,-4,0,-2,30,0
'[11:30:03.028 21/01/2026]',-103754.6,-170788,-114544.9,21661.88,-375000,-375000,-146278.7,-126346.9,0.03,0.00,0.88,-4,0,-2,30,0
'[11:30:03.032 21/01/2026]',-105796.7,-173676.7,-116527.2,19710.17,-375000,-375000,-148061.5,-127990.9,0.03,0.00,0.88,-4,0,-2,30,0
'[11:30:03.036 21/01/2026]',-105033.2,-173282.8,-115708,20770.63,-375000,-375000,-147358.4,-127031.1,0.03,0.00,0.88,-4,0,-2,30,0
'[11:30:03.040 21/01/2026]',-102938.6,-170369.6,-113660.4,22836.64,-375000,-375000,-145522.4,-125292.7,0.03,0.00,0.88,-4,0,-2,30,0
'[11:30:03.044 21/01/2026]',-103415,-170324.7,-114205,22055,-375000,-375000,-145966.1,-126013.7,0.03,0.00,0.88,-4,0,-2,30,0
'[11:30:03.048 21/01/2026]',-105566.6,-173232.8,-116304.3,19922.24,-375000,-375000,-147842.6,-127812.3,0.03,0.00,0.88,-4,0,-2,30,0
'[11:30:03.052 21/01/2026]',-105379.3,-173613.3,-116039.3,20419.35,-375000,-375000,-147641.6,-127334.8,0.03,0.00,0.88,-4,0,-2,30,0
'[11:30:03.056 21/01/2026]',-103209.7,-170746.7,-113907.7,22625.96,-375000,-375000,-145724.6,-125452.2,0.03,0.00,0.88,-4,0,-2,30,0
'[11:30:03.060 21/01/2026]',-103100.1,-169958,-113881.6,22422.33,-375000,-375000,-145678.6,-125695.8,0.03,-0.02,0.89,-4,0,-2,30,0
'[11:30:03.064 21/01/2026]',-105283,-172763.6,-116037.4,20180.23,-375000,-375000,-147597.2,-127596.3,0.03,-0.02,0.89,-4,0,-2,30,0
'[11:30:03.068 21/01/2026]',-105668.4,-173888.2,-116351.6,20075.71,-375000,-375000,-147919.8,-127638.1,0.03,-0.02,0.89,-4,0,-2,30,0
'[11:30:03.072 21/01/2026]',-103522.1,-171235.7,-114223.4,22317.37,-375000,-375000,-146020.8,-125714.7,0.03,-0.02,0.89,-4,0,-2,30,0
'[11:30:03.076 21/01/2026]',-102855,-169744,-113625.4,22722.96,-375000,-375000,-145460.5,-125431.2,0.03,-0.02,0.89,-4,0,-2,30,0
'[11:30:03.080 21/01/2026]',-104920,-172236.1,-115681.3,20529.81,-375000,-375000,-147270.7,-127300.5,0.03,-0.02,0.89,-4,0,-2,30,0
'[11:30:03.084 21/01/2026]',-105846.9,-174021.6,-116553.8,19833.78,-375000,-375000,-148082.5,-127851.2,0.03,-0.02,0.89,-4,0,-2,30,0
'[11:30:03.088 21/01/2026]',-103866,-171735.4,-114567.6,21971.67,-375000,-375000,-146331.5,-126006.5,0.03,-0.02,0.89,-4,0,-2,30,0
'[11:30:03.092 21/01/2026]',-102715.1,-169664.4,-113480.3,22920.24,-375000,-375000,-145335.2,-125256.8,0.03,-0.02,0.89,-4,0,-2,30,0
'[11:30:03.096 21/01/2026]',-104578,-171731.6,-115352.7,20863.43,-375000,-375000,-146976.1,-127025.9,0.03,-0.02,0.88,-4,0,-2,30,0
'[11:30:03.100 21/01/2026]',-105964.5,-174032.4,-116660.9,19672.48,-375000,-375000,-148192.2,-128006.4,0.03,-0.02,0.88,-4,0,-2,30,0
'[11:30:03.104 21/01/2026]',-104253.7,-172244.9,-114926.3,21598.76,-375000,-375000,-146679.3,-126336,0.03,-0.02,0.88,-4,0,-2,30,0
'[11:30:03.108 21/01/2026]',-102673.9,-169740.6,-113413.5,23021.94,-375000,-375000,-145305.8,-125170.8,0.03,-0.02,0.88,-4,0,-2,30,0
'[11:30:03.112 21/01/2026]',-104184.9,-171229.8,-114964.8,21247.17,-375000,-375000,-146648.8,-126707.3,0.03,-0.02,0.88,-4,0,-2,30,0
'[11:30:03.116 21/01/2026]',-105917.1,-173880,-116639.6,19650.8,-375000,-375000,-148169.5,-128033.8,0.03,-0.02,0.88,-4,0,-2,30,0
'[11:30:03.120 21/01/2026]',-104643.3,-172737.2,-115318.4,21209.48,-375000,-375000,-147011.1,-126660.2,0.03,-0.02,0.88,-4,0,-2,30,0
'[11:30:03.124 21/01/2026]',-102740.3,-169946.4,-113475.2,23007.32,-375000,-375000,-145350.6,-125156.6,0.03,-0.02,0.88,-4,0,-2,30,0
'[11:30:03.128 21/01/2026]',-103800.8,-170726.2,-114578.5,21654.73,-375000,-375000,-146293.2,-126349.6,0.03,-0.02,0.88,-4,0,-2,30,0
'[11:30:03.132 21/01/2026]',-105808,-173620.6,-116524.2,19723.89,-375000,-375000,-148057.9,-127977.4,0.02,-0.02,0.88,-4,0,-2,30,0
'[11:30:03.136 21/01/2026]',-105021.9,-173209.6,-115691.3,20802.68,-375000,-375000,-147345.9,-127013.5,0.02,-0.02,0.88,-4,0,-2,30,0
'[11:30:03.140 21/01/2026]',-102923.8,-170293.7,-113640.3,22866.15,-375000,-375000,-145505.3,-125277.1,0.02,-0.02,0.88,-4,0,-2,30,0
'[11:30:03.144 21/01/2026]',-103441.8,-170317.2,-114232.7,22034.21,-375000,-375000,-145993,-126047.4,0.02,-0.02,0.88,-4,0,-2,30,0
'[11:30:03.148 21/01/2026]',-105579.8,-173243.9,-116320.4,19902.22,-375000,-375000,-147879.3,-127855.9,0.02,-0.02,0.88,-4,0,-2,30,0
'[11:30:03.152 21/01/2026]',-105347.8,-173573.5,-116022.4,20438.35,-375000,-375000,-147640.4,-127338,0.02,-0.02,0.88,-4,0,-2,30,0
'[11:30:03.156 21/01/2026]',-103175.6,-170718.2,-113888.6,22637.71,-375000,-375000,-145724,-125462.9,0.02,-0.02,0.88,-4,0,-2,30,0
'[11:30:03.160 21/01/2026]',-103105.7,-169970.8,-113895.1,22404.18,-375000,-375000,-145693.2,-125718.7,0.02,-0.02,0.88,-4,0,-2,30,0
'[11:30:03.164 21/01/2026]',-105284.4,-172769.5,-116043.2,20174.33,-375000,-375000,-147604,-127614.8,0.02,-0.02,0.88,-4,0,-2,30,0
'[11:30:03.168 21/01/2026]',-105646.6,-173860.4,-116327.9,20095.6,-375000,-375000,-147899.2,-127631,0.03,-0.02,0.88,-4,0,-2,30,0
'[11:30:03.172 21/01/2026]',-103507.6,-171193.7,-114206.2,22336.46,-375000,-375000,-145995.9,-125698.5,0.03,-0.02,0.88,-4,0,-2,30,0
'[11:30:03.176 21/01/2026]',-102870.8,-169740.6,-113643.1,22702.85,-375000,-375000,-145470.9,-125446.8,0.03,-0.02,0.88,-4,0,-2,30,0
'[11:30:03.180 21/01/2026]',-104944.6,-172278,-115715.7,20485.33,-375000,-375000,-147316.1,-127346,0.03,-0.02,0.88,-4,0,-2,30,0
'[11:30:03.184 21/01/2026]',-105861,-174038.5,-116551.7,19822.02,-375000,-375000,-148100.2,-127862.8,0.03,-0.02,0.88,-4,0,-2,30,0
'[11:30:03.188 21/01/2026]',-103878.2,-171726.1,-114563.9,21970.02,-375000,-375000,-146330.4,-125999.7,0.03,-0.02,0.88,-4,0,-2,30,0
'[11:30:03.192 21/01/2026]',-102715.8,-169662.4,-113482.8,22906.51,-375000,-375000,-145340.7,-125256.9,0.03,-0.02,0.88,-4,0,-2,30,0
'[11:30:03.196 21/01/2026]',-104591.1,-171763.2,-115375.2,20834.87,-375000,-375000,-146995.9,-127038.7,0.03,-0.02,0.88,-4,0,-2,30,0
'[11:30:03.200 21/01/2026]',-105970.2,-174057.9,-116671.9,19658.04,-375000,-375000,-148197.4,-128006.2,0.03,-0.02,0.88,-4,0,-2,30,0
'[11:30:03.204 21/01/2026]',-104248.9,-172231.9,-114930.2,21597.06,-375000,-375000,-146657.9,-126309.2,0.03,-0.02,0.89,-4,0,-2,30,0
'[11:30:03.208 21/01/2026]',-102672.8,-169732.8,-113424.3,23011.3,-375000,-375000,-145291.3,-125151.8,0.03,-0.02,0.89,-4,0,-2,30,0
'[11:30:03.212 21/01/2026]',-104209.6,-171261.3,-114989.6,21219.94,-375000,-375000,-146654.1,-126715.8,0.03,-0.02,0.89,-4,0,-2,30,0
'[11:30:03.216 21/01/2026]',-105956.3,-173923.6,-116680.2,19620.49,-375000,-375000,-148179.1,-128047.6,0.03,-0.02,0.89,-4,0,-2,30,0
'[11:30:03.220 21/01/2026]',-104615.6,-172711.1,-115294.3,21221.95,-375000,-375000,-146977.6,-126636.2,0.03,-0.02,0.89,-4,0,-2,30,0
'[11:30:03.224 21/01/2026]',-102728.3,-169925.6,-113478.1,23002.45,-375000,-375000,-145331.6,-125152.4,0.03,-0.02,0.89,-4,0,-2,30,0
'[11:30:03.228 21/01/2026]',-103813.1,-170765.4,-114619.6,21610.38,-375000,-375000,-146317.2,-126375.6,0.03,-0.02,0.89,-4,0,-2,30,0
'[11:30:03.232 21/01/2026]',-105815.1,-173638.5,-116542,19704.04,-375000,-375000,-148067.2,-127986.2,0.03,-0.02,0.89,-4,0,-2,30,0
'[11:30:03.236 21/01/2026]',-104990.9,-173170.9,-115664.4,20827.53,-375000,-375000,-147309.4,-126974.8,0.03,-0.02,0.89,-4,0,-2,30,0
'[11:30:03.240 21/01/2026]',-102898.8,-170261.7,-113625.1,22879.2,-375000,-375000,-145474.6,-125244,0.03,-0.02,0.88,-4,0,-2,30,0
'[11:30:03.244 21/01/2026]',-103461.6,-170346.5,-114244.1,22011.77,-375000,-375000,-145994.5,-126045.1,0.03,-0.02,0.88,-4,0,-2,30,0
'[11:30:03.248 21/01/2026]',-105601.1,-173270.5,-116341.6,19891.76,-375000,-375000,-147871,-127835.8,0.03,-0.02,0.88,-4,0,-2,30,0
'[11:30:03.252 21/01/2026]',-105328.7,-173544.6,-116008.1,20466.11,-375000,-375000,-147606,-127291.3,0.03,-0.02,0.88,-4,0,-2,30,0
'[11:30:03.256 21/01/2026]',-103159.6,-170688.6,-113859.9,22655.59,-375000,-375000,-145697.6,-125428.2,0.03,-0.02,0.88,-4,0,-2,30,0
'[11:30:03.260 21/01/2026]',-103130.7,-169984.3,-113909.2,22381.61,-375000,-375000,-145707.4,-125729.3,0.03,-0.02,0.88,-4,0,-2,30,0
'[11:30:03.264 21/01/2026]',-105303.6,-172811.4,-116060.4,20149.83,-375000,-375000,-147620.1,-127619.3,0.03,-0.02,0.88,-4,0,-2,30,0
'[11:30:03.268 21/01/2026]',-105608.5,-173834.9,-116298.2,20128.68,-375000,-375000,-147866.7,-127584.1,0.03,-0.02,0.88,-4,0,-2,30,0
'[11:30:03.272 21/01/2026]',-103470.2,-171155.1,-114186,22351.92,-375000,-375000,-145981.5,-125678.3,0.03,-0.02,0.88,-4,0,-2,30,0
'[11:30:03.276 21/01/2026]',-102875.1,-169737.2,-113646.5,22693.77,-375000,-375000,-145476,-125454.7,0.03,-0.03,0.86,-4,0,-2,30,0
'[11:30:03.280 21/01/2026]',-104971.6,-172296.2,-115731.8,20479.7,-375000,-375000,-147311.3,-127342.4,0.03,-0.03,0.86,-4,0,-2,30,0
'[11:30:03.284 21/01/2026]',-105830,-174008.4,-116518.3,19860.46,-375000,-375000,-148059.3,-127825.5,0.03,-0.03,0.86,-4,0,-2,30,0
'[11:30:03.288 21/01/2026]',-103832.7,-171674.2,-114520.4,22015.66,-375000,-375000,-146285.2,-125967.8,0.03,-0.03,0.86,-4,0,-2,30,0
'[11:30:03.292 21/01/2026]',-102697.4,-169643,-113460.6,22927.44,-375000,-375000,-145311,-125241.7,0.03,-0.03,0.86,-4,0,-2,30,0
'[11:30:03.296 21/01/2026]',-104604.1,-171785.3,-115384.4,20830.17,-375000,-375000,-146990.4,-127041.5,0.03,-0.03,0.86,-4,0,-2,30,0
'[11:30:03.300 21/01/2026]',-105962.3,-174050.4,-116661.4,19679.64,-375000,-375000,-148175.3,-127991.3,0.03,-0.03,0.86,-4,0,-2,30,0
'[11:30:03.304 21/01/2026]',-104193.1,-172175.3,-114884.6,21648.92,-375000,-375000,-146615.3,-126280.3,0.03,-0.03,0.86,-4,0,-2,30,0
'[11:30:03.308 21/01/2026]',-102642.6,-169691.1,-113391.4,23039.78,-375000,-375000,-145265,-125142.9,0.03,-0.03,0.86,-4,0,-2,30,0
'[11:30:03.312 21/01/2026]',-104219.3,-171285.3,-115004.9,21202.37,-375000,-375000,-146665,-126729.2,0.02,-0.02,0.88,-4,0,-2,30,0
'[11:30:03.316 21/01/2026]',-105934.8,-173907.8,-116666.2,19638.73,-375000,-375000,-148171.8,-128039.7,0.02,-0.02,0.88,-4,0,-2,30,0
'[11:30:03.320 21/01/2026]',-104591,-172664.5,-115270.2,21257.71,-375000,-375000,-146954,-126617.4,0.02,-0.02,0.88,-4,0,-2,30,0
'[11:30:03.324 21/01/2026]',-102726.3,-169909.2,-113457.2,23012.01,-375000,-375000,-145325,-125146.9,0.02,-0.02,0.88,-4,0,-2,30,0
'[11:30:03.328 21/01/2026]',-103846.4,-170792.8,-114630.1,21595.99,-375000,-375000,-146328.5,-126397.9,0.02,-0.02,0.88,-4,0,-2,30,0
'[11:30:03.332 21/01/2026]',-105849.5,-173667.4,-116587.2,19688.44,-375000,-375000,-148076.9,-127994.1,0.02,-0.02,0.88,-4,0,-2,30,0
'[11:30:03.336 21/01/2026]',-104963.8,-173138.9,-115645.7,20853.78,-375000,-375000,-147285,-126951.3,0.02,-0.02,0.88,-4,0,-2,30,0
'[11:30:03.340 21/01/2026]',-102891.2,-170241.5,-113611.6,22888.32,-375000,-375000,-145462.2,-125241,0.02,-0.02,0.88,-4,0,-2,30,0
'[11:30:03.344 21/01/2026]',-103464.9,-170344.2,-114252.5,21997.65,-375000,-375000,-146005.1,-126059.6,0.02,-0.02,0.88,-4,0,-2,30,0
'[11:30:03.348 21/01/2026]',-105607.6,-173263.5,-116359.6,19875.57,-375000,-375000,-147901.9,-127861.4,0.03,-0.02,0.88,-4,0,-2,30,0
'[11:30:03.352 21/01/2026]',-105297.9,-173501.5,-115981.8,20487.12,-375000,-375000,-147606.1,-127286.3,0.03,-0.02,0.88,-4,0,-2,30,0
'[11:30:03.356 21/01/2026]',-103145.9,-170669.5,-113853.6,22671.15,-375000,-375000,-145686.9,-125419.9,0.03,-0.02,0.88,-4,0,-2,30,0
'[11:30:03.360 21/01/2026]',-103176.2,-170046.6,-113952.2,22340.84,-375000,-375000,-145738.5,-125762,0.03,-0.02,0.88,-4,0,-2,30,0
'[11:30:03.364 21/01/2026]',-105338.9,-172879.8,-116080.4,20122.34,-375000,-375000,-147648.7,-127644.6,0.03,-0.02,0.88,-4,0,-2,30,0
'[11:30:03.368 21/01/2026]',-105621.2,-173870.2,-116290.5,20128.33,-375000,-375000,-147872.8,-127587.5,0.03,-0.02,0.88,-4,0,-2,30,0
'[11:30:03.372 21/01/2026]',-103489.7,-171203.9,-114171.3,22350.67,-375000,-375000,-145976.4,-125678.1,0.03,-0.02,0.88,-4,0,-2,30,0
'[11:30:03.376 21/01/2026]',-102924,-169846.9,-113683.5,22640.89,-375000,-375000,-145511.6,-125490.8,0.03,-0.02,0.88,-4,0,-2,30,0
'[11:30:03.380 21/01/2026]',-105030.6,-172435.1,-115789.8,20405.8,-375000,-375000,-147365.2,-127391.6,0.03,-0.02,0.88,-4,0,-2,30,0
'[11:30:03.384 21/01/2026]',-105860.5,-174102.3,-116525.2,19839.05,-375000,-375000,-148070.9,-127834.1,0.02,-0.02,0.88,-4,0,-2,30,0
'[11:30:03.388 21/01/2026]',-103857.1,-171732.4,-114524.3,22000.33,-375000,-375000,-146287.8,-125970.1,0.02,-0.02,0.88,-4,0,-2,30,0
'[11:30:03.392 21/01/2026]',-102778.5,-169747.4,-113526.3,22855.69,-375000,-375000,-145366.8,-125299.1,0.02,-0.02,0.88,-4,0,-2,30,0
'[11:30:03.396 21/01/2026]',-104678.4,-171920.3,-115435.8,20760.97,-375000,-375000,-147045.6,-127101,0.02,-0.02,0.88,-4,0,-2,30,0
'[11:30:03.400 21/01/2026]',-105974.9,-174127.5,-116655.4,19670.83,-375000,-375000,-148174.4,-127990.1,0.02,-0.02,0.88,-4,0,-2,30,0
'[11:30:03.404 21/01/2026]',-104214.6,-172234.2,-114899.7,21632.73,-375000,-375000,-146610.5,-126279,0.02,-0.02,0.88,-4,0,-2,30,0
'[11:30:03.408 21/01/2026]',-102692.7,-169784.4,-113426.9,22991.94,-375000,-375000,-145287.8,-125173.7,0.02,-0.02,0.88,-4,0,-2,30,0
'[11:30:03.412 21/01/2026]',-104262.9,-171378.9,-115020.4,21171.93,-375000,-375000,-146685.9,-126758.4,0.02,-0.02,0.88,-4,0,-2,30,0
'[11:30:03.416 21/01/2026]',-105968.7,-174002.3,-116664,19615,-375000,-375000,-148186.8,-128056.9,0.02,-0.02,0.88,-4,0,-2,30,0
'[11:30:03.420 21/01/2026]',-104600.9,-172730.3,-115259.5,21251.37,-375000,-375000,-146957.4,-126620.6,0.05,-0.02,0.88,-4,0,-2,30,0
'[11:30:03.424 21/01/2026]',-102746.9,-169970.7,-113466.8,22994.98,-375000,-375000,-145342.2,-125170.3,0.05,-0.02,0.88,-4,0,-2,30,0
'[11:30:03.428 21/01/2026]',-103882.1,-170894.2,-114657.9,21558.75,-375000,-375000,-146370.8,-126438.6,0.05,-0.02,0.88,-4,0,-2,30,0
'[11:30:03.432 21/01/2026]',-105859.9,-173774.3,-116590.6,19662.11,-375000,-375000,-148114.8,-128022.7,0.05,-0.02,0.88,-4,0,-2,30,0
'[11:30:03.436 21/01/2026]',-104963.2,-173178.6,-115635.3,20858.38,-375000,-375000,-147289.4,-126951.7,0.05,-0.02,0.88,-4,0,-2,30,0
'[11:30:03.440 21/01/2026]',-102881.2,-170267.7,-113603.5,22883.98,-375000,-375000,-145470.2,-125248,0.05,-0.02,0.88,-4,0,-2,30,0
'[11:30:03.444 21/01/2026]',-103523.2,-170454,-114292.1,21938.28,-375000,-375000,-146058.9,-126116.1,0.05,-0.02,0.88,-4,0,-2,30,0
'[11:30:03.448 21/01/2026]',-105671.8,-173391,-116394,19827.16,-375000,-375000,-147938.1,-127903.9,0.05,-0.02,0.88,-4,0,-2,30,0
'[11:30:03.452 21/01/2026]',-105357.4,-173613.6,-116018,20453.95,-375000,-375000,-147628.4,-127314.1,0.05,-0.02,0.88,-4,0,-2,30,0
'[11:30:03.456 21/01/2026]',-103141.3,-170708.2,-113837.5,22672.58,-375000,-375000,-145695.7,-125430.9,0.03,-0.02,0.89,-4,0,-2,30,0
'[11:30:03.460 21/01/2026]',-103187,-170096.7,-113959.4,22318.62,-375000,-375000,-145765.8,-125793.1,0.03,-0.02,0.89,-4,0,-2,30,0
'[11:30:03.464 21/01/2026]',-105377.2,-172954,-116118.8,20078.93,-375000,-375000,-147693.7,-127697.7,0.03,-0.02,0.89,-4,0,-2,30,0
'[11:30:03.468 21/01/2026]',-105611.8,-173892,-116280.3,20136.95,-375000,-375000,-147873,-127598,0.03,-0.02,0.89,-4,0,-2,30,0
'[11:30:03.472 21/01/2026]',-103442.4,-171159.8,-114130.7,22386.88,-375000,-375000,-145951.5,-125676,0.03,-0.02,0.89,-4,0,-2,30,0
'[11:30:03.476 21/01/2026]',-102928.6,-169856.1,-113703.4,22622.38,-375000,-375000,-145532.1,-125531.1,0.03,-0.02,0.89,-4,0,-2,30,0
'[11:30:03.480 21/01/2026]',-105031.3,-172451.8,-115795,20400.08,-375000,-375000,-147381.9,-127418.4,0.03,-0.02,0.89,-4,0,-2,30,0
'[11:30:03.484 21/01/2026]',-105828.5,-174075.7,-116508.8,19861.27,-375000,-375000,-148059,-127832.8,0.03,-0.02,0.89,-4,0,-2,30,0
'[11:30:03.488 21/01/2026]',-103791.4,-171674,-114469.4,22053.08,-375000,-375000,-146250,-125946.4,0.03,-0.02,0.89,-4,0,-2,30,0
'[11:30:03.492 21/01/2026]',-102741,-169724.1,-113499.8,22869.46,-375000,-375000,-145356.3,-125308.4,0.03,-0.02,0.88,-4,0,-2,30,0
'[11:30:03.496 21/01/2026]',-104665.6,-171918.3,-115424.6,20758.24,-375000,-375000,-147052.4,-127122.6,0.03,-0.02,0.88,-4,0,-2,30,0
'[11:30:03.500 21/01/2026]',-105967.3,-174099.3,-116647.9,19675.93,-375000,-375000,-148177.3,-128002.5,0.03,-0.02,0.88,-4,0,-2,30,0
'[11:30:03.504 21/01/2026]',-104171.4,-172164.7,-114850.7,21672.97,-375000,-375000,-146580.3,-126259.6,0.03,-0.02,0.88,-4,0,-2,30,0
'[11:30:03.508 21/01/2026]',-102669.6,-169770.4,-113418.7,22991.05,-375000,-375000,-145286.4,-125178.8,0.03,-0.02,0.88,-4,0,-2,30,0
'[11:30:03.512 21/01/2026]',-104272.1,-171416,-115038.2,21143.01,-375000,-375000,-146718.1,-126794.3,0.03,-0.02,0.88,-4,0,-2,30,0
'[11:30:03.516 21/01/2026]',-105955.5,-174014,-116654,19626.48,-375000,-375000,-148189.1,-128058.3,0.03,-0.02,0.88,-4,0,-2,30,0
'[11:30:03.520 21/01/2026]',-104539.9,-172685.2,-115216.5,21285.83,-375000,-375000,-146926.3,-126587.3,0.03,-0.02,0.88,-4,0,-2,30,0
'[11:30:03.524 21/01/2026]',-102714.4,-169940.4,-113452,22995.92,-375000,-375000,-145330.5,-125165.6,0.03,-0.02,0.88,-4,0,-2,30,0
'[11:30:03.528 21/01/2026]',-103935.9,-170938.2,-114706.6,21504.75,-375000,-375000,-146408.8,-126480.5,0.03,0.00,0.88,-4,0,-2,30,0
'[11:30:03.532 21/01/2026]',-105879.2,-173787,-116587.1,19656.75,-375000,-375000,-148120.8,-128035.1,0.03,0.00,0.88,-4,0,-2,30,0
'[11:30:03.536 21/01/2026]',-104936.1,-173153.1,-115600.4,20890.25,-375000,-375000,-147261.3,-126925.6,0.03,0.00,0.88,-4,0,-2,30,0
'[11:30:03.540 21/01/2026]',-102885.4,-170266.1,-113597.6,22886.67,-375000,-375000,-145467.2,-125253.4,0.03,0.00,0.88,-4,0,-2,30,0
'[11:30:03.544 21/01/2026]',-103531.3,-170482.6,-114300.9,21927.33,-375000,-375000,-146066.8,-126125.3,0.03,0.00,0.88,-4,0,-2,30,0
'[11:30:03.548 21/01/2026]',-105672.6,-173418.9,-116398.2,19820.01,-375000,-375000,-147945.2,-127904.7,0.03,0.00,0.88,-4,0,-2,30,0
'[11:30:03.552 21/01/2026]',-105281.9,-173552.8,-115942.9,20510.36,-375000,-375000,-147577.9,-127266,0.03,0.00,0.88,-4,0,-2,30,0
'[11:30:03.556 21/01/2026]',-103113.6,-170662.3,-113815.1,22685.63,-375000,-375000,-145669.2,-125413.5,0.03,0.00,0.88,-4,0,-2,30,0
'[11:30:03.560 21/01/2026]',-103205.9,-170109,-113977.6,22288.98,-375000,-375000,-145780.1,-125815.1,0.03,0.00,0.88,-4,0,-2,30,0
'[11:30:03.564 21/01/2026]',-105381.7,-172972.8,-116124.7,20074.82,-375000,-375000,-147690.8,-127692.3,0.03,-0.02,0.88,-4,0,-2,30,0
'[11:30:03.568 21/01/2026]',-105594.1,-173870.1,-116253.9,20166.59,-375000,-375000,-147845.1,-127564.7,0.03,-0.02,0.88,-4,0,-2,30,0
'[11:30:03.572 21/01/2026]',-103458.1,-171159.1,-114144.3,22384.69,-375000,-375000,-145950.8,-125665.9,0.03,-0.02,0.88,-4,0,-2,30,0
'[11:30:03.576 21/01/2026]',-102962.2,-169878,-113723.8,22600.56,-375000,-375000,-145547.7,-125541.3,0.03,-0.02,0.88,-4,0,-2,30,0
'[11:30:03.580 21/01/2026]',-105096.5,-172506,-115831.3,20367.4,-375000,-375000,-147400.1,-127428.6,0.03,-0.02,0.88,-4,0,-2,30,0
'[11:30:03.584 21/01/2026]',-105844.3,-174096,-116499.8,19869.76,-375000,-375000,-148050.9,-127811.4,0.03,-0.02,0.88,-4,0,-2,30,0
'[11:30:03.588 21/01/2026]',-103814,-171675.7,-114470.3,22048.34,-375000,-375000,-146240.3,-125926,0.03,-0.02,0.88,-4,0,-2,30,0
'[11:30:03.592 21/01/2026]',-102814.4,-169785.8,-113538.6,22821.26,-375000,-375000,-145381.9,-125321.6,0.03,-0.02,0.88,-4,0,-2,30,0
'[11:30:03.596 21/01/2026]',-104778.9,-172038.5,-115505.4,20684.79,-375000,-375000,-147100.2,-127151.4,0.03,-0.02,0.88,-4,0,-2,30,0
'[11:30:03.600 21/01/2026]',-106039.3,-174196.8,-116686.3,19649.6,-375000,-375000,-148185.1,-127991.4,0.03,0.00,0.88,-4,0,-2,30,0
'[11:30:03.604 21/01/2026]',-104246.3,-172243.1,-114859,21657.23,-375000,-375000,-146575.4,-126246.4,0.03,0.00,0.88,-4,0,-2,30,0
'[11:30:03.608 21/01/2026]',-102813.1,-169891.5,-113476,22929.13,-375000,-375000,-145307.1,-125201.8,0.03,0.00,0.88,-4,0,-2,30,0
'[11:30:03.612 21/01/2026]',-104463.8,-171595.9,-115141.3,21044.44,-375000,-375000,-146756.7,-126831.1,0.03,0.00,0.88,-4,0,-2,30,0
'[11:30:03.616 21/01/2026]',-106144.2,-174200.8,-116745.3,19539.13,-375000,-375000,-148207.4,-128077.9,0.03,0.00,0.88,-4,0,-2,30,0
'[11:30:03.620 21/01/2026]',-104728.7,-172844.4,-115278,21227.54,-375000,-375000,-146910.5,-126584,0.03,0.00,0.88,-4,0,-2,30,0
'[11:30:03.624 21/01/2026]',-102952.3,-170152.1,-113538.9,22906.25,-375000,-375000,-145328,-125174.8,0.03,0.00,0.88,-4,0,-2,30,0
'[11:30:03.628 21/01/2026]',-104222,-171236.3,-114827.9,21374.71,-375000,-375000,-146435.9,-126514.4,0.03,0.00,0.88,-4,0,-2,30,0
'[11:30:03.632 21/01/2026]',-106178.4,-174095.1,-116715.5,19526.21,-375000,-375000,-148141.9,-128058.7,0.03,0.00,0.88,-4,0,-2,30,0
'[11:30:03.636 21/01/2026]',-105229.8,-173429.8,-115699.5,20779.52,-375000,-375000,-147255.4,-126930.4,0.03,0.00,0.88,-4,0,-2,30,0
'[11:30:03.640 21/01/2026]',-103220.7,-170574.5,-113721.6,22750.63,-375000,-375000,-145464.3,-125256,0.03,0.00,0.88,-4,0,-2,30,0
'[11:30:03.644 21/01/2026]',-103947.7,-170881.9,-114494.5,21730.99,-375000,-375000,-146110.7,-126175.4,0.03,0.00,0.88,-4,0,-2,30,0
'[11:30:03.648 21/01/2026]',-106094.6,-173850.2,-116584.6,19628.77,-375000,-375000,-147985.5,-127944.8,0.03,0.00,0.88,-4,0,-2,30,0
'[11:30:03.652 21/01/2026]',-105676.2,-173933.9,-116095.6,20354.44,-375000,-375000,-147581.5,-127269.7,0.03,0.00,0.88,-4,0,-2,30,0
'[11:30:03.656 21/01/2026]',-103536.4,-171060.8,-113993.6,22511.56,-375000,-375000,-145672.2,-125420.2,0.03,0.00,0.88,-4,0,-2,30,0
'[11:30:03.660 21/01/2026]',-103661.1,-170585,-114186.4,22070.74,-375000,-375000,-145821.4,-125857.5,0.03,0.00,0.88,-4,0,-2,30,0
'[11:30:03.664 21/01/2026]',-105854.2,-173475.9,-116330.5,19849.64,-375000,-375000,-147747.5,-127756.5,0.03,0.00,0.88,-4,0,-2,30,0
