'Time and date','Fp1','Fp2','F3','Fz','F4','P3','Pz','P4','AccX','AccY','AccZ','GyroX','GyroY','GyroZ','Battery','Event'
'[hh:mm:ss.mmm dd/mm/yyyy]','uV','uV','uV','uV','uV','uV','uV','uV','G','G','G','Deg/s','Deg/s','Deg/s','%','Button'
'[11:53:00.000 21/01/2026]',-129381.7,-179881.3,-137763.8,-15177.24,-375000,-375000,-150646.1,-153902.8,0.03,0.00,0.88,-4,0,-2,40,0
'[11:53:00.004 21/01/2026]',-129398.3,-179912.6,-137810.6,-15220.29,-375000,-375000,-150682.8,-153783.3,0.03,0.00,0.88,-4,0,-2,40,0
'[11:53:00.008 21/01/2026]',-129404.9,-179910.6,-137781.9,-15188.64,-375000,-375000,-150666.9,-154114.5,0.03,0.00,0.88,-4,0,-2,40,0
'[11:53:00.012 21/01/2026]',-129417.2,-179886.4,-137709.9,-15139.28,-375000,-375000,-150623.5,-154234.3,0.03,0.00,0.88,-4,0,-2,40,0
'[11:53:00.016 21/01/2026]',-129440.4,-179904.2,-137733.3,-15174.42,-375000,-375000,-150644.5,-153948.6,0.03,0.00,0.88,-4,0,-2,40,0
'[11:53:00.020 21/01/2026]',-129419.7,-179932.7,-137801.9,-15224.71,-375000,-375000,-150683.1,-153749,0.03,0.00,0.88,-4,0,-2,40,0
'[11:53:00.024 21/01/2026]',-129400.7,-179913.5,-137791.9,-15205.18,-375000,-375000,-150667.6,-154023.5,0.03,0.00,0.88,-4,0,-2,40,0
'[11:53:00.028 21/01/2026]',-129426.4,-179892.8,-137731.2,-15158.95,-375000,-375000,-150627.5,-154215.1,0.03,0.00,0.88,-4,0,-2,40,0
'[11:53:00.032 21/01/2026]',-129437.3,-179907,-137735.8,-15165.97,-375000,-375000,-150626.8,-153956.9,0.03,0.00,0.88,-4,0,-2,40,0
'[11:53:00.036 21/01/2026]',-129381.7,-179881.3,-137763.8,-15177.24,-375000,-375000,-150646.1,-153902.8,0.03,0.00,0.88,-4,0,-2,40,0
'[11:53:00.040 21/01/2026]',-129398.3,-179912.6,-137810.6,-15220.29,-375000,-375000,-150682.8,-153783.3,0.03,0.00,0.88,-4,0,-2,40,0
'[11:53:00.044 21/01/2026]',-129404.9,-179910.6,-137781.9,-15188.64,-375000,-375000,-150666.9,-154114.5,0.03,0.00,0.88,-4,0,-2,40,0
'[11:53:00.048 21/01/2026]',-129417.2,-179886.4,-137709.9,-15139.28,-375000,-375000,-150623.5,-154234.3,0.03,0.00,0.88,-4,0,-2,40,0
'[11:53:00.052 21/01/2026]',-129440.4,-179904.2,-137733.3,-15174.42,-375000,-375000,-150644.5,-153948.6,0.03,0.00,0.88,-4,0,-2,40,0
'[11:53:00.056 21/01/2026]',-129419.7,-179932.7,-137801.9,-15224.71,-375000,-375000,-150683.1,-153749,0.03,0.00,0.88,-4,0,-2,40,0
'[11:53:00.060 21/01/2026]',-129400.7,-179913.5,-137791.9,-15205.18,-375000,-375000,-150667.6,-154023.5,0.03,0.00,0.88,-4,0,-2,40,0
'[11:53:00.064 21/01/2026]',-129426.4,-179892.8,-137731.2,-15158.95,-375000,-375000,-150627.5,-154215.1,0.03,0.00,0.88,-4,0,-2,40,0
'[11:53:00.068 21/01/2026]',-129437.3,-179907,-137735.8,-15165.97,-375000,-375000,-150626.8,-153956.9,0.03,0.00,0.88,-4,0,-2,40,0
'[11:53:00.072 21/01/2026]',-129437.6,-179934.3,-137787.3,-15217.25,-375000,-375000,-150667.2,-153692.8,0.03,0.00,0.88,-4,0,-2,40,0
'[11:53:00.076 21/01/2026]',-129424.8,-179926,-137781.6,-15206.96,-375000,-375000,-150665.9,-153903.6,0.03,0.00,0.88,-4,0,-2,40,0
'[11:53:00.080 21/01/2026]',-129415.8,-179894.4,-137728,-15153.63,-375000,-375000,-150625.9,-154182.5,0.03,0.00,0.88,-4,0,-2,40,0
'[11:53:00.084 21/01/2026]',-129413.6,-179894.5,-137736.8,-15164.41,-375000,-375000,-150626.6,-153994.8,0.03,0.00,0.88,-4,0,-2,40,0
'[11:53:00.088 21/01/2026]',-129430.9,-179917.7,-137794.3,-15220.15,-375000,-375000,-150666.6,-153692,0.03,0.00,0.88,-4,0,-2,40,0
'[11:53:00.092 21/01/2026]',-129414.5,-179921.8,-137819,-15229.72,-375000,-375000,-150680.4,-153842.7,0.03,0.00,0.88,-4,0,-2,40,0
'[11:53:00.096 21/01/2026]',-129368,-179888.2,-137782,-15176.79,-375000,-375000,-150643.2,-154182.6,0.03,0.00,0.88,-4,0,-2,40,0
'[11:53:00.100 21/01/2026]',-129417.8,-179872.2,-137740.4,-15153.63,-375000,-375000,-150617,-154057,0.03,0.00,0.88,-4,0,-2,40,0
'[11:53:00.104 21/01/2026]',-129455.2,-179904,-137784.9,-15213.54,-375000,-375000,-150660.4,-153750.5,0.03,0.00,0.88,-4,0,-2,40,0
'[11:53:00.108 21/01/2026]',-129429.2,-179926.7,-137772.4,-15215.68,-375000,-375000,-150672.5,-153798.8,0.02,0.00,0.88,-4,0,-2,40,0
'[11:53:00.112 21/01/2026]',-129385.4,-179888.7,-137721.8,-15154.53,-375000,-375000,-150633.5,-154143,0.02,0.00,0.88,-4,0,-2,40,0
'[11:53:00.116 21/01/2026]',-129375.1,-179869.2,-137725.5,-15147.37,-375000,-375000,-150625.8,-154136.4,0.02,0.00,0.88,-4,0,-2,40,0
'[11:53:00.120 21/01/2026]',-129408.3,-179908.7,-137808,-15213.4,-375000,-375000,-150675.1,-153834,0.02,0.00,0.88,-4,0,-2,40,0
'[11:53:00.124 21/01/2026]',-129447.4,-179928.3,-137787.2,-15219.03,-375000,-375000,-150678.6,-153794.8,0.02,0.00,0.88,-4,0,-2,40,0
'[11:53:00.128 21/01/2026]',-129414.3,-179895.8,-137730.7,-15168.34,-375000,-375000,-150643.4,-154146.7,0.02,0.00,0.88,-4,0,-2,40,0
'[11:53:00.132 21/01/2026]',-129405.6,-179869,-137716.2,-15145.72,-375000,-375000,-150629.7,-154202.6,0.02,0.00,0.88,-4,0,-2,40,0
'[11:53:00.136 21/01/2026]',-129421.5,-179912,-137737,-15175.49,-375000,-375000,-150655.6,-153889,0.02,0.00,0.88,-4,0,-2,40,0
'[11:53:00.140 21/01/2026]',-129437.2,-179930.7,-137766.7,-15199.99,-375000,-375000,-150680.6,-153764.6,0.02,0.00,0.88,-4,0,-2,40,0
'[11:53:00.144 21/01/2026]',-129395.8,-179899,-137746.5,-15165.66,-375000,-375000,-150656.6,-154090.8,0.02,0.00,0.88,-4,0,-2,40,0
'[11:53:00.148 21/01/2026]',-129342.4,-179841.3,-137709.3,-15119.26,-375000,-375000,-150605.7,-154203.7,0.02,0.00,0.88,-4,0,-2,40,0
'[11:53:00.152 21/01/2026]',-129390.4,-179866,-137748,-15164.32,-375000,-375000,-150635.2,-153923.1,0.02,0.00,0.88,-4,0,-2,40,0
'[11:53:00.156 21/01/2026]',-129414.7,-179907.1,-137791.3,-15216.53,-375000,-375000,-150681,-153734.1,0.02,0.00,0.88,-4,0,-2,40,0
'[11:53:00.160 21/01/2026]',-129416.1,-179914.9,-137759,-15193.87,-375000,-375000,-150672,-154023.6,0.02,0.00,0.88,-4,0,-2,40,0
'[11:53:00.164 21/01/2026]',-129391.6,-179880.6,-137716.3,-15144.2,-375000,-375000,-150628.3,-154216.9,0.02,0.00,0.88,-4,0,-2,40,0
'[11:53:00.168 21/01/2026]',-129377.1,-179879.5,-137745.8,-15165.12,-375000,-375000,-150633.7,-153972.8,0.02,0.00,0.88,-4,0,-2,40,0
'[11:53:00.172 21/01/2026]',-129380.3,-179898.7,-137816.2,-15230.57,-375000,-375000,-150676.5,-153710.5,0.02,0.00,0.88,-4,0,-2,40,0
'[11:53:00.176 21/01/2026]',-129414.9,-179908.2,-137798,-15222.39,-375000,-375000,-150675.3,-153923.2,0.02,0.00,0.88,-4,0,-2,40,0
'[11:53:00.180 21/01/2026]',-129405,-179882.7,-137708,-15148.4,-375000,-375000,-150627.1,-154185,0.05,0.00,0.88,-4,0,-2,40,0
'[11:53:00.184 21/01/2026]',-129415.3,-179874.2,-137705,-15145.72,-375000,-375000,-150624.9,-154016.7,0.05,0.00,0.88,-4,0,-2,40,0
'[11:53:00.188 21/01/2026]',-129430.4,-179910.9,-137774.6,-15211.88,-375000,-375000,-150677.6,-153724.8,0.05,0.00,0.88,-4,0,-2,40,0
'[11:53:00.192 21/01/2026]',-129452.5,-179925.1,-137797.7,-15225.78,-375000,-375000,-150697.5,-153885,0.05,0.00,0.88,-4,0,-2,40,0
'[11:53:00.196 21/01/2026]',-129403.1,-179882.9,-137746.2,-15157.92,-375000,-375000,-150643.7,-154192.6,0.05,0.00,0.88,-4,0,-2,40,0
'[11:53:00.200 21/01/2026]',-129370.7,-179861.6,-137732.7,-15137.9,-375000,-375000,-150617.5,-154054.5,0.05,0.00,0.88,-4,0,-2,40,0
'[11:53:00.204 21/01/2026]',-129426.6,-179914.9,-137791.9,-15211.39,-375000,-375000,-150676.9,-153752.7,0.05,0.00,0.88,-4,0,-2,40,0
'[11:53:00.208 21/01/2026]',-129408.9,-179904.6,-137790.5,-15215.1,-375000,-375000,-150680,-153812.5,0.05,0.00,0.88,-4,0,-2,40,0
'[11:53:00.212 21/01/2026]',-129388.5,-179880.8,-137732.7,-15162.57,-375000,-375000,-150638.5,-154161,0.05,0.00,0.88,-4,0,-2,40,0
'[11:53:00.216 21/01/2026]',-129386.3,-179856.1,-137701,-15139.55,-375000,-375000,-150617,-154142.9,0.03,0.00,0.88,-4,0,-2,40,0
'[11:53:00.220 21/01/2026]',-129429.3,-179877.8,-137758.8,-15195.7,-375000,-375000,-150663.2,-153848.6,0.03,0.00,0.88,-4,0,-2,40,0
'[11:53:00.224 21/01/2026]',-129462.8,-179945,-137801.5,-15229.85,-375000,-375000,-150686.7,-153828.9,0.03,0.00,0.88,-4,0,-2,40,0
'[11:53:00.228 21/01/2026]',-129435.5,-179933.1,-137752.7,-15177.82,-375000,-375000,-150645.8,-154161.9,0.03,0.00,0.88,-4,0,-2,40,0
'[11:53:00.232 21/01/2026]',-129412.4,-179899,-137728.7,-15148.98,-375000,-375000,-150618.6,-154225.6,0.03,0.00,0.88,-4,0,-2,40,0
'[11:53:00.236 21/01/2026]',-129430.8,-179926.1,-137783.9,-15204.55,-375000,-375000,-150658.1,-153919.9,0.03,0.00,0.88,-4,0,-2,40,0
'[11:53:00.240 21/01/2026]',-129426.7,-179947.6,-137817.6,-15236.47,-375000,-375000,-150679.2,-153785.9,0.03,0.00,0.88,-4,0,-2,40,0
'[11:53:00.244 21/01/2026]',-129413.8,-179931,-137789.4,-15208.44,-375000,-375000,-150663.7,-154113.9,0.03,0.00,0.88,-4,0,-2,40,0
'[11:53:00.248 21/01/2026]',-129410.8,-179883.2,-137737.8,-15161.59,-375000,-375000,-150623.6,-154230.2,0.03,0.00,0.88,-4,0,-2,40,0
'[11:53:00.252 21/01/2026]',-129421.6,-179909.4,-137782.5,-15187.65,-375000,-375000,-150641.6,-153937.7,0.03,-0.02,0.88,-4,0,-2,40,0
'[11:53:00.256 21/01/2026]',-129451.8,-179957.3,-137826.6,-15242.95,-375000,-375000,-150692.1,-153744.5,0.03,-0.02,0.88,-4,0,-2,40,0
'[11:53:00.260 21/01/2026]',-129475.1,-179934.4,-137776.9,-15217.74,-375000,-375000,-150680.2,-154022.2,0.03,-0.02,0.88,-4,0,-2,40,0
'[11:53:00.264 21/01/2026]',-129438.1,-179907.8,-137742.1,-15167.4,-375000,-375000,-150634.8,-154216.8,0.03,-0.02,0.88,-4,0,-2,40,0
'[11:53:00.268 21/01/2026]',-129425.4,-179915.7,-137755.4,-15186.98,-375000,-375000,-150641.4,-153984.3,0.03,-0.02,0.88,-4,0,-2,40,0
'[11:53:00.272 21/01/2026]',-129420.7,-179953,-137815.4,-15239.73,-375000,-375000,-150687.7,-153740.6,0.03,-0.02,0.88,-4,0,-2,40,0
'[11:53:00.276 21/01/2026]',-129436.9,-179949.7,-137809.5,-15224.26,-375000,-375000,-150688.7,-153973.9,0.03,-0.02,0.88,-4,0,-2,40,0
'[11:53:00.280 21/01/2026]',-129421.4,-179885.8,-137730.9,-15156.05,-375000,-375000,-150630.8,-154219.3,0.03,-0.02,0.88,-4,0,-2,40,0
'[11:53:00.284 21/01/2026]',-129431.3,-179866.5,-137722.5,-15158.24,-375000,-375000,-150622.6,-154021.7,0.03,-0.02,0.88,-4,0,-2,40,0
'[11:53:00.288 21/01/2026]',-129454.5,-179923.4,-137767,-15204.37,-375000,-375000,-150663.1,-153704.2,0.02,0.00,0.88,-4,0,-2,40,0
'[11:53:00.292 21/01/2026]',-129463.8,-179951.3,-137796.5,-15222.39,-375000,-375000,-150696.1,-153869.1,0.02,0.00,0.88,-4,0,-2,40,0
'[11:53:00.296 21/01/2026]',-129409.2,-179914.6,-137759.5,-15174.11,-375000,-375000,-150664.3,-154215.1,0.02,0.00,0.88,-4,0,-2,40,0
'[11:53:00.300 21/01/2026]',-129423.6,-179904.1,-137757,-15180.32,-375000,-375000,-150658.8,-154097,0.02,0.00,0.88,-4,0,-2,40,0
'[11:53:00.304 21/01/2026]',-129442.4,-179922.5,-137784,-15217.16,-375000,-375000,-150677.4,-153769,0.02,0.00,0.88,-4,0,-2,40,0
'[11:53:00.308 21/01/2026]',-129423.2,-179919.6,-137788.8,-15210.41,-375000,-375000,-150674,-153814.6,0.02,0.00,0.88,-4,0,-2,40,0
'[11:53:00.312 21/01/2026]',-129412.7,-179890.5,-137741.1,-15160.07,-375000,-375000,-150644.2,-154184.1,0.02,0.00,0.88,-4,0,-2,40,0
'[11:53:00.316 21/01/2026]',-129389.1,-179870.9,-137706.2,-15134.9,-375000,-375000,-150620.7,-154150.3,0.02,0.00,0.88,-4,0,-2,40,0
'[11:53:00.320 21/01/2026]',-129430.9,-179913.1,-137758.3,-15194.4,-375000,-375000,-150671.2,-153844.4,0.02,0.00,0.88,-4,0,-2,40,0
'[11:53:00.324 21/01/2026]',-129462,-179945.7,-137793.7,-15227.8,-375000,-375000,-150703.3,-153805.6,0.02,0.00,0.88,-4,0,-2,40,0
'[11:53:00.328 21/01/2026]',-129436.3,-179925.9,-137773.6,-15192.44,-375000,-375000,-150677.3,-154175.4,0.02,0.00,0.88,-4,0,-2,40,0
'[11:53:00.332 21/01/2026]',-129402.1,-179873.1,-137723,-15143.04,-375000,-375000,-150623.4,-154205.9,0.02,0.00,0.88,-4,0,-2,40,0
'[11:53:00.336 21/01/2026]',-129416,-179891.1,-137758.5,-15178.22,-375000,-375000,-150647.1,-153882.3,0.02,0.00,0.88,-4,0,-2,40,0
'[11:53:00.340 21/01/2026]',-129426.3,-179923.2,-137801.6,-15219.79,-375000,-375000,-150685.5,-153775.8,0.02,0.00,0.88,-4,0,-2,40,0
'[11:53:00.344 21/01/2026]',-129415.8,-179895.3,-137758.8,-15177.46,-375000,-375000,-150653.7,-154100.8,0.02,0.00,0.88,-4,0,-2,40,0
'[11:53:00.348 21/01/2026]',-129405.9,-179862.6,-137719.5,-15139.82,-375000,-375000,-150616.1,-154215.9,0.02,0.00,0.88,-4,0,-2,40,0
'[11:53:00.352 21/01/2026]',-129416.3,-179883.6,-137746.1,-15176.88,-375000,-375000,-150636,-153949.3,0.02,0.00,0.88,-4,0,-2,40,0
'[11:53:00.356 21/01/2026]',-129437.7,-179909.8,-137791,-15222.12,-375000,-375000,-150673.5,-153773.2,0.02,0.00,0.88,-4,0,-2,40,0
'[11:53:00.360 21/01/2026]',-129409.4,-179906.8,-137789.4,-15198.25,-375000,-375000,-150661.5,-154042.1,0.03,0.00,0.88,-4,0,-2,40,0
'[11:53:00.364 21/01/2026]',-129417,-179886,-137756.3,-15155.33,-375000,-375000,-150622.7,-154246.3,0.03,0.00,0.88,-4,0,-2,40,0
'[11:53:00.368 21/01/2026]',-129412.7,-179870.7,-137744.8,-15169.1,-375000,-375000,-150623.4,-153999.8,0.03,0.00,0.88,-4,0,-2,40,0
'[11:53:00.372 21/01/2026]',-129442.4,-179915.8,-137779.9,-15216.49,-375000,-375000,-150663.3,-153744.7,0.03,0.00,0.88,-4,0,-2,40,0
'[11:53:00.376 21/01/2026]',-129456,-179923.8,-137765.2,-15200.97,-375000,-375000,-150660.3,-153960.8,0.03,0.00,0.88,-4,0,-2,40,0
'[11:53:00.380 21/01/2026]',-129412.7,-179884.5,-137715.5,-15139.73,-375000,-375000,-150613.3,-154214.5,0.03,0.00,0.88,-4,0,-2,40,0
'[11:53:00.384 21/01/2026]',-129391.2,-179885.8,-137733.3,-15153.19,-375000,-375000,-150620.2,-154030.3,0.03,0.00,0.88,-4,0,-2,40,0
'[11:53:00.388 21/01/2026]',-129444.8,-179925.6,-137779.5,-15215.37,-375000,-375000,-150676.3,-153758.9,0.03,0.00,0.88,-4,0,-2,40,0
'[11:53:00.392 21/01/2026]',-129445.6,-179919.7,-137773.8,-15204.73,-375000,-375000,-150678.5,-153921,0.03,0.00,0.88,-4,0,-2,40,0
'[11:53:00.396 21/01/2026]',-129417.9,-179903.6,-137747.1,-15161.54,-375000,-375000,-150640.8,-154253.2,0.03,0.00,0.86,-4,0,-2,40,0
'[11:53:00.400 21/01/2026]',-129411,-179884.9,-137733.3,-15146.93,-375000,-375000,-150617.5,-154143.6,0.03,0.00,0.86,-4,0,-2,40,0
'[11:53:00.404 21/01/2026]',-129426.6,-179911.3,-137781.3,-15196.95,-375000,-375000,-150657.1,-153827.2,0.03,0.00,0.86,-4,0,-2,40,0
'[11:53:00.408 21/01/2026]',-129430.2,-179923.8,-137783.3,-15211.12,-375000,-375000,-150677.3,-153894.6,0.03,0.00,0.86,-4,0,-2,40,0
'[11:53:00.412 21/01/2026]',-129400.7,-179884.9,-137739.1,-15168.7,-375000,-375000,-150648.2,-154227.5,0.03,0.00,0.86,-4,0,-2,40,0
'[11:53:00.416 21/01/2026]',-129407.6,-179864.5,-137726,-15154.04,-375000,-375000,-150632.6,-154187.5,0.03,0.00,0.86,-4,0,-2,40,0
'[11:53:00.420 21/01/2026]',-129430,-179887.6,-137766.6,-15196.37,-375000,-375000,-150658.9,-153868.3,0.03,0.00,0.86,-4,0,-2,40,0
'[11:53:00.424 21/01/2026]',-129445.4,-179916.4,-137801.6,-15229.45,-375000,-375000,-150684.2,-153827.8,0.03,0.00,0.86,-4,0,-2,40,0
'[11:53:00.428 21/01/2026]',-129422.5,-179879.7,-137744,-15174.64,-375000,-375000,-150643.3,-154157.7,0.03,0.00,0.86,-4,0,-2,40,0
'[11:53:00.432 21/01/2026]',-129385.5,-179849.1,-137710.5,-15137.58,-375000,-375000,-150605.4,-154189.6,0.03,-0.02,0.88,-4,0,0,40,0
'[11:53:00.436 21/01/2026]',-129385.6,-179885.4,-137765.2,-15183.27,-375000,-375000,-150638.3,-153885.8,0.03,-0.02,0.88,-4,0,0,40,0
'[11:53:00.440 21/01/2026]',-129423,-179914.9,-137796,-15216.08,-375000,-375000,-150671,-153777.1,0.03,-0.02,0.88,-4,0,0,40,0
'[11:53:00.444 21/01/2026]',-129424.8,-179903.1,-137755.7,-15187.56,-375000,-375000,-150659.6,-154122.7,0.03,-0.02,0.88,-4,0,0,40,0
'[11:53:00.448 21/01/2026]',-129391.8,-179861.1,-137715.6,-15148.4,-375000,-375000,-150626.8,-154262.6,0.03,-0.02,0.88,-4,0,0,40,0
'[11:53:00.452 21/01/2026]',-129432.6,-179895.6,-137767.8,-15187.34,-375000,-375000,-150652,-153983,0.03,-0.02,0.88,-4,0,0,40,0
'[11:53:00.456 21/01/2026]',-129472.1,-179932.7,-137788.8,-15226.28,-375000,-375000,-150685.4,-153796.4,0.03,-0.02,0.88,-4,0,0,40,0
'[11:53:00.460 21/01/2026]',-129432.1,-179911.5,-137755.2,-15193.87,-375000,-375000,-150664.3,-154068.5,0.03,-0.02,0.88,-4,0,0,40,0
'[11:53:00.464 21/01/2026]',-129403.7,-179866.3,-137707.4,-15142.37,-375000,-375000,-150614.5,-154269.5,0.03,-0.02,0.88,-4,0,0,40,0
'[11:53:00.468 21/01/2026]',-129401.8,-179867,-137727.1,-15162.84,-375000,-375000,-150622.9,-154022,0.03,-0.02,0.88,-4,0,-2,40,0
'[11:53:00.472 21/01/2026]',-129412.3,-179905.9,-137790.9,-15219.57,-375000,-375000,-150671,-153780.5,0.03,-0.02,0.88,-4,0,-2,40,0
'[11:53:00.476 21/01/2026]',-129417,-179908.2,-137797.6,-15214.47,-375000,-375000,-150675.3,-154021.8,0.03,-0.02,0.88,-4,0,-2,40,0
'[11:53:00.480 21/01/2026]',-129404.5,-179857,-137736.7,-15162.57,-375000,-375000,-150633.3,-154291.6,0.03,-0.02,0.88,-4,0,-2,40,0
'[11:53:00.484 21/01/2026]',-129403.7,-179860.9,-137733.9,-15160.34,-375000,-375000,-150628.2,-154098.6,0.03,-0.02,0.88,-4,0,-2,40,0
'[11:53:00.488 21/01/2026]',-129450.1,-179928,-137778.8,-15211.21,-375000,-375000,-150674,-153796.8,0.03,-0.02,0.88,-4,0,-2,40,0
'[11:53:00.492 21/01/2026]',-129444.4,-179917.1,-137744.2,-15191.72,-375000,-375000,-150666.4,-153933.6,0.03,-0.02,0.88,-4,0,-2,40,0
'[11:53:00.496 21/01/2026]',-129418.3,-179874.4,-137690.5,-15134.81,-375000,-375000,-150617.5,-154238.7,0.03,-0.02,0.88,-4,0,-2,40,0
'[11:53:00.500 21/01/2026]',-129389.8,-179860.5,-137693.1,-15132.49,-375000,-375000,-150604.5,-154103.6,0.03,-0.02,0.88,-4,0,-2,40,0
'[11:53:00.504 21/01/2026]',-129394.9,-179889.2,-137752.1,-15189.93,-375000,-375000,-150644.6,-153769.2,0.02,0.00,0.88,-4,0,-2,40,0
'[11:53:00.508 21/01/2026]',-129430.6,-179922.2,-137792,-15219.88,-375000,-375000,-150679.3,-153873,0.02,0.00,0.88,-4,0,-2,40,0
'[11:53:00.512 21/01/2026]',-129409.4,-179885.6,-137753.4,-15168.61,-375000,-375000,-150638.4,-154216.6,0.02,0.00,0.88,-4,0,-2,40,0
'[11:53:00.516 21/01/2026]',-129376.5,-179863.7,-137741.5,-15155.96,-375000,-375000,-150622.5,-154188,0.02,0.00,0.88,-4,0,-2,40,0
'[11:53:00.520 21/01/2026]',-129403.2,-179909.3,-137783.5,-15209.33,-375000,-375000,-150661.8,-153853.2,0.02,0.00,0.88,-4,0,-2,40,0
'[11:53:00.524 21/01/2026]',-129459.5,-179923,-137786.3,-15224.98,-375000,-375000,-150679.4,-153809.4,0.02,0.00,0.88,-4,0,-2,40,0
'[11:53:00.528 21/01/2026]',-129446.9,-179883.4,-137717.5,-15160.7,-375000,-375000,-150636.6,-154150.5,0.02,0.00,0.88,-4,0,-2,40,0
'[11:53:00.532 21/01/2026]',-129397,-179849,-137677.1,-15115.41,-375000,-375000,-150593.2,-154193.8,0.02,0.00,0.88,-4,0,-2,40,0
'[11:53:00.536 21/01/2026]',-129391.8,-179884.5,-137735.1,-15166.82,-375000,-375000,-150631.4,-153875.8,0.02,0.00,0.88,-4,0,-2,40,0
'[11:53:00.540 21/01/2026]',-129416.7,-179921.7,-137789.2,-15214.07,-375000,-375000,-150678.8,-153770.4,0.02,0.00,0.88,-4,0,-2,40,0
'[11:53:00.544 21/01/2026]',-129398.8,-179894.8,-137757.2,-15179.96,-375000,-375000,-150660.7,-154094,0.02,0.00,0.88,-4,0,-2,40,0
'[11:53:00.548 21/01/2026]',-129370.4,-179852.9,-137715.6,-15141.79,-375000,-375000,-150622.7,-154223.8,0.02,0.00,0.88,-4,0,-2,40,0
'[11:53:00.552 21/01/2026]',-129423.6,-179879.5,-137738,-15176.57,-375000,-375000,-150647.7,-153945.3,0.02,0.00,0.88,-4,0,-2,40,0
'[11:53:00.556 21/01/2026]',-129455.9,-179922.6,-137782.9,-15215.28,-375000,-375000,-150680.6,-153766.5,0.02,0.00,0.88,-4,0,-2,40,0
'[11:53:00.560 21/01/2026]',-129415.6,-179902.3,-137759.7,-15181.57,-375000,-375000,-150654.5,-154042.2,0.02,0.00,0.88,-4,0,-2,40,0
'[11:53:00.564 21/01/2026]',-129380.9,-179873.1,-137706.1,-15137.27,-375000,-375000,-150611.1,-154250.5,0.02,0.00,0.88,-4,0,-2,40,0
'[11:53:00.568 21/01/2026]',-129399.1,-179874.9,-137731.4,-15164.14,-375000,-375000,-150624.3,-154013.7,0.02,0.00,0.88,-4,0,-2,40,0
'[11:53:00.572 21/01/2026]',-129433,-179914.2,-137786.1,-15219.7,-375000,-375000,-150670.5,-153762.4,0.02,0.00,0.88,-4,0,-2,40,0
'[11:53:00.576 21/01/2026]',-129432.8,-179910.2,-137761.8,-15196.59,-375000,-375000,-150658.5,-153983,0.03,0.00,0.88,-4,0,-2,40,0
'[11:53:00.580 21/01/2026]',-129397.6,-179880.8,-137728.8,-15149.88,-375000,-375000,-150622.7,-154269,0.03,0.00,0.88,-4,0,-2,40,0
'[11:53:00.584 21/01/2026]',-129384.5,-179891.7,-137766.8,-15172.36,-375000,-375000,-150639.1,-154115.6,0.03,0.00,0.88,-4,0,-2,40,0
'[11:53:00.588 21/01/2026]',-129426.6,-179923,-137805.5,-15226.77,-375000,-375000,-150681.7,-153828.6,0.03,0.00,0.88,-4,0,-2,40,0
'[11:53:00.592 21/01/2026]',-129455.6,-179917,-137782.4,-15223.24,-375000,-375000,-150684,-153970.1,0.03,0.00,0.88,-4,0,-2,40,0
'[11:53:00.596 21/01/2026]',-129410.3,-179876.1,-137732,-15163.29,-375000,-375000,-150633.9,-154258.5,0.03,0.00,0.88,-4,0,-2,40,0
'[11:53:00.600 21/01/2026]',-129391,-179852.7,-137712.2,-15142.01,-375000,-375000,-150607.8,-154118.7,0.03,0.00,0.88,-4,0,-2,40,0
'[11:53:00.604 21/01/2026]',-129408.4,-179892.3,-137752,-15189.08,-375000,-375000,-150646,-153795.8,0.03,0.00,0.88,-4,0,-2,40,0
'[11:53:00.608 21/01/2026]',-129419.9,-179905.8,-137781.3,-15207.95,-375000,-375000,-150671.7,-153872,0.03,0.00,0.88,-4,0,-2,40,0
'[11:53:00.612 21/01/2026]',-129403.4,-179874.6,-137745.2,-15172.72,-375000,-375000,-150645.2,-154220.7,0.03,0.00,0.88,-4,0,-2,40,0
'[11:53:00.616 21/01/2026]',-129401.8,-179865.2,-137732.9,-15159.8,-375000,-375000,-150626.3,-154174.7,0.03,0.00,0.88,-4,0,-2,40,0
'[11:53:00.620 21/01/2026]',-129435.8,-179916.5,-137766,-15198.56,-375000,-375000,-150653.8,-153838.1,0.03,0.00,0.88,-4,0,-2,40,0
'[11:53:00.624 21/01/2026]',-129462,-179940.6,-137781.6,-15216.58,-375000,-375000,-150679.5,-153814.3,0.03,0.00,0.88,-4,0,-2,40,0
'[11:53:00.628 21/01/2026]',-129435.7,-179911.3,-137752.8,-15177.68,-375000,-375000,-150657.7,-154166.3,0.03,0.00,0.88,-4,0,-2,40,0
'[11:53:00.632 21/01/2026]',-129379.6,-179869.2,-137721.3,-15135.89,-375000,-375000,-150616.9,-154203,0.03,0.00,0.88,-4,0,-2,40,0
'[11:53:00.636 21/01/2026]',-129388.7,-179888.9,-137754.4,-15177.86,-375000,-375000,-150643.6,-153879.6,0.03,0.00,0.88,-4,0,-2,40,0
'[11:53:00.640 21/01/2026]',-129409.6,-179893.9,-137773,-15203.52,-375000,-375000,-150661.9,-153752.1,0.03,0.00,0.88,-4,0,-2,40,0
'[11:53:00.644 21/01/2026]',-129402.5,-179872.1,-137735.3,-15164.14,-375000,-375000,-150635.2,-154084.3,0.03,0.00,0.88,-4,0,-2,40,0
'[11:53:00.648 21/01/2026]',-129391.4,-179853.2,-137707.9,-15134.54,-375000,-375000,-150607.9,-154208.6,0.03,0.00,0.88,-4,0,-2,40,0
'[11:53:00.652 21/01/2026]',-129410.9,-179880.7,-137743.5,-15171.78,-375000,-375000,-150627.5,-153915.7,0.03,0.00,0.88,-4,0,-2,40,0
'[11:53:00.656 21/01/2026]',-129447.7,-179920.2,-137785.8,-15217.33,-375000,-375000,-150668.8,-153759,0.03,0.00,0.88,-4,0,-2,40,0
'[11:53:00.660 21/01/2026]',-129442.2,-179907.8,-137763.1,-15193.37,-375000,-375000,-150664.9,-154054.2,0.03,0.00,0.88,-4,0,-2,40,0
'[11:53:00.664 21/01/2026]',-129403.4,-179872.3,-137719.8,-15146.3,-375000,-375000,-150627,-154258.7,0.03,0.00,0.88,-4,0,-2,40,0
'[11:53:00.668 21/01/2026]',-129382.9,-179874.4,-137737.3,-15160.74,-375000,-375000,-150625.5,-154008.3,0.03,0.00,0.88,-4,0,-2,40,0
'[11:53:00.672 21/01/2026]',-129398.3,-179902.5,-137779.3,-15211.12,-375000,-375000,-150662.5,-153763.5,0.03,0.00,0.88,-4,0,-2,40,0
'[11:53:00.676 21/01/2026]',-129420.8,-179902.6,-137772.8,-15200.62,-375000,-375000,-150665.2,-154002.9,0.03,0.00,0.88,-4,0,-2,40,0
'[11:53:00.680 21/01/2026]',-129406.9,-179850.3,-137725.5,-15141.56,-375000,-375000,-150617.3,-154263.2,0.03,0.00,0.88,-4,0,-2,40,0
'[11:53:00.684 21/01/2026]',-129386.2,-179844.9,-137715.4,-15140.22,-375000,-375000,-150609,-154058.1,0.02,0.00,0.88,-4,0,-2,40,0
'[11:53:00.688 21/01/2026]',-129410.9,-179895.9,-137769.7,-15199.1,-375000,-375000,-150659.9,-153787.9,0.02,0.00,0.88,-4,0,-2,40,0
'[11:53:00.692 21/01/2026]',-129438.3,-179912.5,-137773.1,-15199.28,-375000,-375000,-150664.6,-153940.7,0.02,0.00,0.88,-4,0,-2,40,0
'[11:53:00.696 21/01/2026]',-129414.5,-179870.8,-137717,-15148.18,-375000,-375000,-150617.9,-154250.8,0.02,0.00,0.88,-4,0,-2,40,0
'[11:53:00.700 21/01/2026]',-129392.4,-179865.1,-137716.3,-15146.17,-375000,-375000,-150605.6,-154139.5,0.02,0.00,0.88,-4,0,-2,40,0
'[11:53:00.704 21/01/2026]',-129421.6,-179901.5,-137781.9,-15206.65,-375000,-375000,-150654.2,-153837.4,0.02,0.00,0.88,-4,0,-2,40,0
'[11:53:00.708 21/01/2026]',-129435.2,-179907.6,-137790.7,-15212.82,-375000,-375000,-150669.1,-153919.7,0.02,0.00,0.88,-4,0,-2,40,0
'[11:53:00.712 21/01/2026]',-129415.8,-179870.9,-137739.7,-15164,-375000,-375000,-150632.8,-154252.1,0.02,0.00,0.88,-4,0,-2,40,0
'[11:53:00.716 21/01/2026]',-129377.7,-179832.6,-137706.7,-15135.8,-375000,-375000,-150599.3,-154213.8,0.02,0.00,0.88,-4,0,-2,40,0
'[11:53:00.720 21/01/2026]',-129378.6,-179868.3,-137774,-15194.67,-375000,-375000,-150639.2,-153890.5,0.03,0.00,0.88,-4,0,-2,40,0
'[11:53:00.724 21/01/2026]',-129408.5,-179901.8,-137816,-15226.32,-375000,-375000,-150667.3,-153875.3,0.03,0.00,0.88,-4,0,-2,40,0
'[11:53:00.728 21/01/2026]',-129423.2,-179895.4,-137744.6,-15177.82,-375000,-375000,-150638.4,-154206.2,0.03,0.00,0.88,-4,0,-2,40,0
'[11:53:00.732 21/01/2026]',-129407.7,-179869.4,-137705.1,-15140.8,-375000,-375000,-150604.5,-154226.8,0.03,0.00,0.88,-4,0,-2,40,0
'[11:53:00.736 21/01/2026]',-129404.6,-179881.6,-137748.6,-15186.18,-375000,-375000,-150631.6,-153898.1,0.03,0.00,0.88,-4,0,-2,40,0
'[11:53:00.740 21/01/2026]',-129429.5,-179913,-137795.5,-15234.05,-375000,-375000,-150676.2,-153800.4,0.03,0.00,0.88,-4,0,-2,40,0
'[11:53:00.744 21/01/2026]',-129413.8,-179870.6,-137743.2,-15175.85,-375000,-375000,-150631.5,-154106.2,0.03,0.00,0.88,-4,0,-2,40,0
'[11:53:00.748 21/01/2026]',-129391.8,-179837,-137702.6,-15134.28,-375000,-375000,-150592.5,-154206.6,0.03,0.00,0.88,-4,0,-2,40,0
'[11:53:00.752 21/01/2026]',-129384.9,-179871.2,-137738.9,-15169.5,-375000,-375000,-150611.4,-153920,0.03,0.00,0.88,-4,0,-2,40,0
'[11:53:00.756 21/01/2026]',-129415.5,-179900.3,-137789.9,-15219.35,-375000,-375000,-150656.4,-153747.3,0.03,0.00,0.88,-4,0,-2,40,0
'[11:53:00.760 21/01/2026]',-129427.8,-179892.4,-137777,-15198.29,-375000,-375000,-150653,-154047.4,0.03,0.00,0.88,-4,0,-2,40,0
'[11:53:00.764 21/01/2026]',-129370.1,-179858.5,-137734.4,-15145.41,-375000,-375000,-150607.4,-154236.2,0.03,0.00,0.88,-4,0,-2,40,0
'[11:53:00.768 21/01/2026]',-129381.5,-179870.8,-137730.8,-15161.5,-375000,-375000,-150611.3,-153986.9,0.03,0.00,0.88,-4,0,-2,40,0
'[11:53:00.772 21/01/2026]',-129439.6,-179908.6,-137783,-15216.71,-375000,-375000,-150660.8,-153757.2,0.03,0.00,0.88,-4,0,-2,40,0
'[11:53:00.776 21/01/2026]',-129430.3,-179897.2,-137760.8,-15195.61,-375000,-375000,-150651.3,-153982.2,0.03,0.00,0.88,-4,0,-2,40,0
'[11:53:00.780 21/01/2026]',-129416,-179853.6,-137711.9,-15146.21,-375000,-375000,-150613.9,-154259.4,0.03,0.00,0.88,-4,0,-2,40,0
'[11:53:00.784 21/01/2026]',-129396,-179839.7,-137712.1,-15149.65,-375000,-375000,-150610.3,-154072.1,0.03,0.00,0.88,-4,0,-2,40,0
'[11:53:00.788 21/01/2026]',-129407.6,-179886.4,-137760.1,-15198.56,-375000,-375000,-150646.7,-153768.9,0.03,0.00,0.88,-4,0,-2,40,0
'[11:53:00.792 21/01/2026]',-129418.4,-179901.1,-137767.1,-15197.8,-375000,-375000,-150649.5,-153931.2,0.02,0.00,0.88,-4,0,-2,40,0
'[11:53:00.796 21/01/2026]',-129373.6,-179848.8,-137703.5,-15129.31,-375000,-375000,-150591.2,-154220.5,0.02,0.00,0.88,-4,0,-2,40,0
'[11:53:00.800 21/01/2026]',-129378.3,-179855.4,-137726.4,-15146.03,-375000,-375000,-150600.6,-154125.1,0.02,0.00,0.88,-4,0,-2,40,0
'[11:53:00.804 21/01/2026]',-129403.9,-179890.5,-137783.5,-15204.1,-375000,-375000,-150647.7,-153825.7,0.02,0.00,0.88,-4,0,-2,40,0
'[11:53:00.808 21/01/2026]',-129407.1,-179893.1,-137803.2,-15222.52,-375000,-375000,-150664.1,-153910.7,0.02,0.00,0.88,-4,0,-2,40,0
'[11:53:00.812 21/01/2026]',-129411.2,-179866.4,-137741.6,-15175,-375000,-375000,-150629.9,-154263.1,0.02,0.00,0.88,-4,0,-2,40,0
'[11:53:00.816 21/01/2026]',-129410.2,-179843.9,-137694.8,-15139.37,-375000,-375000,-150599.8,-154193.1,0.02,0.00,0.88,-4,0,-2,40,0
'[11:53:00.820 21/01/2026]',-129424,-179889.3,-137749.4,-15189.53,-375000,-375000,-150644.5,-153881.2,0.02,0.00,0.88,-4,0,-2,40,0
'[11:53:00.824 21/01/2026]',-129441.2,-179908.2,-137794.3,-15219.57,-375000,-375000,-150677.3,-153881.5,0.02,0.00,0.88,-4,0,-2,40,0
'[11:53:00.828 21/01/2026]',-129418.3,-179867.2,-137765.2,-15186.27,-375000,-375000,-150654.6,-154220.4,0.02,0.00,0.88,-4,0,-2,40,0
'[11:53:00.832 21/01/2026]',-129369,-179830.3,-137733.5,-15148.58,-375000,-375000,-150619.7,-154247.1,0.02,0.00,0.88,-4,0,-2,40,0
'[11:53:00.836 21/01/2026]',-129386.5,-179867.1,-137756.5,-15178.35,-375000,-375000,-150640.4,-153931.4,0.02,0.00,0.88,-4,0,-2,40,0
'[11:53:00.840 21/01/2026]',-129413.7,-179899,-137776.8,-15211.52,-375000,-375000,-150668.3,-153819.2,0.02,0.00,0.88,-4,0,-2,40,0
'[11:53:00.844 21/01/2026]',-129450.4,-179871,-137726.4,-15165.84,-375000,-375000,-150634.5,-154128.6,0.02,0.00,0.88,-4,0,-2,40,0
'[11:53:00.848 21/01/2026]',-129417.7,-179844,-137687.9,-15123.46,-375000,-375000,-150591.9,-154229.7,0.02,0.00,0.88,-4,0,-2,40,0
'[11:53:00.852 21/01/2026]',-129410.3,-179876.2,-137731,-15170.13,-375000,-375000,-150627.1,-153956.2,0.02,0.00,0.88,-4,0,-2,40,0
'[11:53:00.856 21/01/2026]',-129431.6,-179911.5,-137778,-15215.1,-375000,-375000,-150666.9,-153784.5,0.02,0.00,0.88,-4,0,-2,40,0
'[11:53:00.860 21/01/2026]',-129412.2,-179898.3,-137769.4,-15189.89,-375000,-375000,-150654.7,-154070.4,0.02,0.00,0.88,-4,0,-2,40,0
'[11:53:00.864 21/01/2026]',-129369.4,-179855.1,-137724.7,-15141.56,-375000,-375000,-150607.7,-154252.5,0.03,0.00,0.88,-4,0,-2,40,0
'[11:53:00.868 21/01/2026]',-129378.7,-179852.2,-137727.3,-15156.32,-375000,-375000,-150609.5,-153995.2,0.03,0.00,0.88,-4,0,-2,40,0
'[11:53:00.872 21/01/2026]',-129423.7,-179899.8,-137767.9,-15201.91,-375000,-375000,-150650.7,-153763.6,0.03,0.00,0.88,-4,0,-2,40,0
'[11:53:00.876 21/01/2026]',-129409.1,-179888.8,-137762.6,-15182.96,-375000,-375000,-150639.4,-153972.9,0.03,0.00,0.88,-4,0,-2,40,0
'[11:53:00.880 21/01/2026]',-129393.2,-179848,-137725.5,-15142.37,-375000,-375000,-150604.1,-154240.6,0.03,0.00,0.88,-4,0,-2,40,0
'[11:53:00.884 21/01/2026]',-129398.5,-179852.9,-137726.7,-15154.84,-375000,-375000,-150609.1,-154066.1,0.03,0.00,0.88,-4,0,-2,40,0
'[11:53:00.888 21/01/2026]',-129418.5,-179896.6,-137770.3,-15204.64,-375000,-375000,-150651.1,-153781.5,0.03,0.00,0.88,-4,0,-2,40,0
'[11:53:00.892 21/01/2026]',-129439.7,-179908.1,-137770.8,-15208.44,-375000,-375000,-150666,-153936.4,0.03,0.00,0.88,-4,0,-2,40,0
'[11:53:00.896 21/01/2026]',-129386.8,-179850.9,-137725.9,-15149.16,-375000,-375000,-150616.1,-154234.4,0.03,0.00,0.88,-4,0,-2,40,0
'[11:53:00.900 21/01/2026]',-129382.7,-179847.3,-137717.2,-15147.73,-375000,-375000,-150607,-154137.1,0.03,0.00,0.89,-4,0,-2,40,0
'[11:53:00.904 21/01/2026]',-129444,-179876.5,-137750,-15190.25,-375000,-375000,-150643.2,-153838.8,0.03,0.00,0.89,-4,0,-2,40,0
'[11:53:00.908 21/01/2026]',-129431.4,-179884,-137763.9,-15190.65,-375000,-375000,-150649.3,-153905,0.03,0.00,0.89,-4,0,-2,40,0
'[11:53:00.912 21/01/2026]',-129418,-179874.4,-137740.8,-15154.08,-375000,-375000,-150628.1,-154239.9,0.03,0.00,0.89,-4,0,-2,40,0
'[11:53:00.916 21/01/2026]',-129376,-179852.1,-137728.7,-15146.75,-375000,-375000,-150610,-154213.2,0.03,0.00,0.89,-4,0,-2,40,0
'[11:53:00.920 21/01/2026]',-129384.8,-179860.5,-137747.8,-15182.91,-375000,-375000,-150628.3,-153868,0.03,0.00,0.89,-4,0,-2,40,0
'[11:53:00.924 21/01/2026]',-129442.3,-179893,-137766.9,-15208.71,-375000,-375000,-150655.4,-153848.3,0.03,0.00,0.89,-4,0,-2,40,0
'[11:53:00.928 21/01/2026]',-129443.3,-179889.8,-137736.1,-15171.96,-375000,-375000,-150632.3,-154175.5,0.03,0.00,0.89,-4,0,-2,40,0
'[11:53:00.932 21/01/2026]',-129382.2,-179846.2,-137715.7,-15143.22,-375000,-375000,-150607.4,-154226.7,0.03,0.00,0.89,-4,0,-2,40,0
'[11:53:00.936 21/01/2026]',-129363.7,-179859.4,-137749,-15178.22,-375000,-375000,-150629.8,-153907.6,0.03,0.00,0.88,-4,0,-2,40,0
'[11:53:00.940 21/01/2026]',-129438.6,-179915.6,-137773.1,-15213.31,-375000,-375000,-150661.1,-153800.3,0.03,0.00,0.88,-4,0,-2,40,0
'[11:53:00.944 21/01/2026]',-129432.4,-179894.4,-137737.3,-15174.69,-375000,-375000,-150643.2,-154141.1,0.03,0.00,0.88,-4,0,-2,40,0
'[11:53:00.948 21/01/2026]',-129386.6,-179847.8,-137706.7,-15135.53,-375000,-375000,-150603,-154260.5,0.03,0.00,0.88,-4,0,-2,40,0
'[11:53:00.952 21/01/2026]',-129398.4,-179885.2,-137762.1,-15183.76,-375000,-375000,-150636,-153982.5,0.03,0.00,0.88,-4,0,-2,40,0
'[11:53:00.956 21/01/2026]',-129421,-179912.7,-137792.7,-15211.3,-375000,-375000,-150657.8,-153805,0.03,0.00,0.88,-4,0,-2,40,0
'[11:53:00.960 21/01/2026]',-129411.3,-179875.5,-137754.8,-15176.34,-375000,-375000,-150629.8,-154087.5,0.03,0.00,0.88,-4,0,-2,40,0
'[11:53:00.964 21/01/2026]',-129403.3,-179844.5,-137714,-15137.27,-375000,-375000,-150590.4,-154282.4,0.03,0.00,0.88,-4,0,-2,40,0
'[11:53:00.968 21/01/2026]',-129407.7,-179863.5,-137738.5,-15165.21,-375000,-375000,-150606.8,-154042.2,0.03,0.00,0.88,-4,0,-2,40,0
'[11:53:00.972 21/01/2026]',-129434.2,-179899.1,-137802.1,-15226.95,-375000,-375000,-150659.1,-153792.9,0.03,0.00,0.88,-4,0,-2,40,0
'[11:53:00.976 21/01/2026]',-129454.1,-179894.9,-137787.3,-15213.58,-375000,-375000,-150657.1,-154013,0.03,0.00,0.88,-4,0,-2,40,0
'[11:53:00.980 21/01/2026]',-129436.3,-179860.7,-137721.5,-15151.67,-375000,-375000,-150602.8,-154258.4,0.03,0.00,0.88,-4,0,-2,40,0
'[11:53:00.984 21/01/2026]',-129423.7,-179882.7,-137744,-15167.04,-375000,-375000,-150608.8,-154074.4,0.03,0.00,0.88,-4,0,-2,40,0
'[11:53:00.988 21/01/2026]',-129426,-179912.9,-137791.3,-15208.39,-375000,-375000,-150639.8,-153785.8,0.03,0.00,0.88,-4,0,-2,40,0
'[11:53:00.992 21/01/2026]',-129442.8,-179910.9,-137769.4,-15200.35,-375000,-375000,-150640,-153932.2,0.03,0.00,0.88,-4,0,-2,40,0
'[11:53:00.996 21/01/2026]',-129422.2,-179869.3,-137715.2,-15147.15,-375000,-375000,-150603.2,-154249.5,0.03,0.00,0.88,-4,0,-2,40,0
'[11:53:01.000 21/01/2026]',-129408.1,-179858.9,-137723,-15147.37,-375000,-375000,-150600.7,-154139.7,0.03,0.00,0.88,-4,0,-2,40,0
'[11:53:01.004 21/01/2026]',-129442.2,-179900.3,-137775.3,-15210.27,-375000,-375000,-150647.3,-153814.2,0.03,0.00,0.88,-4,0,-2,40,0
'[11:53:01.008 21/01/2026]',-129466.2,-179904.2,-137775.4,-15210.76,-375000,-375000,-150657.3,-153889.8,0.02,0.00,0.89,-4,0,-2,40,0
'[11:53:01.012 21/01/2026]',-129429.8,-179865.2,-137722.8,-15149.79,-375000,-375000,-150613,-154215.9,0.02,0.00,0.89,-4,0,-2,40,0
'[11:53:01.016 21/01/2026]',-129391.2,-179846.2,-137718.8,-15132.31,-375000,-375000,-150589.7,-154168.7,0.02,0.00,0.89,-4,0,-2,40,0
'[11:53:01.020 21/01/2026]',-129416.6,-179875.8,-137771.3,-15193.46,-375000,-375000,-150635.9,-153851.4,0.02,0.00,0.89,-4,0,-2,40,0
'[11:53:01.024 21/01/2026]',-129422.1,-179885.9,-137788.5,-15211.61,-375000,-375000,-150657,-153845,0.02,0.00,0.89,-4,0,-2,40,0
'[11:53:01.028 21/01/2026]',-129403.5,-179867,-137741.5,-15161.95,-375000,-375000,-150627.8,-154197.6,0.02,0.00,0.89,-4,0,-2,40,0
'[11:53:01.032 21/01/2026]',-129366.9,-179863.5,-137725.2,-15138.34,-375000,-375000,-150605,-154239.6,0.02,0.00,0.89,-4,0,-2,40,0
'[11:53:01.036 21/01/2026]',-129426.9,-179888.9,-137750.2,-15180.68,-375000,-375000,-150631.9,-153939.5,0.02,0.00,0.89,-4,0,-2,40,0
'[11:53:01.040 21/01/2026]',-129477.9,-179915.3,-137780.5,-15219.26,-375000,-375000,-150664.7,-153833.3,0.02,0.00,0.89,-4,0,-2,40,0
'[11:53:01.044 21/01/2026]',-129455.5,-179892.8,-137754.5,-15179.83,-375000,-375000,-150637.4,-154153.7,0.03,0.00,0.88,-4,0,-2,40,0
'[11:53:01.048 21/01/2026]',-129409.6,-179845.8,-137711.4,-15130.7,-375000,-375000,-150589.2,-154257.2,0.03,0.00,0.88,-4,0,-2,40,0
'[11:53:01.052 21/01/2026]',-129403,-179859.6,-137747.3,-15171.38,-375000,-375000,-150619.3,-153985.7,0.03,0.00,0.88,-4,0,-2,40,0
'[11:53:01.056 21/01/2026]',-129412.7,-179886.5,-137795.1,-15217.92,-375000,-375000,-150655.6,-153812.4,0.03,0.00,0.88,-4,0,-2,40,0
'[11:53:01.060 21/01/2026]',-129430.2,-179879.5,-137768.3,-15190.78,-375000,-375000,-150637.3,-154101.1,0.03,0.00,0.88,-4,0,-2,40,0
'[11:53:01.064 21/01/2026]',-129420,-179844,-137713.1,-15133.29,-375000,-375000,-150590,-154275.1,0.03,0.00,0.88,-4,0,-2,40,0
'[11:53:01.068 21/01/2026]',-129414.8,-179859.8,-137759,-15172.77,-375000,-375000,-150621.4,-154039.2,0.03,0.00,0.88,-4,0,-2,40,0
'[11:53:01.072 21/01/2026]',-129445.2,-179889,-137800.5,-15217.51,-375000,-375000,-150664,-153804.5,0.03,0.00,0.88,-4,0,-2,40,0
'[11:53:01.076 21/01/2026]',-129454.8,-179896.7,-137791.7,-15219.03,-375000,-375000,-150671.6,-154046.5,0.03,0.00,0.88,-4,0,-2,40,0
'[11:53:01.080 21/01/2026]',-129410.5,-179862.1,-137753.3,-15180.05,-375000,-375000,-150628.4,-154310.8,0.02,0.00,0.88,-4,0,-2,40,0
'[11:53:01.084 21/01/2026]',-129449,-179877.1,-137740.5,-15169.23,-375000,-375000,-150613.4,-154103.9,0.02,0.00,0.88,-4,0,-2,40,0
'[11:53:01.088 21/01/2026]',-129469.7,-179925.3,-137793.3,-15213.09,-375000,-375000,-150650.2,-153817.4,0.02,0.00,0.88,-4,0,-2,40,0
'[11:53:01.092 21/01/2026]',-129433.7,-179912.8,-137781.8,-15204.24,-375000,-375000,-150647.7,-153950.9,0.02,0.00,0.88,-4,0,-2,40,0
'[11:53:01.096 21/01/2026]',-129418.2,-179864.5,-137721.8,-15158.77,-375000,-375000,-150611.5,-154256.1,0.02,0.00,0.88,-4,0,-2,40,0
'[11:53:01.100 21/01/2026]',-129415.5,-179850.2,-137730.9,-15165.66,-375000,-375000,-150613.5,-154166.3,0.02,0.00,0.88,-4,0,-2,40,0
'[11:53:01.104 21/01/2026]',-129449.1,-179892.4,-137793.3,-15223.59,-375000,-375000,-150662,-153850.4,0.02,0.00,0.88,-4,0,-2,40,0
'[11:53:01.108 21/01/2026]',-129443.1,-179899.6,-137805.8,-15225.16,-375000,-375000,-150668.7,-153909.8,0.02,0.00,0.88,-4,0,-2,40,0
'[11:53:01.112 21/01/2026]',-129422.2,-179880.8,-137752.7,-15179.11,-375000,-375000,-150636,-154244.4,0.02,0.00,0.88,-4,0,-2,40,0
'[11:53:01.116 21/01/2026]',-129435.3,-179848.8,-137720.5,-15156.81,-375000,-375000,-150614.4,-154196,0.03,0.00,0.88,-4,0,-2,40,0
'[11:53:01.120 21/01/2026]',-129453.1,-179883.8,-137775.3,-15209.42,-375000,-375000,-150659.8,-153866.7,0.03,0.00,0.88,-4,0,-2,40,0
'[11:53:01.124 21/01/2026]',-129461.1,-179912,-137802.2,-15231.86,-375000,-375000,-150688.9,-153874.5,0.03,0.00,0.88,-4,0,-2,40,0
'[11:53:01.128 21/01/2026]',-129445.6,-179874,-137742.9,-15172.27,-375000,-375000,-150647.6,-154219.1,0.03,0.00,0.88,-4,0,-2,40,0
'[11:53:01.132 21/01/2026]',-129411.5,-179841.4,-137707.7,-15138.48,-375000,-375000,-150612.8,-154247,0.03,0.00,0.88,-4,0,-2,40,0
'[11:53:01.136 21/01/2026]',-129426.5,-179868,-137761,-15190.74,-375000,-375000,-150652.6,-153936.4,0.03,0.00,0.88,-4,0,-2,40,0
'[11:53:01.140 21/01/2026]',-129427.3,-179889.6,-137815.8,-15235.04,-375000,-375000,-150691.8,-153854.1,0.03,0.00,0.88,-4,0,-2,40,0
'[11:53:01.144 21/01/2026]',-129411.9,-179866.7,-137774.5,-15189.84,-375000,-375000,-150660.5,-154178.9,0.03,0.00,0.88,-4,0,-2,40,0
'[11:53:01.148 21/01/2026]',-129413.5,-179848.3,-137720.9,-15151.26,-375000,-375000,-150630.2,-154295.9,0.03,0.00,0.88,-4,0,-2,40,0
'[11:53:01.152 21/01/2026]',-129430.3,-179853,-137754.9,-15186.94,-375000,-375000,-150653.3,-154007,0.02,0.00,0.88,-4,0,-2,40,0
'[11:53:01.156 21/01/2026]',-129463.4,-179888.4,-137792,-15223.33,-375000,-375000,-150682.4,-153834.7,0.02,0.00,0.88,-4,0,-2,40,0
'[11:53:01.160 21/01/2026]',-129451.4,-179874.3,-137758.9,-15186.27,-375000,-375000,-150658.4,-154118.8,0.02,0.00,0.88,-4,0,-2,40,0
'[11:53:01.164 21/01/2026]',-129425.4,-179855,-137743.3,-15155.15,-375000,-375000,-150630.4,-154320.9,0.02,0.00,0.88,-4,0,-2,40,0
'[11:53:01.168 21/01/2026]',-129418.5,-179858.6,-137748.4,-15166.95,-375000,-375000,-150630.8,-154060.2,0.02,0.00,0.88,-4,0,-2,40,0
'[11:53:01.172 21/01/2026]',-129442.3,-179894.3,-137784.3,-15214.38,-375000,-375000,-150668.5,-153817.7,0.02,0.00,0.88,-4,0,-2,40,0
'[11:53:01.176 21/01/2026]',-129463.8,-179895.1,-137774.2,-15210.63,-375000,-375000,-150674.2,-154077.5,0.02,0.00,0.88,-4,0,-2,40,0
'[11:53:01.180 21/01/2026]',-129445.5,-179855,-137728.9,-15154.3,-375000,-375000,-150628.8,-154320.3,0.02,0.00,0.88,-4,0,-2,40,0
'[11:53:01.184 21/01/2026]',-129410.7,-179847.8,-137752.3,-15162.71,-375000,-375000,-150624.9,-154109.3,0.02,0.00,0.88,-4,0,-2,40,0
'[11:53:01.188 21/01/2026]',-129397.5,-179884,-137829.7,-15224.85,-375000,-375000,-150671.4,-153815.6,0.03,-0.02,0.86,-4,0,-2,40,0
'[11:53:01.192 21/01/2026]',-129426,-179888,-137813.3,-15222.57,-375000,-375000,-150678.4,-153993.5,0.03,-0.02,0.86,-4,0,-2,40,0
'[11:53:01.196 21/01/2026]',-129470.1,-179872.6,-137730.5,-15170.84,-375000,-375000,-150641.6,-154311.7,0.03,-0.02,0.86,-4,0,-2,40,0
'[11:53:01.200 21/01/2026]',-129459.2,-179873.6,-137734.4,-15178.22,-375000,-375000,-150644.2,-154183.6,0.03,-0.02,0.86,-4,0,-2,40,0
'[11:53:01.204 21/01/2026]',-129444.6,-179891,-137778.1,-15214.61,-375000,-375000,-150669.3,-153863.4,0.03,-0.02,0.86,-4,0,-2,40,0
'[11:53:01.208 21/01/2026]',-129456.2,-179889.4,-137773,-15198.83,-375000,-375000,-150667.7,-153903,0.03,-0.02,0.86,-4,0,-2,40,0
'[11:53:01.212 21/01/2026]',-129437.5,-179864.5,-137734.2,-15161.46,-375000,-375000,-150645.2,-154241.3,0.03,-0.02,0.86,-4,0,-2,40,0
'[11:53:01.216 21/01/2026]',-129417.8,-179852.3,-137727.1,-15150.28,-375000,-375000,-150632,-154226.5,0.03,-0.02,0.86,-4,0,-2,40,0
'[11:53:01.220 21/01/2026]',-129415,-179876.6,-137777.5,-15200.93,-375000,-375000,-150664.9,-153899.4,0.03,-0.02,0.86,-4,0,-2,40,0
'[11:53:01.224 21/01/2026]',-129407.1,-179895.9,-137803.7,-15221.85,-375000,-375000,-150676.8,-153875,0.02,0.00,0.88,-4,0,-2,40,0
'[11:53:01.228 21/01/2026]',-129423.1,-179869.5,-137755.6,-15183.14,-375000,-375000,-150646.3,-154216.3,0.02,0.00,0.88,-4,0,-2,40,0
'[11:53:01.232 21/01/2026]',-129425.7,-179836.6,-137706.9,-15141.16,-375000,-375000,-150606.9,-154248.9,0.02,0.00,0.88,-4,0,-2,40,0
'[11:53:01.236 21/01/2026]',-129431.9,-179879.7,-137766.6,-15187.56,-375000,-375000,-150644.7,-153946.6,0.02,0.00,0.88,-4,0,-2,40,0
'[11:53:01.240 21/01/2026]',-129413.8,-179895.7,-137793.3,-15208.22,-375000,-375000,-150668,-153853,0.02,0.00,0.88,-4,0,-2,40,0
'[11:53:01.244 21/01/2026]',-129450,-179869.1,-137729.9,-15161.63,-375000,-375000,-150641.2,-154183.9,0.02,0.00,0.88,-4,0,-2,40,0
'[11:53:01.248 21/01/2026]',-129430.3,-179825.6,-137682.5,-15117.92,-375000,-375000,-150601.9,-154296.6,0.02,0.00,0.88,-4,0,-2,40,0
'[11:53:01.252 21/01/2026]',-129419,-179849.2,-137728,-15151.4,-375000,-375000,-150625,-154026.2,0.02,0.00,0.88,-4,0,-2,40,0
'[11:53:01.256 21/01/2026]',-129429.1,-179888,-137779.9,-15203.57,-375000,-375000,-150665.1,-153867.2,0.02,0.00,0.88,-4,0,-2,40,0
'[11:53:01.260 21/01/2026]',-129419.9,-179886.3,-137767.8,-15189.22,-375000,-375000,-150653.4,-154169.2,0.03,0.00,0.89,-4,0,-2,40,0
'[11:53:01.264 21/01/2026]',-129408.5,-179850,-137737.8,-15148.67,-375000,-375000,-150614.3,-154354.2,0.03,0.00,0.89,-4,0,-2,40,0
'[11:53:01.268 21/01/2026]',-129421.9,-179864.8,-137744.9,-15170.17,-375000,-375000,-150627.4,-154107.9,0.03,0.00,0.89,-4,0,-2,40,0
'[11:53:01.272 21/01/2026]',-129450.4,-179882.7,-137796.1,-15230.97,-375000,-375000,-150669.3,-153863.3,0.03,0.00,0.89,-4,0,-2,40,0
'[11:53:01.276 21/01/2026]',-129439.1,-179888.7,-137785.6,-15213.98,-375000,-375000,-150664.7,-154100.8,0.03,0.00,0.89,-4,0,-2,40,0
'[11:53:01.280 21/01/2026]',-129410.6,-179851.6,-137717.6,-15136.78,-375000,-375000,-150599.6,-154326.5,0.03,0.00,0.89,-4,0,-2,40,0
'[11:53:01.284 21/01/2026]',-129413.7,-179846.1,-137721,-15143.71,-375000,-375000,-150596,-154114.8,0.03,0.00,0.89,-4,0,-2,40,0
'[11:53:01.288 21/01/2026]',-129438.5,-179884.2,-137792,-15210.76,-375000,-375000,-150650.9,-153836.2,0.03,0.00,0.89,-4,0,-2,40,0
'[11:53:01.292 21/01/2026]',-129467.6,-179890.8,-137790,-15202.36,-375000,-375000,-150651.9,-154022.3,0.03,0.00,0.89,-4,0,-2,40,0
'[11:53:01.296 21/01/2026]',-129428.6,-179848.1,-137738.1,-15146.7,-375000,-375000,-150611,-154319.8,0.02,0.00,0.88,-4,0,-2,40,0
'[11:53:01.300 21/01/2026]',-129433.8,-179855,-137718.4,-15139.24,-375000,-375000,-150601.5,-154181.1,0.02,0.00,0.88,-4,0,-2,40,0
'[11:53:01.304 21/01/2026]',-129422.5,-179891,-137777.5,-15202.81,-375000,-375000,-150650,-153888.6,0.02,0.00,0.88,-4,0,-2,40,0
'[11:53:01.308 21/01/2026]',-129442,-179888,-137795.2,-15227.62,-375000,-375000,-150666.3,-153963.9,0.02,0.00,0.88,-4,0,-2,40,0
'[11:53:01.312 21/01/2026]',-129451.1,-179852.4,-137741.3,-15178.35,-375000,-375000,-150626.3,-154294.6,0.02,0.00,0.88,-4,0,-2,40,0
'[11:53:01.316 21/01/2026]',-129422.8,-179866.5,-137713.7,-15139.69,-375000,-375000,-150606.7,-154244.6,0.02,0.00,0.88,-4,0,-2,40,0
'[11:53:01.320 21/01/2026]',-129470.1,-179897.3,-137773.7,-15191,-375000,-375000,-150653.8,-153907.8,0.02,0.00,0.88,-4,0,-2,40,0
'[11:53:01.324 21/01/2026]',-129471.2,-179903.6,-137783.4,-15221.18,-375000,-375000,-150674.5,-153918.3,0.02,0.00,0.88,-4,0,-2,40,0
'[11:53:01.328 21/01/2026]',-129431.3,-179872.2,-137734.9,-15169.64,-375000,-375000,-150638.4,-154245.4,0.02,0.00,0.88,-4,0,-2,40,0
'[11:53:01.332 21/01/2026]',-129392.7,-179861.5,-137738.5,-15144.02,-375000,-375000,-150611.1,-154273,0.03,0.02,0.88,-4,0,-2,40,0
'[11:53:01.336 21/01/2026]',-129446,-179885.8,-137784.1,-15189.53,-375000,-375000,-150643,-153955.1,0.03,0.02,0.88,-4,0,-2,40,0
'[11:53:01.340 21/01/2026]',-129485.7,-179924.3,-137804.7,-15226.05,-375000,-375000,-150680.6,-153871.3,0.03,0.02,0.88,-4,0,-2,40,0
'[11:53:01.344 21/01/2026]',-129471.2,-179918.8,-137755.9,-15180.19,-375000,-375000,-150653.3,-154215.7,0.03,0.02,0.88,-4,0,-2,40,0
'[11:53:01.348 21/01/2026]',-129428.8,-179872.9,-137709.6,-15134.37,-375000,-375000,-150605.1,-154331.6,0.03,0.02,0.88,-4,0,-2,40,0
'[11:53:01.352 21/01/2026]',-129441,-179883.3,-137753.8,-15172.32,-375000,-375000,-150625.8,-154040.6,0.03,0.02,0.88,-4,0,-2,40,0
'[11:53:01.356 21/01/2026]',-129450.5,-179915.9,-137803,-15217.25,-375000,-375000,-150662.4,-153873.6,0.03,0.02,0.88,-4,0,-2,40,0
'[11:53:01.360 21/01/2026]',-129439,-179906,-137775.7,-15191.41,-375000,-375000,-150653.7,-154176.5,0.03,0.02,0.88,-4,0,-2,40,0
'[11:53:01.364 21/01/2026]',-129428.6,-179877,-137736.6,-15149.48,-375000,-375000,-150620.3,-154373.9,0.03,0.02,0.88,-4,0,-2,40,0
'[11:53:01.368 21/01/2026]',-129446.1,-179889.4,-137747.6,-15167.54,-375000,-375000,-150627,-154128,0.02,0.00,0.86,-4,0,-2,40,0
'[11:53:01.372 21/01/2026]',-129474.4,-179944.9,-137806.1,-15227.26,-375000,-375000,-150676.7,-153892.8,0.02,0.00,0.86,-4,0,-2,40,0
'[11:53:01.376 21/01/2026]',-129472.6,-179947.8,-137803.2,-15219.17,-375000,-375000,-150685.4,-154161.6,0.02,0.00,0.86,-4,0,-2,40,0
'[11:53:01.380 21/01/2026]',-129441.9,-179909.1,-137736.7,-15145.68,-375000,-375000,-150628.9,-154395.9,0.02,0.00,0.86,-4,0,-2,40,0
'[11:53:01.384 21/01/2026]',-129429.3,-179908.3,-137740.2,-15148.49,-375000,-375000,-150626.8,-154200,0.02,0.00,0.86,-4,0,-2,40,0
'[11:53:01.388 21/01/2026]',-129438.1,-179935.2,-137799.4,-15201.29,-375000,-375000,-150669.1,-153894,0.02,0.00,0.86,-4,0,-2,40,0
'[11:53:01.392 21/01/2026]',-129454.9,-179930.2,-137802.5,-15211.52,-375000,-375000,-150689.1,-154059.8,0.02,0.00,0.86,-4,0,-2,40,0
'[11:53:01.396 21/01/2026]',-129458.8,-179883.9,-137715.9,-15145.94,-375000,-375000,-150645.1,-154351.4,0.02,0.00,0.86,-4,0,-2,40,0
'[11:53:01.400 21/01/2026]',-129452.4,-179894.6,-137713.4,-15136.51,-375000,-375000,-150624.3,-154192,0.02,0.00,0.86,-4,0,-2,40,0
'[11:53:01.404 21/01/2026]',-129472.9,-179953.6,-137783.2,-15205.44,-375000,-375000,-150674.6,-153888.2,0.02,0.00,0.89,-4,0,-2,40,0
'[11:53:01.408 21/01/2026]',-129464.6,-179966.6,-137781,-15197.84,-375000,-375000,-150668,-153960.6,0.02,0.00,0.89,-4,0,-2,40,0
'[11:53:01.412 21/01/2026]',-129448.3,-179930.3,-137736.7,-15145.72,-375000,-375000,-150621.8,-154267.8,0.02,0.00,0.89,-4,0,-2,40,0
'[11:53:01.416 21/01/2026]',-129450,-179912,-137740.3,-15145.5,-375000,-375000,-150607.1,-154216.4,0.02,0.00,0.89,-4,0,-2,40,0
'[11:53:01.420 21/01/2026]',-129498.7,-179960.4,-137778.3,-15201.24,-375000,-375000,-150643.3,-153888.7,0.02,0.00,0.89,-4,0,-2,40,0
'[11:53:01.424 21/01/2026]',-129526.4,-179999.6,-137807.8,-15223.19,-375000,-375000,-150672.4,-153887.2,0.02,0.00,0.89,-4,0,-2,40,0
'[11:53:01.428 21/01/2026]',-129487.1,-179955.7,-137768.3,-15171.78,-375000,-375000,-150636.7,-154222.1,0.02,0.00,0.89,-4,0,-2,40,0
'[11:53:01.432 21/01/2026]',-129467.7,-179933.2,-137730.9,-15140.13,-375000,-375000,-150611.7,-154248,0.02,0.00,0.89,-4,0,-2,40,0
'[11:53:01.436 21/01/2026]',-129469.6,-179954.3,-137757.5,-15169.64,-375000,-375000,-150631.8,-153918.6,0.02,0.00,0.89,-4,0,-2,40,0
'[11:53:01.440 21/01/2026]',-129470.3,-179969.8,-137803.4,-15206.88,-375000,-375000,-150658.5,-153820.3,0.02,0.00,0.88,-4,0,-2,40,0
'[11:53:01.444 21/01/2026]',-129471.6,-179961.6,-137778.8,-15183.41,-375000,-375000,-150644.6,-154174.5,0.02,0.00,0.88,-4,0,-2,40,0
'[11:53:01.448 21/01/2026]',-129489.8,-179935.7,-137725.7,-15139.82,-375000,-375000,-150611.5,-154318,0.02,0.00,0.88,-4,0,-2,40,0
'[11:53:01.452 21/01/2026]',-129522.8,-179969.3,-137749.8,-15169.82,-375000,-375000,-150632.3,-154027.8,0.02,0.00,0.88,-4,0,-2,40,0
'[11:53:01.456 21/01/2026]',-129502.5,-179990.1,-137793.1,-15207.77,-375000,-375000,-150661.6,-153858.7,0.02,0.00,0.88,-4,0,-2,40,0
'[11:53:01.460 21/01/2026]',-129476.7,-179963.5,-137782.1,-15195.79,-375000,-375000,-150659.6,-154179.9,0.02,0.00,0.88,-4,0,-2,40,0
'[11:53:01.464 21/01/2026]',-129471.9,-179929.6,-137745,-15162.93,-375000,-375000,-150628.2,-154372.6,0.02,0.00,0.88,-4,0,-2,40,0
'[11:53:01.468 21/01/2026]',-129451.3,-179944.1,-137746.5,-15166.51,-375000,-375000,-150625.9,-154113.2,0.02,0.00,0.88,-4,0,-2,40,0
'[11:53:01.472 21/01/2026]',-129482.3,-179975.5,-137793.3,-15203.83,-375000,-375000,-150663.3,-153875.2,0.02,0.00,0.88,-4,0,-2,40,0
'[11:53:01.476 21/01/2026]',-129495.7,-179958.4,-137764.1,-15182.42,-375000,-375000,-150656.6,-154121.4,0.02,0.00,0.86,-4,0,-2,40,0
'[11:53:01.480 21/01/2026]',-129495.2,-179934,-137701.4,-15131.46,-375000,-375000,-150617.8,-154358.4,0.02,0.00,0.86,-4,0,-2,40,0
'[11:53:01.484 21/01/2026]',-129475.7,-179944,-137726.7,-15147.69,-375000,-375000,-150630.4,-154176.7,0.02,0.00,0.86,-4,0,-2,40,0
'[11:53:01.488 21/01/2026]',-129483.3,-179984.6,-137804.9,-15216.17,-375000,-375000,-150685.5,-153931.6,0.02,0.00,0.86,-4,0,-2,40,0
'[11:53:01.492 21/01/2026]',-129462.7,-179969.8,-137786.6,-15198.47,-375000,-375000,-150679.1,-154091,0.02,0.00,0.86,-4,0,-2,40,0
'[11:53:01.496 21/01/2026]',-129446,-179940.8,-137726.9,-15148.45,-375000,-375000,-150642.6,-154375.8,0.02,0.00,0.86,-4,0,-2,40,0
'[11:53:01.500 21/01/2026]',-129439.4,-179917.3,-137717,-15136.51,-375000,-375000,-150618.8,-154211.7,0.02,0.00,0.86,-4,0,-2,40,0
'[11:53:01.504 21/01/2026]',-129448,-179954.7,-137788.7,-15206.07,-375000,-375000,-150667,-153897.8,0.02,0.00,0.86,-4,0,-2,40,0
'[11:53:01.508 21/01/2026]',-129485.3,-179974.1,-137797.3,-15220.82,-375000,-375000,-150676.1,-153984.7,0.02,0.00,0.86,-4,0,-2,40,0
'[11:53:01.512 21/01/2026]',-129488.8,-179945.7,-137736.3,-15166.15,-375000,-375000,-150633.7,-154315,0.02,0.00,0.88,-4,0,-2,40,0
'[11:53:01.516 21/01/2026]',-129469.8,-179966.6,-137753.9,-15169.73,-375000,-375000,-150632.9,-154252.9,0.02,0.00,0.88,-4,0,-2,40,0
'[11:53:01.520 21/01/2026]',-129499.6,-180004.9,-137792.3,-15232.45,-375000,-375000,-150676.6,-153928.6,0.02,0.00,0.88,-4,0,-2,40,0
'[11:53:01.524 21/01/2026]',-129554.8,-180019.1,-137785.9,-15228.96,-375000,-375000,-150677.9,-153910.3,0.02,0.00,0.88,-4,0,-2,40,0
'[11:53:01.528 21/01/2026]',-129497.1,-179985,-137739.2,-15167.58,-375000,-375000,-150625,-154236.1,0.02,0.00,0.88,-4,0,-2,40,0
'[11:53:01.532 21/01/2026]',-129454.3,-179939.8,-137712.9,-15136.78,-375000,-375000,-150581.2,-154238.8,0.02,0.00,0.88,-4,0,-2,40,0
'[11:53:01.536 21/01/2026]',-129482.3,-179986.3,-137771.5,-15202.18,-375000,-375000,-150632.3,-153913.5,0.02,0.00,0.88,-4,0,-2,40,0
'[11:53:01.540 21/01/2026]',-129502.2,-180019.6,-137812.4,-15237.72,-375000,-375000,-150669.6,-153831.5,0.02,0.00,0.88,-4,0,-2,40,0
'[11:53:01.544 21/01/2026]',-129480.4,-179986.8,-137769.9,-15182.51,-375000,-375000,-150635.1,-154170.2,0.02,0.00,0.88,-4,0,-2,40,0
'[11:53:01.548 21/01/2026]',-129437.3,-179940.8,-137736.1,-15141.79,-375000,-375000,-150592,-154274,0.03,0.00,0.88,-4,0,-2,40,0
'[11:53:01.552 21/01/2026]',-129481.7,-179984.4,-137762.1,-15182.42,-375000,-375000,-150623.9,-153986.6,0.03,0.00,0.88,-4,0,-2,40,0
'[11:53:01.556 21/01/2026]',-129532,-180021.2,-137794.9,-15220.29,-375000,-375000,-150664.3,-153831.6,0.03,0.00,0.88,-4,0,-2,40,0
'[11:53:01.560 21/01/2026]',-129496.6,-180001.6,-137763,-15183.94,-375000,-375000,-150643.6,-154129.1,0.03,0.00,0.88,-4,0,-2,40,0
'[11:53:01.564 21/01/2026]',-129452.5,-179950.6,-137714.2,-15133.16,-375000,-375000,-150598.5,-154307.1,0.03,0.00,0.88,-4,0,-2,40,0
'[11:53:01.568 21/01/2026]',-129460.9,-179955.8,-137736,-15153.01,-375000,-375000,-150609.5,-154039.6,0.03,0.00,0.88,-4,0,-2,40,0
'[11:53:01.572 21/01/2026]',-129476.1,-180008,-137815.1,-15220.6,-375000,-375000,-150668,-153835,0.03,0.00,0.88,-4,0,-2,40,0
'[11:53:01.576 21/01/2026]',-129480.4,-180020.7,-137805.5,-15219.62,-375000,-375000,-150678,-154099.1,0.03,0.00,0.88,-4,0,-2,40,0
'[11:53:01.580 21/01/2026]',-129453.3,-179956.3,-137711.4,-15140,-375000,-375000,-150611.5,-154351.6,0.03,0.00,0.88,-4,0,-2,40,0
'[11:53:01.584 21/01/2026]',-129453.7,-179942.9,-137705.4,-15137.41,-375000,-375000,-150604.2,-154146.7,0.02,0.00,0.89,-4,0,-2,40,0
'[11:53:01.588 21/01/2026]',-129473.3,-179982.6,-137769.7,-15203.08,-375000,-375000,-150663.2,-153865.5,0.02,0.00,0.89,-4,0,-2,40,0
'[11:53:01.592 21/01/2026]',-129488.7,-180000.5,-137776.7,-15203.08,-375000,-375000,-150679.2,-154040.8,0.02,0.00,0.89,-4,0,-2,40,0
'[11:53:01.596 21/01/2026]',-129483.5,-179971.3,-137733.9,-15153.45,-375000,-375000,-150649.5,-154361,0.02,0.00,0.89,-4,0,-2,40,0
'[11:53:01.600 21/01/2026]',-129459.1,-179956.4,-137742.5,-15154.3,-375000,-375000,-150638.9,-154233.4,0.02,0.00,0.89,-4,0,-2,40,0
'[11:53:01.604 21/01/2026]',-129469.6,-179989.6,-137784.6,-15202.99,-375000,-375000,-150664.9,-153898.8,0.02,0.00,0.89,-4,0,-2,40,0
'[11:53:01.608 21/01/2026]',-129476.6,-179990.9,-137776.5,-15211.12,-375000,-375000,-150674.2,-153979.1,0.02,0.00,0.89,-4,0,-2,40,0
'[11:53:01.612 21/01/2026]',-129438.2,-179961.7,-137717,-15156.9,-375000,-375000,-150631.8,-154306.3,0.02,0.00,0.89,-4,0,-2,40,0
'[11:53:01.616 21/01/2026]',-129460,-179950.9,-137704.4,-15134.23,-375000,-375000,-150615.2,-154235.7,0.02,0.00,0.89,-4,0,-2,40,0
'[11:53:01.620 21/01/2026]',-129484.9,-179981.2,-137739.1,-15174.87,-375000,-375000,-150650.1,-153902.1,0.03,0.00,0.88,-4,0,-2,40,0
'[11:53:01.624 21/01/2026]',-129473.1,-179986.6,-137757.7,-15188.46,-375000,-375000,-150663,-153881.2,0.03,0.00,0.88,-4,0,-2,40,0
'[11:53:01.628 21/01/2026]',-129434.9,-179952.4,-137728,-15149.3,-375000,-375000,-150635.4,-154231.2,0.03,0.00,0.88,-4,0,-2,40,0
'[11:53:01.632 21/01/2026]',-129419.5,-179932.5,-137713.7,-15129.49,-375000,-375000,-150614.4,-154273.7,0.03,0.00,0.88,-4,0,-2,40,0
'[11:53:01.636 21/01/2026]',-129439.7,-179946.3,-137757.2,-15172.77,-375000,-375000,-150639.5,-153955.6,0.03,0.00,0.88,-4,0,-2,40,0
'[11:53:01.640 21/01/2026]',-129450.1,-179968.6,-137796.8,-15213.98,-375000,-375000,-150672.8,-153874.5,0.03,0.00,0.88,-4,0,-2,40,0
'[11:53:01.644 21/01/2026]',-129461.9,-179970.5,-137741.5,-15169.77,-375000,-375000,-150645.3,-154209.7,0.03,0.00,0.88,-4,0,-2,40,0
'[11:53:01.648 21/01/2026]',-129465.6,-179956.7,-137719,-15138.66,-375000,-375000,-150622.9,-154329.9,0.03,0.00,0.88,-4,0,-2,40,0
'[11:53:01.652 21/01/2026]',-129475.2,-179946.3,-137721.7,-15153.9,-375000,-375000,-150620.3,-154010.1,0.03,0.00,0.88,-4,0,-2,40,0
'[11:53:01.656 21/01/2026]',-129466,-179973.3,-137763.6,-15199.23,-375000,-375000,-150657.6,-153841.4,0.02,0.00,0.88,-4,0,-2,40,0
'[11:53:01.660 21/01/2026]',-129488.9,-179972,-137749.8,-15180.23,-375000,-375000,-150653.6,-154145.8,0.02,0.00,0.88,-4,0,-2,40,0
'[11:53:01.664 21/01/2026]',-129477.5,-179940.8,-137715.2,-15130.16,-375000,-375000,-150610.3,-154331.5,0.02,0.00,0.88,-4,0,-2,40,0
'[11:53:01.668 21/01/2026]',-129436.4,-179950.9,-137759.5,-15159.94,-375000,-375000,-150624.1,-154076.3,0.02,0.00,0.88,-4,0,-2,40,0
'[11:53:01.672 21/01/2026]',-129464,-179984.1,-137783.1,-15207.72,-375000,-375000,-150661.3,-153838.2,0.02,0.00,0.88,-4,0,-2,40,0
'[11:53:01.676 21/01/2026]',-129502.4,-179965.1,-137741.5,-15183.5,-375000,-375000,-150652.7,-154088.9,0.02,0.00,0.88,-4,0,-2,40,0
'[11:53:01.680 21/01/2026]',-129468.5,-179918.7,-137689.4,-15123.06,-375000,-375000,-150606.5,-154358.1,0.02,0.00,0.88,-4,0,-2,40,0
'[11:53:01.684 21/01/2026]',-129437.2,-179932.9,-137705.3,-15131.77,-375000,-375000,-150611.5,-154159.2,0.02,0.00,0.88,-4,0,-2,40,0
'[11:53:01.688 21/01/2026]',-129438.8,-179973.1,-137770.7,-15197.89,-375000,-375000,-150667.7,-153867.4,0.02,0.00,0.88,-4,0,-2,40,0
'[11:53:01.692 21/01/2026]',-129437.5,-179972.5,-137786.8,-15204.77,-375000,-375000,-150679.2,-154052.6,0.03,0.00,0.86,-4,0,-2,40,0
'[11:53:01.696 21/01/2026]',-129439.8,-179920,-137706.9,-15125.16,-375000,-375000,-150620.9,-154373.5,0.03,0.00,0.86,-4,0,-2,40,0
'[11:53:01.700 21/01/2026]',-129459.6,-179914.1,-137685.6,-15118.76,-375000,-375000,-150610.4,-154232.3,0.03,0.00,0.86,-4,0,-2,40,0
'[11:53:01.704 21/01/2026]',-129479.1,-179963,-137749.5,-15178.35,-375000,-375000,-150655,-153924.2,0.03,0.00,0.86,-4,0,-2,40,0
'[11:53:01.708 21/01/2026]',-129449.7,-179965.8,-137774.2,-15192.12,-375000,-375000,-150670.2,-154014.2,0.03,0.00,0.86,-4,0,-2,40,0
'[11:53:01.712 21/01/2026]',-129385.8,-179918.2,-137725.7,-15143.93,-375000,-375000,-150627.8,-154337.7,0.03,0.00,0.86,-4,0,-2,40,0
'[11:53:01.716 21/01/2026]',-129446.5,-179903.8,-137697.9,-15128.46,-375000,-375000,-150609.9,-154274,0.03,0.00,0.86,-4,0,-2,40,0
'[11:53:01.720 21/01/2026]',-129505.5,-179961.9,-137742.4,-15183.05,-375000,-375000,-150655.9,-153953.4,0.03,0.00,0.86,-4,0,-2,40,0
'[11:53:01.724 21/01/2026]',-129501.4,-179986.2,-137753.2,-15194.18,-375000,-375000,-150667.8,-153942.5,0.03,0.00,0.86,-4,0,-2,40,0
'[11:53:01.728 21/01/2026]',-129459.2,-179951.7,-137717.5,-15145.14,-375000,-375000,-150630.2,-154293.1,0.02,0.00,0.88,-4,0,-2,40,0
'[11:53:01.732 21/01/2026]',-129431.9,-179919.5,-137701.9,-15123.73,-375000,-375000,-150603.4,-154301.5,0.02,0.00,0.88,-4,0,-2,40,0
'[11:53:01.736 21/01/2026]',-129436,-179943.3,-137747.5,-15169.82,-375000,-375000,-150632.4,-153969,0.02,0.00,0.88,-4,0,-2,40,0
'[11:53:01.740 21/01/2026]',-129437.4,-179969,-137792.9,-15203.16,-375000,-375000,-150660.5,-153887.4,0.02,0.00,0.88,-4,0,-2,40,0
'[11:53:01.744 21/01/2026]',-129427.2,-179939,-137756.6,-15161.14,-375000,-375000,-150623.4,-154215.7,0.02,0.00,0.88,-4,0,-2,40,0
'[11:53:01.748 21/01/2026]',-129453.4,-179900.4,-137699.8,-15120.11,-375000,-375000,-150578.3,-154308,0.02,0.00,0.88,-4,0,-2,40,0
'[11:53:01.752 21/01/2026]',-129454.5,-179913.8,-137712.2,-15149.43,-375000,-375000,-150597.5,-153997.8,0.02,0.00,0.88,-4,0,-2,40,0
'[11:53:01.756 21/01/2026]',-129472.1,-179976.7,-137755,-15197.71,-375000,-375000,-150642.3,-153834.5,0.02,0.00,0.88,-4,0,-2,40,0
'[11:53:01.760 21/01/2026]',-129479.1,-179969.4,-137732.1,-15164.36,-375000,-375000,-150623.9,-154134.2,0.02,0.00,0.88,-4,0,-2,40,0
'[11:53:01.764 21/01/2026]',-129440.8,-179931.8,-137692.1,-15108.3,-375000,-375000,-150574.3,-154309.9,0.02,0.00,0.88,-4,0,-2,40,0
'[11:53:01.768 21/01/2026]',-129421.9,-179924.7,-137716.1,-15133.25,-375000,-375000,-150583.5,-154044.8,0.02,0.00,0.88,-4,0,-2,40,0
'[11:53:01.772 21/01/2026]',-129434.5,-179964,-137777.2,-15193.29,-375000,-375000,-150636.1,-153824.9,0.02,0.00,0.88,-4,0,-2,40,0
'[11:53:01.776 21/01/2026]',-129464.8,-179950.4,-137740.1,-15175.45,-375000,-375000,-150634.2,-154079.1,0.02,0.00,0.88,-4,0,-2,40,0
'[11:53:01.780 21/01/2026]',-129438.1,-179908.9,-137701.5,-15130.7,-375000,-375000,-150593.8,-154331.3,0.02,0.00,0.88,-4,0,-2,40,0
'[11:53:01.784 21/01/2026]',-129433.5,-179930.9,-137730.6,-15159.67,-375000,-375000,-150615.7,-154143.8,0.02,0.00,0.88,-4,0,-2,40,0
'[11:53:01.788 21/01/2026]',-129490.6,-179967.6,-137762.2,-15199.59,-375000,-375000,-150653.8,-153871.1,0.02,0.00,0.88,-4,0,-2,40,0
'[11:53:01.792 21/01/2026]',-129482.6,-179976.2,-137764.7,-15189.75,-375000,-375000,-150658.2,-154056.7,0.02,0.00,0.88,-4,0,-2,40,0
'[11:53:01.796 21/01/2026]',-129448.8,-179942,-137724.7,-15140.18,-375000,-375000,-150621.1,-154364,0.02,0.00,0.88,-4,0,-2,40,0
'[11:53:01.800 21/01/2026]',-129454.9,-179939.5,-137696.4,-15125.38,-375000,-375000,-150607.6,-154233.7,0.03,0.00,0.86,-4,0,-2,40,0
'[11:53:01.804 21/01/2026]',-129462.2,-179961.6,-137742.3,-15171.11,-375000,-375000,-150641.6,-153914.1,0.03,0.00,0.86,-4,0,-2,40,0
'[11:53:01.808 21/01/2026]',-129441.8,-179971,-137755.9,-15186.76,-375000,-375000,-150660.7,-154007,0.03,0.00,0.86,-4,0,-2,40,0
'[11:53:01.812 21/01/2026]',-129428.1,-179920.5,-137716.5,-15144.69,-375000,-375000,-150627,-154378.6,0.03,0.00,0.86,-4,0,-2,40,0
'[11:53:01.816 21/01/2026]',-129428.4,-179903.5,-137695.1,-15123.55,-375000,-375000,-150602.8,-154315.9,0.03,0.00,0.86,-4,0,-2,40,0
'[11:53:01.820 21/01/2026]',-129456.8,-179957.6,-137754.2,-15180.81,-375000,-375000,-150651.1,-153984.2,0.03,0.00,0.86,-4,0,-2,40,0
'[11:53:01.824 21/01/2026]',-129477.2,-179969.6,-137762.9,-15196.1,-375000,-375000,-150664.3,-153959.3,0.03,0.00,0.86,-4,0,-2,40,0
'[11:53:01.828 21/01/2026]',-129405.5,-179931.1,-137731.1,-15152.16,-375000,-375000,-150627.3,-154312.3,0.03,0.00,0.86,-4,0,-2,40,0
'[11:53:01.832 21/01/2026]',-129393.1,-179908.5,-137697.7,-15124.08,-375000,-375000,-150596.4,-154325.7,0.03,0.00,0.86,-4,0,-2,40,0
'[11:53:01.836 21/01/2026]',-129483.8,-179952.4,-137751.7,-15181.84,-375000,-375000,-150641.2,-153992.8,0.03,0.00,0.86,-4,0,-2,40,0
'[11:53:01.840 21/01/2026]',-129482.4,-179973.3,-137781.3,-15204.77,-375000,-375000,-150668.7,-153897.9,0.03,0.00,0.86,-4,0,-2,40,0
'[11:53:01.844 21/01/2026]',-129460.9,-179939.7,-137729.1,-15155.91,-375000,-375000,-150636.8,-154235.1,0.03,0.00,0.86,-4,0,-2,40,0
'[11:53:01.848 21/01/2026]',-129438.1,-179929.4,-137714.7,-15135.57,-375000,-375000,-150622.8,-154344.9,0.03,0.00,0.86,-4,0,-2,40,0
'[11:53:01.852 21/01/2026]',-129450.8,-179949,-137732.1,-15168.07,-375000,-375000,-150643.6,-154038.7,0.03,0.00,0.86,-4,0,-2,40,0
'[11:53:01.856 21/01/2026]',-129488.3,-179952.1,-137750.9,-15193.6,-375000,-375000,-150664.3,-153859.8,0.03,0.00,0.86,-4,0,-2,40,0
'[11:53:01.860 21/01/2026]',-129463.6,-179941.6,-137718.5,-15158.68,-375000,-375000,-150645.1,-154172.1,0.03,0.00,0.86,-4,0,-2,40,0
'[11:53:01.864 21/01/2026]',-129412.2,-179918.3,-137696.3,-15117.6,-375000,-375000,-150601.2,-154351.8,0.03,0.00,0.86,-4,0,-2,40,0
'[11:53:01.868 21/01/2026]',-129444.3,-179952.5,-137760.9,-15183.94,-375000,-375000,-150652.2,-154113.6,0.03,0.00,0.86,-4,0,-2,40,0
'[11:53:01.872 21/01/2026]',-129466.8,-179958.2,-137779.7,-15217.2,-375000,-375000,-150677.4,-153881.5,0.03,0.00,0.86,-4,0,-2,40,0
'[11:53:01.876 21/01/2026]',-129467,-179955.5,-137737.1,-15177.46,-375000,-375000,-150659.1,-154122.9,0.03,0.00,0.86,-4,0,-2,40,0
'[11:53:01.880 21/01/2026]',-129447.1,-179944.3,-137702.2,-15124.58,-375000,-375000,-150623.1,-154377.7,0.03,0.00,0.86,-4,0,-2,40,0
'[11:53:01.884 21/01/2026]',-129417.8,-179934.7,-137712.3,-15125.92,-375000,-375000,-150615.4,-154176.7,0.03,0.00,0.86,-4,0,-2,40,0
'[11:53:01.888 21/01/2026]',-129454,-179953.4,-137767,-15186.76,-375000,-375000,-150659.4,-153874.4,0.03,0.00,0.86,-4,0,-2,40,0
'[11:53:01.892 21/01/2026]',-129452.4,-179939.9,-137758.4,-15195.3,-375000,-375000,-150675.5,-154060.3,0.03,0.00,0.86,-4,0,-2,40,0
'[11:53:01.896 21/01/2026]',-129433,-179919.9,-137703,-15137.81,-375000,-375000,-150615.4,-154373.6,0.03,0.00,0.86,-4,0,-2,40,0
'[11:53:01.900 21/01/2026]',-129452.8,-179944.2,-137703.9,-15136.2,-375000,-375000,-150609.9,-154230.7,0.03,0.00,0.86,-4,0,-2,40,0
'[11:53:01.904 21/01/2026]',-129460.5,-179970.3,-137738.5,-15170.22,-375000,-375000,-150642.3,-153906.6,0.03,0.00,0.86,-4,0,-2,40,0
'[11:53:01.908 21/01/2026]',-129464.5,-179986.1,-137760.4,-15188.37,-375000,-375000,-150660.9,-154000.7,0.02,0.00,0.88,-4,0,-2,40,0
'[11:53:01.912 21/01/2026]',-129412.7,-179946.5,-137736.2,-15141.56,-375000,-375000,-150619.2,-154348.9,0.02,0.00,0.88,-4,0,-2,40,0
'[11:53:01.916 21/01/2026]',-129405.4,-179927.6,-137745.8,-15139.46,-375000,-375000,-150602.4,-154292.3,0.02,0.00,0.88,-4,0,-2,40,0
'[11:53:01.920 21/01/2026]',-129444.9,-179978.1,-137767.5,-15195.43,-375000,-375000,-150646.2,-153954.4,0.02,0.00,0.88,-4,0,-2,40,0
'[11:53:01.924 21/01/2026]',-129514.8,-179994.6,-137763.6,-15215.01,-375000,-375000,-150671.2,-153960.1,0.02,0.00,0.88,-4,0,-2,40,0
'[11:53:01.928 21/01/2026]',-129479.9,-179965.8,-137719.4,-15163.51,-375000,-375000,-150637.3,-154315.8,0.02,0.00,0.88,-4,0,-2,40,0
'[11:53:01.932 21/01/2026]',-129439.4,-179942.5,-137707.9,-15136.2,-375000,-375000,-150610.9,-154342.1,0.02,0.00,0.88,-4,0,-2,40,0
'[11:53:01.936 21/01/2026]',-129461.8,-179958.8,-137754.2,-15189.4,-375000,-375000,-150643.6,-153996.4,0.02,0.00,0.88,-4,0,-2,40,0
'[11:53:01.940 21/01/2026]',-129494.8,-179989.6,-137789.9,-15230.48,-375000,-375000,-150681.5,-153907.9,0.02,0.00,0.88,-4,0,-2,40,0
'[11:53:01.944 21/01/2026]',-129470.8,-179966.8,-137767.1,-15193.55,-375000,-375000,-150658.6,-154245.1,0.02,0.00,0.88,-4,0,-2,40,0
'[11:53:01.948 21/01/2026]',-129455.3,-179953.5,-137751.6,-15160.52,-375000,-375000,-150630.2,-154344.2,0.02,0.00,0.88,-4,0,-2,40,0
'[11:53:01.952 21/01/2026]',-129422.9,-179968.1,-137785.8,-15199.59,-375000,-375000,-150663.5,-154049.7,0.02,0.00,0.88,-4,0,-2,40,0
'[11:53:01.956 21/01/2026]',-129461,-179984,-137800.6,-15229.76,-375000,-375000,-150686.3,-153869.4,0.02,0.00,0.88,-4,0,-2,40,0
'[11:53:01.960 21/01/2026]',-129522.9,-179984.7,-137746.4,-15200.35,-375000,-375000,-150671.6,-154194,0.02,0.00,0.88,-4,0,-2,40,0
'[11:53:01.964 21/01/2026]',-129487.8,-179962.7,-137715.2,-15157.12,-375000,-375000,-150640.1,-154371.6,0.02,0.00,0.88,-4,0,-2,40,0
'[11:53:01.968 21/01/2026]',-129474.4,-179964.5,-137748.4,-15180.9,-375000,-375000,-150649.6,-154108.9,0.02,0.00,0.88,-4,0,-2,40,0
'[11:53:01.972 21/01/2026]',-129485.8,-180000.9,-137794.3,-15233.92,-375000,-375000,-150688.5,-153886.8,0.02,0.00,0.88,-4,0,-2,40,0
'[11:53:01.976 21/01/2026]',-129463,-179978.2,-137781.6,-15216.22,-375000,-375000,-150676.3,-154126.1,0.02,0.00,0.88,-4,0,-2,40,0
'[11:53:01.980 21/01/2026]',-129419.8,-179929.6,-137743.3,-15166.28,-375000,-375000,-150635.4,-154397.3,0.03,0.00,0.88,-4,0,-2,40,0
'[11:53:01.984 21/01/2026]',-129456.7,-179945.9,-137734.1,-15167.8,-375000,-375000,-150634.8,-154198.1,0.03,0.00,0.88,-4,0,-2,40,0
'[11:53:01.988 21/01/2026]',-129481.1,-179980.5,-137784.5,-15214.83,-375000,-375000,-150676.7,-153896,0.03,0.00,0.88,-4,0,-2,40,0
'[11:53:01.992 21/01/2026]',-129467.8,-179977.8,-137782.2,-15211.34,-375000,-375000,-150685.4,-154087.7,0.03,0.00,0.88,-4,0,-2,40,0
'[11:53:01.996 21/01/2026]',-129483.8,-179947.2,-137734.8,-15172.68,-375000,-375000,-150655.4,-154408.2,0.03,0.00,0.88,-4,0,-2,40,0
'[11:53:02.000 21/01/2026]',-129456.7,-179919.5,-137727.4,-15162.53,-375000,-375000,-150636.2,-154262.4,0.03,0.00,0.88,-4,0,-2,40,0
'[11:53:02.004 21/01/2026]',-129441.9,-179972.4,-137775.7,-15210.81,-375000,-375000,-150670.8,-153942.8,0.03,0.00,0.88,-4,0,-2,40,0
'[11:53:02.008 21/01/2026]',-129450,-179997.5,-137779.6,-15215.01,-375000,-375000,-150683.2,-154039.1,0.03,0.00,0.88,-4,0,-2,40,0
'[11:53:02.012 21/01/2026]',-129434.9,-179949.9,-137719.6,-15156.36,-375000,-375000,-150631.5,-154369.2,0.03,0.00,0.88,-4,0,-2,40,0
'[11:53:02.016 21/01/2026]',-129452.4,-179926.3,-137711.3,-15147.78,-375000,-375000,-150613.6,-154293,0.02,0.00,0.88,-4,0,-2,40,0
'[11:53:02.020 21/01/2026]',-129490.9,-179970,-137762.1,-15197.17,-375000,-375000,-150653.9,-153966.2,0.02,0.00,0.88,-4,0,-2,40,0
'[11:53:02.024 21/01/2026]',-129480,-179989.2,-137795,-15216.35,-375000,-375000,-150669.8,-153964.8,0.02,0.00,0.88,-4,0,-2,40,0
'[11:53:02.028 21/01/2026]',-129456.1,-179964.4,-137744.6,-15172.99,-375000,-375000,-150636.3,-154310.7,0.02,0.00,0.88,-4,0,-2,40,0
'[11:53:02.032 21/01/2026]',-129434.3,-179925,-137703.5,-15145.76,-375000,-375000,-150610.8,-154314.7,0.02,0.00,0.88,-4,0,-2,40,0
'[11:53:02.036 21/01/2026]',-129458.7,-179959.9,-137743.4,-15194.45,-375000,-375000,-150643.1,-153984.3,0.02,0.00,0.88,-4,0,-2,40,0
'[11:53:02.040 21/01/2026]',-129491.8,-180009.7,-137782.8,-15228.15,-375000,-375000,-150673.5,-153894.9,0.02,0.00,0.88,-4,0,-2,40,0
'[11:53:02.044 21/01/2026]',-129480,-179984.9,-137746.3,-15184.08,-375000,-375000,-150644.7,-154230.7,0.02,0.00,0.88,-4,0,-2,40,0
'[11:53:02.048 21/01/2026]',-129426.7,-179927.3,-137733.2,-15147.51,-375000,-375000,-150610.8,-154316.9,0.02,0.00,0.88,-4,0,-2,40,0
'[11:53:02.052 21/01/2026]',-129415.4,-179947,-137766.9,-15183.18,-375000,-375000,-150637,-154002.9,0.03,0.00,0.89,-4,0,-2,40,0
'[11:53:02.056 21/01/2026]',-129464.3,-179977.5,-137771.9,-15214.47,-375000,-375000,-150670,-153850.7,0.03,0.00,0.89,-4,0,-2,40,0
'[11:53:02.060 21/01/2026]',-129474.7,-179966,-137743,-15180.95,-375000,-375000,-150655.8,-154173.5,0.03,0.00,0.89,-4,0,-2,40,0
'[11:53:02.064 21/01/2026]',-129461.7,-179948,-137714.9,-15152.87,-375000,-375000,-150633.6,-154366.9,0.03,0.00,0.89,-4,0,-2,40,0
'[11:53:02.068 21/01/2026]',-129433,-179944.1,-137732.5,-15167.04,-375000,-375000,-150629.9,-154086.9,0.03,0.00,0.89,-4,0,-2,40,0
'[11:53:02.072 21/01/2026]',-129475.4,-179986.3,-137773.9,-15212.11,-375000,-375000,-150668.2,-153854.9,0.03,0.00,0.89,-4,0,-2,40,0
'[11:53:02.076 21/01/2026]',-129490.5,-179989.7,-137772.5,-15206.65,-375000,-375000,-150670.3,-154109,0.03,0.00,0.89,-4,0,-2,40,0
'[11:53:02.080 21/01/2026]',-129433,-179933.7,-137713.2,-15143.89,-375000,-375000,-150613.4,-154360.1,0.03,0.00,0.89,-4,0,-2,40,0
'[11:53:02.084 21/01/2026]',-129439.8,-179934.7,-137716.7,-15155.47,-375000,-375000,-150617.4,-154145.7,0.03,0.00,0.89,-4,0,-2,40,0
'[11:53:02.088 21/01/2026]',-129494.7,-179998.5,-137784.2,-15231.1,-375000,-375000,-150687.4,-153902.2,0.02,0.00,0.88,-4,0,-2,40,0
'[11:53:02.092 21/01/2026]',-129506.2,-180000.3,-137779.9,-15223.15,-375000,-375000,-150695.1,-154104.3,0.02,0.00,0.88,-4,0,-2,40,0
'[11:53:02.096 21/01/2026]',-129472.6,-179955,-137736.9,-15162.08,-375000,-375000,-150636.8,-154407.4,0.02,0.00,0.88,-4,0,-2,40,0
'[11:53:02.100 21/01/2026]',-129447.5,-179934.6,-137717.5,-15156.54,-375000,-375000,-150617.5,-154247.2,0.02,0.00,0.88,-4,0,-2,40,0
'[11:53:02.104 21/01/2026]',-129467.5,-179973.3,-137771.4,-15211.97,-375000,-375000,-150661.7,-153929.6,0.02,0.00,0.88,-4,0,-2,40,0
'[11:53:02.108 21/01/2026]',-129477.4,-179990.4,-137783.6,-15228.96,-375000,-375000,-150676,-154034.5,0.02,0.00,0.88,-4,0,-2,40,0
'[11:53:02.112 21/01/2026]',-129440,-179937.4,-137725.6,-15164.99,-375000,-375000,-150623.1,-154370.3,0.02,0.00,0.88,-4,0,-2,40,0
'[11:53:02.116 21/01/2026]',-129440.4,-179937.4,-137730.5,-15163.87,-375000,-375000,-150621.7,-154320.2,0.02,0.00,0.88,-4,0,-2,40,0
'[11:53:02.120 21/01/2026]',-129441.9,-179950.3,-137768.5,-15209.87,-375000,-375000,-150654.3,-153975.6,0.02,0.00,0.88,-4,0,-2,40,0
'[11:53:02.124 21/01/2026]',-129486.4,-179972.8,-137799.4,-15245.5,-375000,-375000,-150688.5,-153990,0.03,0.00,0.88,-4,0,-2,40,0
'[11:53:02.128 21/01/2026]',-129460,-179947.1,-137766.8,-15198.2,-375000,-375000,-150659.5,-154348.7,0.03,0.00,0.88,-4,0,-2,40,0
'[11:53:02.132 21/01/2026]',-129445.9,-179929.9,-137720.9,-15150.91,-375000,-375000,-150621.3,-154355.2,0.03,0.00,0.88,-4,0,-2,40,0
'[11:53:02.136 21/01/2026]',-129483.3,-179967.5,-137755.6,-15197.8,-375000,-375000,-150662.5,-154035.6,0.03,0.00,0.88,-4,0,-2,40,0
'[11:53:02.140 21/01/2026]',-129516.1,-179993.3,-137792.2,-15236.56,-375000,-375000,-150699,-153949.5,0.03,0.00,0.88,-4,0,-2,40,0
'[11:53:02.144 21/01/2026]',-129479.1,-179948.7,-137734.9,-15175.27,-375000,-375000,-150650.4,-154270.6,0.03,0.00,0.88,-4,0,-2,40,0
'[11:53:02.148 21/01/2026]',-129459.4,-179924,-137709.4,-15145.81,-375000,-375000,-150623.2,-154368.8,0.03,0.00,0.88,-4,0,-2,40,0
'[11:53:02.152 21/01/2026]',-129447.8,-179944.8,-137749.9,-15186.98,-375000,-375000,-150653.8,-154065.5,0.03,0.00,0.88,-4,0,-2,40,0
'[11:53:02.156 21/01/2026]',-129459.3,-179971.5,-137796.9,-15230.3,-375000,-375000,-150691.4,-153905.9,0.03,0.00,0.88,-4,0,-2,40,0
'[11:53:02.160 21/01/2026]',-129467.4,-179960.6,-137779.5,-15207.1,-375000,-375000,-150678.8,-154224.9,0.02,0.00,0.89,-4,0,-2,40,0
'[11:53:02.164 21/01/2026]',-129448.3,-179923.6,-137721.9,-15152.25,-375000,-375000,-150623.3,-154407.2,0.02,0.00,0.89,-4,0,-2,40,0
'[11:53:02.168 21/01/2026]',-129440.4,-179938.8,-137748.7,-15180.05,-375000,-375000,-150638.2,-154151.8,0.02,0.00,0.89,-4,0,-2,40,0
'[11:53:02.172 21/01/2026]',-129460,-179965.5,-137795.5,-15228.47,-375000,-375000,-150679.9,-153913.8,0.02,0.00,0.89,-4,0,-2,40,0
'[11:53:02.176 21/01/2026]',-129483,-179965.5,-137774.8,-15215.86,-375000,-375000,-150679.3,-154183.7,0.02,0.00,0.89,-4,0,-2,40,0
'[11:53:02.180 21/01/2026]',-129472.2,-179926.7,-137714.4,-15154.66,-375000,-375000,-150623.8,-154419.7,0.02,0.00,0.89,-4,0,-2,40,0
'[11:53:02.184 21/01/2026]',-129435.5,-179908.8,-137716.8,-15154.66,-375000,-375000,-150612.8,-154191.9,0.02,0.00,0.89,-4,0,-2,40,0
'[11:53:02.188 21/01/2026]',-129446.5,-179945,-137773.7,-15209.33,-375000,-375000,-150654.3,-153892.9,0.02,0.00,0.89,-4,0,-2,40,0
'[11:53:02.192 21/01/2026]',-129475.3,-179968,-137778.8,-15210.32,-375000,-375000,-150667,-154082.2,0.02,0.00,0.89,-4,0,-2,40,0
'[11:53:02.196 21/01/2026]',-129456.9,-179938.6,-137721.1,-15164.41,-375000,-375000,-150632.8,-154408.8,0.03,0.02,0.88,-4,0,-2,40,0
'[11:53:02.200 21/01/2026]',-129441.8,-179914.3,-137693,-15140,-375000,-375000,-150601.4,-154243.6,0.03,0.02,0.88,-4,0,-2,40,0
'[11:53:02.204 21/01/2026]',-129481.6,-179959.7,-137756.1,-15204.24,-375000,-375000,-150652.5,-153933.1,0.03,0.02,0.88,-4,0,-2,40,0
'[11:53:02.208 21/01/2026]',-129483.4,-179984.1,-137782.5,-15226.72,-375000,-375000,-150678.4,-154042.4,0.03,0.02,0.88,-4,0,-2,40,0
'[11:53:02.212 21/01/2026]',-129464.1,-179941.8,-137726.9,-15171.11,-375000,-375000,-150633.9,-154376,0.03,0.02,0.88,-4,0,-2,40,0
'[11:53:02.216 21/01/2026]',-129447.5,-179912.8,-137704.2,-15149.52,-375000,-375000,-150607.6,-154293.3,0.03,0.02,0.88,-4,0,-2,40,0
'[11:53:02.220 21/01/2026]',-129455.4,-179934.5,-137755,-15201.24,-375000,-375000,-150638.3,-153958.1,0.03,0.02,0.88,-4,0,-2,40,0
'[11:53:02.224 21/01/2026]',-129456.3,-179949.5,-137789.9,-15229.67,-375000,-375000,-150663.1,-153971.8,0.03,0.02,0.88,-4,0,-2,40,0
'[11:53:02.228 21/01/2026]',-129435.7,-179930,-137749.1,-15179.52,-375000,-375000,-150630.3,-154336.7,0.03,0.02,0.88,-4,0,-2,40,0
'[11:53:02.232 21/01/2026]',-129415.1,-179920.5,-137718.7,-15150.28,-375000,-375000,-150600.7,-154342.5,0.03,0.00,0.88,-4,0,-2,40,0
'[11:53:02.236 21/01/2026]',-129449.1,-179949.1,-137765.4,-15202.94,-375000,-375000,-150638.8,-154015.8,0.03,0.00,0.88,-4,0,-2,40,0
'[11:53:02.240 21/01/2026]',-129491.2,-180001,-137813.7,-15260.56,-375000,-375000,-150693.3,-153965,0.03,0.00,0.88,-4,0,-2,40,0
'[11:53:02.244 21/01/2026]',-129478,-179975.3,-137773.6,-15221.09,-375000,-375000,-150668.9,-154328.3,0.03,0.00,0.88,-4,0,-2,40,0
'[11:53:02.248 21/01/2026]',-129431.9,-179917.4,-137714.1,-15160.16,-375000,-375000,-150607.8,-154402.8,0.03,0.00,0.88,-4,0,-2,40,0
'[11:53:02.252 21/01/2026]',-129455.5,-179931.7,-137755.5,-15198.56,-375000,-375000,-150630.8,-154102.2,0.03,0.00,0.88,-4,0,-2,40,0
'[11:53:02.256 21/01/2026]',-129479.2,-179959.3,-137800.6,-15242.28,-375000,-375000,-150672.3,-153945.4,0.03,0.00,0.88,-4,0,-2,40,0
'[11:53:02.260 21/01/2026]',-129461.4,-179949.8,-137775.9,-15222.52,-375000,-375000,-150662.1,-154257.3,0.03,0.00,0.88,-4,0,-2,40,0
'[11:53:02.264 21/01/2026]',-129462.5,-179924.4,-137725.1,-15177.91,-375000,-375000,-150624.2,-154444.3,0.03,0.00,0.88,-4,0,-2,40,0
'[11:53:02.268 21/01/2026]',-129478.6,-179936.5,-137731.5,-15181.84,-375000,-375000,-150619.3,-154159,0.03,0.02,0.88,-4,0,-2,40,0
'[11:53:02.272 21/01/2026]',-129498.8,-179988.4,-137793,-15243.31,-375000,-375000,-150674.1,-153937,0.03,0.02,0.88,-4,0,-2,40,0
'[11:53:02.276 21/01/2026]',-129467.5,-179972.7,-137772.7,-15223.19,-375000,-375000,-150666.8,-154195.5,0.03,0.02,0.88,-4,0,-2,40,0
'[11:53:02.280 21/01/2026]',-129439.8,-179927.9,-137719.7,-15169.19,-375000,-375000,-150616.6,-154441.1,0.03,0.02,0.88,-4,0,-2,40,0
'[11:53:02.284 21/01/2026]',-129447,-179932.3,-137741.6,-15193.2,-375000,-375000,-150624.5,-154209.2,0.03,0.02,0.88,-4,0,-2,40,0
'[11:53:02.288 21/01/2026]',-129477.7,-179962.4,-137798.5,-15248.14,-375000,-375000,-150669.6,-153930.6,0.03,0.02,0.88,-4,0,-2,40,0
'[11:53:02.292 21/01/2026]',-129491.3,-179966.4,-137789.6,-15234.81,-375000,-375000,-150664.4,-154140.6,0.03,0.02,0.88,-4,0,-2,40,0
'[11:53:02.296 21/01/2026]',-129464.5,-179942.5,-137731.4,-15177.91,-375000,-375000,-150626.3,-154453.2,0.03,0.02,0.88,-4,0,-2,40,0
'[11:53:02.300 21/01/2026]',-129473.4,-179936,-137724.8,-15172.41,-375000,-375000,-150620,-154283.5,0.03,0.02,0.88,-4,0,-2,40,0
'[11:53:02.304 21/01/2026]',-129502.9,-179983,-137791.5,-15235.8,-375000,-375000,-150672.8,-153968.6,0.03,0.02,0.88,-4,0,-2,40,0
'[11:53:02.308 21/01/2026]',-129465.5,-179973.2,-137798,-15230.75,-375000,-375000,-150671.5,-154065.2,0.03,0.02,0.88,-4,0,-2,40,0
'[11:53:02.312 21/01/2026]',-129406.8,-179911.9,-137745.7,-15173.08,-375000,-375000,-150623.7,-154398.9,0.03,0.02,0.88,-4,0,-2,40,0
'[11:53:02.316 21/01/2026]',-129441.4,-179910.4,-137741.5,-15185.51,-375000,-375000,-150635.1,-154352.6,0.03,0.02,0.88,-4,0,-2,40,0
'[11:53:02.320 21/01/2026]',-129498.4,-179959.8,-137781.6,-15234.41,-375000,-375000,-150678.5,-154019.3,0.03,0.02,0.88,-4,0,-2,40,0
'[11:53:02.324 21/01/2026]',-129501,-179983.2,-137786.3,-15239.29,-375000,-375000,-150686,-154018.5,0.03,0.02,0.88,-4,0,-2,40,0
'[11:53:02.328 21/01/2026]',-129480.4,-179953.5,-137742.4,-15191.23,-375000,-375000,-150653.1,-154384.9,0.03,0.02,0.88,-4,0,-2,40,0
'[11:53:02.332 21/01/2026]',-129439.4,-179915.3,-137715.3,-15162.8,-375000,-375000,-150619.7,-154374.2,0.03,0.02,0.88,-4,0,-2,40,0
'[11:53:02.336 21/01/2026]',-129455.9,-179936.2,-137768.7,-15216.84,-375000,-375000,-150656.6,-154038,0.03,0.02,0.88,-4,0,-2,40,0
'[11:53:02.340 21/01/2026]',-129466.7,-179962.9,-137791.4,-15239.02,-375000,-375000,-150678.1,-153962.9,0.02,0.02,0.88,-4,0,-2,40,0
'[11:53:02.344 21/01/2026]',-129439.9,-179928.3,-137751,-15198.74,-375000,-375000,-150650.7,-154306.8,0.02,0.02,0.88,-4,0,-2,40,0
'[11:53:02.348 21/01/2026]',-129395.1,-179892.2,-137732.6,-15173.93,-375000,-375000,-150620.5,-154391.7,0.02,0.02,0.88,-4,0,-2,40,0
'[11:53:02.352 21/01/2026]',-129452.1,-179928,-137752.4,-15204.77,-375000,-375000,-150639.9,-154074.2,0.02,0.02,0.88,-4,0,-2,40,0
'[11:53:02.356 21/01/2026]',-129509.9,-179973.4,-137780.6,-15241.83,-375000,-375000,-150669.8,-153909.6,0.02,0.02,0.88,-4,0,-2,40,0
'[11:53:02.360 21/01/2026]',-129473.9,-179956.8,-137757.9,-15214.79,-375000,-375000,-150651.5,-154218.8,0.02,0.02,0.88,-4,0,-2,40,0
'[11:53:02.364 21/01/2026]',-129457.7,-179917,-137712.5,-15168.97,-375000,-375000,-150609.5,-154385.2,0.02,0.02,0.88,-4,0,-2,40,0
'[11:53:02.368 21/01/2026]',-129473,-179956.8,-137766,-15221.4,-375000,-375000,-150643.7,-154161.7,0.02,0.02,0.88,-4,0,-2,40,0
'[11:53:02.372 21/01/2026]',-129451.1,-179961.2,-137800.3,-15246.08,-375000,-375000,-150657.4,-153896.8,0.02,0.02,0.88,-4,0,-2,40,0
'[11:53:02.376 21/01/2026]',-129453.3,-179927.7,-137736.9,-15202.14,-375000,-375000,-150631.6,-154156,0.03,0.00,0.88,-4,0,-2,40,0
'[11:53:02.380 21/01/2026]',-129454.5,-179910.6,-137693.9,-15155.73,-375000,-375000,-150598.7,-154421.8,0.03,0.00,0.88,-4,0,-2,40,0
'[11:53:02.384 21/01/2026]',-129435.4,-179918,-137723.2,-15175.13,-375000,-375000,-150610,-154218.5,0.03,0.00,0.88,-4,0,-2,40,0
'[11:53:02.388 21/01/2026]',-129449.5,-179946.6,-137776.8,-15230.08,-375000,-375000,-150648.2,-153932.8,0.03,0.00,0.88,-4,0,-2,40,0
'[11:53:02.392 21/01/2026]',-129484,-179974.1,-137782.5,-15239.73,-375000,-375000,-150670,-154153.6,0.03,0.00,0.88,-4,0,-2,40,0
'[11:53:02.396 21/01/2026]',-129462.9,-179939,-137730.2,-15189.66,-375000,-375000,-150636.1,-154472.1,0.03,0.00,0.88,-4,0,-2,40,0
'[11:53:02.400 21/01/2026]',-129451.8,-179919.9,-137736.2,-15187.43,-375000,-375000,-150625,-154319.4,0.03,0.00,0.88,-4,0,-2,40,0
'[11:53:02.404 21/01/2026]',-129456.1,-179944.7,-137795.1,-15236.11,-375000,-375000,-150658.4,-154001.1,0.03,0.00,0.88,-4,0,-2,40,0
'[11:53:02.408 21/01/2026]',-129444,-179954.5,-137788,-15239.69,-375000,-375000,-150664.7,-154108.9,0.03,0.00,0.88,-4,0,-2,40,0
'[11:53:02.412 21/01/2026]',-129452.6,-179918.5,-137724.1,-15181.57,-375000,-375000,-150620,-154440.2,0.02,0.00,0.88,-4,0,-2,40,0
'[11:53:02.416 21/01/2026]',-129452.4,-179915.4,-137707.8,-15171.92,-375000,-375000,-150614.4,-154368.2,0.02,0.00,0.88,-4,0,-2,40,0
'[11:53:02.420 21/01/2026]',-129477,-179945,-137755.4,-15220.64,-375000,-375000,-150655.8,-154039.5,0.02,0.00,0.88,-4,0,-2,40,0
'[11:53:02.424 21/01/2026]',-129495,-179973.4,-137787.5,-15245.19,-375000,-375000,-150681.9,-154058.8,0.02,0.00,0.88,-4,0,-2,40,0
'[11:53:02.428 21/01/2026]',-129459.2,-179937.9,-137736.5,-15193.42,-375000,-375000,-150644.6,-154401.2,0.02,0.00,0.88,-4,0,-2,40,0
'[11:53:02.432 21/01/2026]',-129453.7,-179908.1,-137705,-15166.87,-375000,-375000,-150623.6,-154402.1,0.02,0.00,0.88,-4,0,-2,40,0
'[11:53:02.436 21/01/2026]',-129460.6,-179956.2,-137758.1,-15219.53,-375000,-375000,-150665.1,-154080.8,0.02,0.00,0.88,-4,0,-2,40,0
'[11:53:02.440 21/01/2026]',-129460,-179969.4,-137784.4,-15235.57,-375000,-375000,-150677.9,-153983.4,0.02,0.00,0.88,-4,0,-2,40,0
'[11:53:02.444 21/01/2026]',-129431.8,-179928.4,-137730.9,-15185.95,-375000,-375000,-150639.3,-154314.3,0.02,0.00,0.88,-4,0,-2,40,0
'[11:53:02.448 21/01/2026]',-129407,-179904.3,-137709.4,-15161.28,-375000,-375000,-150617.3,-154397.1,0.03,0.00,0.88,-4,0,-2,40,0
'[11:53:02.452 21/01/2026]',-129448,-179938.9,-137761,-15212.33,-375000,-375000,-150659.1,-154081.7,0.03,0.00,0.88,-4,0,-2,40,0
'[11:53:02.456 21/01/2026]',-129494.4,-179964.2,-137800.2,-15251.71,-375000,-375000,-150696,-153958.3,0.03,0.00,0.88,-4,0,-2,40,0
'[11:53:02.460 21/01/2026]',-129481.1,-179931.6,-137752,-15203.16,-375000,-375000,-150662.2,-154273.8,0.03,0.00,0.88,-4,0,-2,40,0
'[11:53:02.464 21/01/2026]',-129444.9,-179903.5,-137699,-15153.14,-375000,-375000,-150619.7,-154430.4,0.03,0.00,0.88,-4,0,-2,40,0
'[11:53:02.468 21/01/2026]',-129435.4,-179915.3,-137732.6,-15185.6,-375000,-375000,-150636.6,-154159.7,0.03,0.00,0.88,-4,0,-2,40,0
'[11:53:02.472 21/01/2026]',-129457.7,-179944.5,-137763.2,-15224.67,-375000,-375000,-150663.8,-153916,0.03,0.00,0.88,-4,0,-2,40,0
'[11:53:02.476 21/01/2026]',-129442.2,-179929.9,-137747.4,-15197.22,-375000,-375000,-150651,-154169.1,0.03,0.00,0.88,-4,0,-2,40,0
'[11:53:02.480 21/01/2026]',-129389.6,-179897.2,-137719,-15160.12,-375000,-375000,-150621.2,-154429.5,0.03,0.00,0.88,-4,0,-2,40,0
'[11:53:02.484 21/01/2026]',-129408.3,-179901,-137721,-15172.1,-375000,-375000,-150622.2,-154215.9,0.03,0.00,0.88,-4,0,-2,40,0
'[11:53:02.488 21/01/2026]',-129472.3,-179940.4,-137760.8,-15219.57,-375000,-375000,-150662.6,-153943.2,0.03,0.00,0.88,-4,0,-2,40,0
'[11:53:02.492 21/01/2026]',-129464.5,-179938,-137768.1,-15214.47,-375000,-375000,-150669.1,-154147.1,0.03,0.00,0.88,-4,0,-2,40,0
'[11:53:02.496 21/01/2026]',-129412.8,-179897.7,-137719.5,-15161.01,-375000,-375000,-150623,-154449.1,0.03,0.00,0.88,-4,0,-2,40,0
'[11:53:02.500 21/01/2026]',-129427.6,-179897.7,-137704.8,-15162.17,-375000,-375000,-150615,-154307.9,0.03,0.00,0.88,-4,0,-2,40,0
'[11:53:02.504 21/01/2026]',-129480.8,-179951.3,-137763,-15228.15,-375000,-375000,-150668.4,-153999,0.03,0.00,0.88,-4,0,-2,40,0
'[11:53:02.508 21/01/2026]',-129480.8,-179952.2,-137764.7,-15227.75,-375000,-375000,-150671.8,-154111.5,0.03,0.00,0.88,-4,0,-2,40,0
'[11:53:02.512 21/01/2026]',-129440.5,-179901.8,-137703.6,-15162.8,-375000,-375000,-150620.6,-154452.6,0.03,0.00,0.88,-4,0,-2,40,0
'[11:53:02.516 21/01/2026]',-129420.3,-179889.7,-137703.3,-15151.44,-375000,-375000,-150608,-154367.6,0.03,0.00,0.88,-4,0,-2,40,0
'[11:53:02.520 21/01/2026]',-129437,-179917.5,-137755.1,-15203.92,-375000,-375000,-150648.5,-154029.7,0.02,0.00,0.89,-4,0,-2,40,0
'[11:53:02.524 21/01/2026]',-129444,-179941.1,-137780.6,-15232.09,-375000,-375000,-150677.7,-154067,0.02,0.00,0.89,-4,0,-2,40,0
'[11:53:02.528 21/01/2026]',-129433.7,-179916.1,-137745.9,-15194.13,-375000,-375000,-150650.2,-154429.3,0.02,0.00,0.89,-4,0,-2,40,0
'[11:53:02.532 21/01/2026]',-129427.8,-179887.3,-137714.3,-15166.95,-375000,-375000,-150620,-154424.4,0.02,0.00,0.89,-4,0,-2,40,0
'[11:53:02.536 21/01/2026]',-129430.2,-179907.8,-137746.4,-15200.97,-375000,-375000,-150638.9,-154068.5,0.02,0.00,0.89,-4,0,-2,40,0
'[11:53:02.540 21/01/2026]',-129445.9,-179940.3,-137779.8,-15237.09,-375000,-375000,-150677.8,-153998.9,0.02,0.00,0.89,-4,0,-2,40,0
'[11:53:02.544 21/01/2026]',-129445.9,-179902.6,-137723.9,-15189.49,-375000,-375000,-150648.4,-154352.1,0.02,0.00,0.89,-4,0,-2,40,0
'[11:53:02.548 21/01/2026]',-129446.4,-179876.6,-137684.2,-15152.87,-375000,-375000,-150614.9,-154432.5,0.02,0.00,0.89,-4,0,-2,40,0
'[11:53:02.552 21/01/2026]',-129454.1,-179905.7,-137723,-15188.19,-375000,-375000,-150639.5,-154107.4,0.02,0.00,0.89,-4,0,-2,40,0
'[11:53:02.556 21/01/2026]',-129475.4,-179964.7,-137781.6,-15245.63,-375000,-375000,-150690.5,-153982.2,0.03,0.00,0.88,-4,0,-2,40,0
'[11:53:02.560 21/01/2026]',-129437.4,-179931.8,-137741.5,-15199.23,-375000,-375000,-150656.7,-154272.9,0.03,0.00,0.88,-4,0,-2,40,0
'[11:53:02.564 21/01/2026]',-129394.6,-179881.6,-137701.9,-15152.16,-375000,-375000,-150611.1,-154442.8,0.03,0.00,0.88,-4,0,-2,40,0
'[11:53:02.568 21/01/2026]',-129414.2,-179882.2,-137725.5,-15182.2,-375000,-375000,-150629.7,-154163.8,0.03,0.00,0.88,-4,0,-2,40,0
'[11:53:02.572 21/01/2026]',-129448.4,-179924.2,-137764.5,-15224.04,-375000,-375000,-150670.4,-153948.3,0.03,0.00,0.88,-4,0,-2,40,0
'[11:53:02.576 21/01/2026]',-129468.1,-179934.7,-137760.2,-15214.88,-375000,-375000,-150678.6,-154222.2,0.03,0.00,0.88,-4,0,-2,40,0
'[11:53:02.580 21/01/2026]',-129416.2,-179894.2,-137709,-15160.38,-375000,-375000,-150633.3,-154454.9,0.03,0.00,0.88,-4,0,-2,40,0
'[11:53:02.584 21/01/2026]',-129418,-179888.8,-137710.5,-15176.3,-375000,-375000,-150636.2,-154234.5,0.03,0.00,0.88,-4,0,-2,40,0
'[11:53:02.588 21/01/2026]',-129460.5,-179930.7,-137771.8,-15241.3,-375000,-375000,-150692.2,-153971.4,0.03,0.00,0.88,-4,0,-2,40,0
'[11:53:02.592 21/01/2026]',-129478.2,-179930.4,-137766.4,-15232.76,-375000,-375000,-150695,-154167.1,0.03,0.00,0.88,-4,0,-2,40,0
'[11:53:02.596 21/01/2026]',-129440.2,-179885,-137709.7,-15164.85,-375000,-375000,-150641,-154458.5,0.03,0.00,0.88,-4,0,-2,40,0
'[11:53:02.600 21/01/2026]',-129409.6,-179868.3,-137702.6,-15155.55,-375000,-375000,-150624.7,-154288.5,0.03,0.00,0.88,-4,0,-2,40,0
'[11:53:02.604 21/01/2026]',-129429.7,-179910.5,-137746.6,-15206.74,-375000,-375000,-150659.5,-153978.1,0.03,0.00,0.88,-4,0,-2,40,0
'[11:53:02.608 21/01/2026]',-129442.1,-179924.5,-137752.3,-15209.07,-375000,-375000,-150666.4,-154111.7,0.03,0.00,0.88,-4,0,-2,40,0
'[11:53:02.612 21/01/2026]',-129428.7,-179888.5,-137723.8,-15169.06,-375000,-375000,-150638.7,-154474.8,0.03,0.00,0.88,-4,0,-2,40,0
'[11:53:02.616 21/01/2026]',-129428.9,-179880.8,-137707,-15162.26,-375000,-375000,-150625,-154396.6,0.03,0.00,0.88,-4,0,-2,40,0
'[11:53:02.620 21/01/2026]',-129457.5,-179920.5,-137745.3,-15214.56,-375000,-375000,-150662.9,-154069.4,0.03,0.00,0.88,-4,0,-2,40,0
'[11:53:02.624 21/01/2026]',-129467,-179941.3,-137758,-15232.31,-375000,-375000,-150681.2,-154087.7,0.03,0.00,0.88,-4,0,-2,40,0
'[11:53:02.628 21/01/2026]',-129441.3,-179907.5,-137710.7,-15180.59,-375000,-375000,-150647.3,-154439.4,0.03,0.00,0.88,-4,0,-2,40,0
'[11:53:02.632 21/01/2026]',-129422,-179887.3,-137697.3,-15159.8,-375000,-375000,-150625.5,-154457,0.03,0.00,0.88,-4,0,-2,40,0
'[11:53:02.636 21/01/2026]',-129423.9,-179906.5,-137765.6,-15215.99,-375000,-375000,-150666.7,-154132,0.03,0.00,0.88,-4,0,-2,40,0
'[11:53:02.640 21/01/2026]',-129454.6,-179923.8,-137777.9,-15240.58,-375000,-375000,-150687.3,-154042.3,0.03,0.00,0.88,-4,0,-2,40,0
'[11:53:02.644 21/01/2026]',-129478,-179920,-137733.6,-15198.47,-375000,-375000,-150649.4,-154392.6,0.03,0.00,0.88,-4,0,-2,40,0
'[11:53:02.648 21/01/2026]',-129451,-179918.3,-137689.7,-15161.05,-375000,-375000,-150613.4,-154477.3,0.03,0.00,0.88,-4,0,-2,40,0
'[11:53:02.652 21/01/2026]',-129438.8,-179935.8,-137723.4,-15195.74,-375000,-375000,-150641.5,-154173.8,0.03,0.00,0.88,-4,0,-2,40,0
'[11:53:02.656 21/01/2026]',-129448.1,-179937.2,-137753.8,-15220.38,-375000,-375000,-150661.8,-154005.7,0.03,0.00,0.88,-4,0,-2,40,0
'[11:53:02.660 21/01/2026]',-129419.8,-179910.6,-137727.7,-15183.27,-375000,-375000,-150638.1,-154323.3,0.03,0.00,0.88,-4,0,-2,40,0
'[11:53:02.664 21/01/2026]',-129409.6,-179883.5,-137685.9,-15141.7,-375000,-375000,-150606.2,-154488.4,0.03,0.02,0.89,-4,0,-2,40,0
'[11:53:02.668 21/01/2026]',-129422.6,-179896.5,-137722.9,-15171.33,-375000,-375000,-150629.4,-154205.8,0.03,0.02,0.89,-4,0,-2,40,0
'[11:53:02.672 21/01/2026]',-129431.7,-179925.7,-137769.4,-15216.22,-375000,-375000,-150666.9,-153947.7,0.03,0.02,0.89,-4,0,-2,40,0
'[11:53:02.676 21/01/2026]',-129426.2,-179909.9,-137734.3,-15190.07,-375000,-375000,-150650.4,-154211.4,0.03,0.02,0.89,-4,0,-2,40,0
'[11:53:02.680 21/01/2026]',-129429.2,-179890.9,-137699.6,-15157.39,-375000,-375000,-150621.7,-154470.5,0.03,0.02,0.89,-4,0,-2,40,0
'[11:53:02.684 21/01/2026]',-129442.9,-179894.8,-137700.5,-15172.01,-375000,-375000,-150620.3,-154243.8,0.03,0.02,0.89,-4,0,-2,40,0
'[11:53:02.688 21/01/2026]',-129457,-179934.4,-137729.7,-15208.26,-375000,-375000,-150650.4,-153944.4,0.03,0.02,0.89,-4,0,-2,40,0
'[11:53:02.692 21/01/2026]',-129454.8,-179942.9,-137725.5,-15196.91,-375000,-375000,-150653.5,-154148.4,0.03,0.02,0.89,-4,0,-2,40,0
'[11:53:02.696 21/01/2026]',-129426.4,-179902,-137683,-15147.37,-375000,-375000,-150615.7,-154464.3,0.03,0.02,0.89,-4,0,-2,40,0
'[11:53:02.700 21/01/2026]',-129409,-179875.8,-137675.3,-15139.6,-375000,-375000,-150600,-154283.2,0.02,-0.02,0.88,-4,0,-2,40,0
'[11:53:02.704 21/01/2026]',-129426.7,-179923.9,-137744.2,-15200.35,-375000,-375000,-150651,-153967.2,0.02,-0.02,0.88,-4,0,-2,40,0
'[11:53:02.708 21/01/2026]',-129424,-179945.4,-137756.3,-15210.45,-375000,-375000,-150672.6,-154107.7,0.02,-0.02,0.88,-4,0,-2,40,0
'[11:53:02.712 21/01/2026]',-129421.2,-179901.9,-137701.9,-15164.85,-375000,-375000,-150642.1,-154461.1,0.02,-0.02,0.88,-4,0,-2,40,0
'[11:53:02.716 21/01/2026]',-129442.6,-179888.3,-137694.9,-15160.47,-375000,-375000,-150630.9,-154390.4,0.02,-0.02,0.88,-4,0,-2,40,0
'[11:53:02.720 21/01/2026]',-129443.5,-179904.3,-137721.1,-15186.31,-375000,-375000,-150637.6,-154048.8,0.02,-0.02,0.88,-4,0,-2,40,0
'[11:53:02.724 21/01/2026]',-129459.3,-179935.7,-137751,-15210.63,-375000,-375000,-150666.6,-154082.9,0.02,-0.02,0.88,-4,0,-2,40,0
'[11:53:02.728 21/01/2026]',-129412.8,-179893.8,-137686.8,-15153.54,-375000,-375000,-150624.8,-154449.6,0.02,-0.02,0.88,-4,0,-2,40,0
'[11:53:02.732 21/01/2026]',-129397.6,-179867.8,-137655.6,-15125.16,-375000,-375000,-150593.5,-154446.3,0.02,-0.02,0.88,-4,0,-2,40,0
'[11:53:02.736 21/01/2026]',-129397.6,-179904.1,-137714.9,-15182.29,-375000,-375000,-150632.1,-154122.2,0.02,0.00,0.89,-4,0,-2,40,0
'[11:53:02.740 21/01/2026]',-129416.7,-179926.5,-137746.6,-15220.38,-375000,-375000,-150664.8,-154052.9,0.02,0.00,0.89,-4,0,-2,40,0
'[11:53:02.744 21/01/2026]',-129459.6,-179921.7,-137731.3,-15208.44,-375000,-375000,-150665.8,-154429.8,0.02,0.00,0.89,-4,0,-2,40,0
'[11:53:02.748 21/01/2026]',-129439,-179893.8,-137694.5,-15163.33,-375000,-375000,-150628.1,-154507.6,0.02,0.00,0.89,-4,0,-2,40,0
'[11:53:02.752 21/01/2026]',-129427.2,-179922.1,-137735.3,-15196.15,-375000,-375000,-150645.2,-154184.4,0.02,0.00,0.89,-4,0,-2,40,0
'[11:53:02.756 21/01/2026]',-129448.4,-179956.2,-137768.3,-15237.18,-375000,-375000,-150685,-154024,0.02,0.00,0.89,-4,0,-2,40,0
'[11:53:02.760 21/01/2026]',-129436.1,-179921.5,-137726.9,-15190.69,-375000,-375000,-150661.1,-154344,0.02,0.00,0.89,-4,0,-2,40,0
'[11:53:02.764 21/01/2026]',-129387.5,-179877.4,-137680,-15134.9,-375000,-375000,-150612.8,-154498.3,0.02,0.00,0.89,-4,0,-2,40,0
'[11:53:02.768 21/01/2026]',-129416.9,-179898.7,-137708.5,-15171.47,-375000,-375000,-150639.4,-154203.7,0.02,0.00,0.89,-4,0,-2,40,0
'[11:53:02.772 21/01/2026]',-129452.8,-179932.5,-137752.8,-15224.31,-375000,-375000,-150687.8,-153989.4,0.02,0.00,0.88,-4,0,-2,40,0
'[11:53:02.776 21/01/2026]',-129420.8,-179906.8,-137725.5,-15194.4,-375000,-375000,-150665.1,-154243.5,0.02,0.00,0.88,-4,0,-2,40,0
'[11:53:02.780 21/01/2026]',-129410.1,-179891.6,-137680.8,-15152.87,-375000,-375000,-150629.6,-154491.8,0.02,0.00,0.88,-4,0,-2,40,0
'[11:53:02.784 21/01/2026]',-129435.1,-179910.1,-137699.6,-15174.96,-375000,-375000,-150638.3,-154272.3,0.02,0.00,0.88,-4,0,-2,40,0
'[11:53:02.788 21/01/2026]',-129446.5,-179930.6,-137764,-15227.17,-375000,-375000,-150672.1,-153989.2,0.02,0.00,0.88,-4,0,-2,40,0
'[11:53:02.792 21/01/2026]',-129437.2,-179932.9,-137761.6,-15221.54,-375000,-375000,-150673.2,-154176.3,0.02,0.00,0.88,-4,0,-2,40,0
'[11:53:02.796 21/01/2026]',-129417,-179893,-137693.8,-15165.97,-375000,-375000,-150624.6,-154474.4,0.02,0.00,0.88,-4,0,-2,40,0
'[11:53:02.800 21/01/2026]',-129437.1,-179887.7,-137699.5,-15174.6,-375000,-375000,-150623.8,-154307.5,0.02,0.00,0.88,-4,0,-2,40,0
'[11:53:02.804 21/01/2026]',-129447,-179937.3,-137761,-15231.55,-375000,-375000,-150670.7,-154010,0.02,0.00,0.88,-4,0,-2,40,0
'[11:53:02.808 21/01/2026]',-129466.6,-179938.9,-137745.1,-15218.72,-375000,-375000,-150670.2,-154135.9,0.03,0.00,0.88,-4,0,-2,40,0
'[11:53:02.812 21/01/2026]',-129446.6,-179899.6,-137697.8,-15168.21,-375000,-375000,-150635.6,-154483.2,0.03,0.00,0.88,-4,0,-2,40,0
'[11:53:02.816 21/01/2026]',-129382.6,-179873.2,-137697.8,-15151.08,-375000,-375000,-150611.9,-154401.7,0.03,0.00,0.88,-4,0,-2,40,0
'[11:53:02.820 21/01/2026]',-129382,-179897.2,-137734.2,-15203.52,-375000,-375000,-150650.2,-154068.9,0.03,0.00,0.88,-4,0,-2,40,0
'[11:53:02.824 21/01/2026]',-129474.4,-179930.6,-137744.6,-15233.47,-375000,-375000,-150683.2,-154115.6,0.03,0.00,0.88,-4,0,-2,40,0
'[11:53:02.828 21/01/2026]',-129458.4,-179913.1,-137701.5,-15172.5,-375000,-375000,-150641,-154473.3,0.03,0.00,0.88,-4,0,-2,40,0
'[11:53:02.832 21/01/2026]',-129420,-179885.8,-137680.3,-15146.21,-375000,-375000,-150611.2,-154455.3,0.03,0.00,0.88,-4,0,-2,40,0
'[11:53:02.836 21/01/2026]',-129442.3,-179908.6,-137736.6,-15202.05,-375000,-375000,-150645.9,-154124.8,0.03,0.00,0.88,-4,0,-2,40,0
'[11:53:02.840 21/01/2026]',-129427.8,-179931.5,-137779.4,-15237,-375000,-375000,-150673.8,-154051.6,0.03,0.00,0.88,-4,0,-2,40,0
'[11:53:02.844 21/01/2026]',-129425.8,-179906.4,-137710.5,-15182.82,-375000,-375000,-150640,-154411.4,0.03,0.00,0.88,-4,0,-2,40,0
'[11:53:02.848 21/01/2026]',-129416.6,-179877.4,-137659.9,-15137.09,-375000,-375000,-150602.4,-154478.9,0.03,0.00,0.88,-4,0,-2,40,0
'[11:53:02.852 21/01/2026]',-129453.4,-179909.4,-137702.4,-15183.18,-375000,-375000,-150635.1,-154161,0.03,0.00,0.88,-4,0,-2,40,0
'[11:53:02.856 21/01/2026]',-129452.1,-179920.4,-137731.9,-15209.11,-375000,-375000,-150656.9,-153982.1,0.03,0.00,0.88,-4,0,-2,40,0
'[11:53:02.860 21/01/2026]',-129403.8,-179888.5,-137723.8,-15179.83,-375000,-375000,-150638.9,-154316.3,0.03,0.00,0.88,-4,0,-2,40,0
'[11:53:02.864 21/01/2026]',-129380.8,-179856.8,-137688.8,-15141.83,-375000,-375000,-150603.3,-154495.4,0.03,0.00,0.88,-4,0,-2,40,0
'[11:53:02.868 21/01/2026]',-129422.8,-179882.2,-137698.3,-15172.32,-375000,-375000,-150626.6,-154187.5,0.03,0.00,0.88,-4,0,-2,40,0
'[11:53:02.872 21/01/2026]',-129451.8,-179927,-137764.2,-15237.9,-375000,-375000,-150686.9,-153968.7,0.03,0.00,0.88,-4,0,-2,40,0
'[11:53:02.876 21/01/2026]',-129446.9,-179918.2,-137747.1,-15209.56,-375000,-375000,-150669.6,-154239,0.03,0.00,0.88,-4,0,-2,40,0
'[11:53:02.880 21/01/2026]',-129408.8,-179873.4,-137680.5,-15142.68,-375000,-375000,-150610.6,-154464,0.02,0.00,0.88,-4,0,-2,40,0
'[11:53:02.884 21/01/2026]',-129413.6,-179884.3,-137681.3,-15158.46,-375000,-375000,-150611.8,-154226,0.02,0.00,0.88,-4,0,-2,40,0
'[11:53:02.888 21/01/2026]',-129442.4,-179920.7,-137739.3,-15214.65,-375000,-375000,-150653.3,-153957.7,0.02,0.00,0.88,-4,0,-2,40,0
'[11:53:02.892 21/01/2026]',-129437.1,-179909.3,-137731.2,-15201.29,-375000,-375000,-150647,-154160.6,0.02,0.00,0.88,-4,0,-2,40,0
'[11:53:02.896 21/01/2026]',-129422.3,-179873.8,-137676.1,-15154.79,-375000,-375000,-150606.9,-154471.3,0.02,0.00,0.88,-4,0,-2,40,0
'[11:53:02.900 21/01/2026]',-129415,-179873.5,-137681.1,-15160.16,-375000,-375000,-150603.5,-154307.2,0.02,0.00,0.88,-4,0,-2,40,0
'[11:53:02.904 21/01/2026]',-129411.8,-179920,-137775.1,-15229.23,-375000,-375000,-150656.2,-153999.6,0.02,0.00,0.88,-4,0,-2,40,0
'[11:53:02.908 21/01/2026]',-129433.9,-179936.7,-137784.7,-15242.15,-375000,-375000,-150676.5,-154151.1,0.02,0.00,0.88,-4,0,-2,40,0
'[11:53:02.912 21/01/2026]',-129448.9,-179880.5,-137671.9,-15155.64,-375000,-375000,-150612,-154493.2,0.02,0.00,0.88,-4,0,-2,40,0
'[11:53:02.916 21/01/2026]',-129420.9,-179867.7,-137652.5,-15131.1,-375000,-375000,-150586.1,-154383.9,0.03,-0.02,0.86,-4,0,-2,40,0
'[11:53:02.920 21/01/2026]',-129443.6,-179912.8,-137728.9,-15200.12,-375000,-375000,-150640.7,-154051.3,0.03,-0.02,0.86,-4,0,-2,40,0
'[11:53:02.924 21/01/2026]',-129444.4,-179909.9,-137741.8,-15213.45,-375000,-375000,-150655.6,-154089.6,0.03,-0.02,0.86,-4,0,-2,40,0
'[11:53:02.928 21/01/2026]',-129418.7,-179881.1,-137681.6,-15156.76,-375000,-375000,-150619,-154449.6,0.03,-0.02,0.86,-4,0,-2,40,0
'[11:53:02.932 21/01/2026]',-129394.2,-179860.8,-137651,-15123.73,-375000,-375000,-150591.1,-154438.9,0.03,-0.02,0.86,-4,0,-2,40,0
'[11:53:02.936 21/01/2026]',-129412,-179891.5,-137719.1,-15186.4,-375000,-375000,-150638.3,-154116.3,0.03,-0.02,0.86,-4,0,-2,40,0
'[11:53:02.940 21/01/2026]',-129450.3,-179929.7,-137767.8,-15233.65,-375000,-375000,-150677.7,-154066.4,0.03,-0.02,0.86,-4,0,-2,40,0
'[11:53:02.944 21/01/2026]',-129431.1,-179894.7,-137704.9,-15179.11,-375000,-375000,-150637,-154421.8,0.03,-0.02,0.86,-4,0,-2,40,0
'[11:53:02.948 21/01/2026]',-129424.9,-179869.3,-137657.8,-15135.35,-375000,-375000,-150602.6,-154495,0.03,-0.02,0.86,-4,0,-2,40,0
'[11:53:02.952 21/01/2026]',-129430.7,-179884.2,-137687.3,-15169.19,-375000,-375000,-150626.5,-154175.7,0.05,0.00,0.88,-4,0,-2,40,0
'[11:53:02.956 21/01/2026]',-129438.8,-179892.1,-137718.6,-15197.44,-375000,-375000,-150650.7,-154012.6,0.05,0.00,0.88,-4,0,-2,40,0
'[11:53:02.960 21/01/2026]',-129425,-179892.9,-137723.2,-15180.9,-375000,-375000,-150646.8,-154360.9,0.05,0.00,0.88,-4,0,-2,40,0
'[11:53:02.964 21/01/2026]',-129376.2,-179867,-137710.3,-15160.07,-375000,-375000,-150622.2,-154546.1,0.05,0.00,0.88,-4,0,-2,40,0
'[11:53:02.968 21/01/2026]',-129404.6,-179869.4,-137708.2,-15183.45,-375000,-375000,-150628.2,-154250.1,0.05,0.00,0.88,-4,0,-2,40,0
'[11:53:02.972 21/01/2026]',-129431,-179927.1,-137740.2,-15229.32,-375000,-375000,-150662.4,-154002.5,0.05,0.00,0.88,-4,0,-2,40,0
'[11:53:02.976 21/01/2026]',-129447.7,-179909.7,-137718.6,-15205.44,-375000,-375000,-150648.2,-154254,0.05,0.00,0.88,-4,0,-2,40,0
'[11:53:02.980 21/01/2026]',-129443,-179876.8,-137664.9,-15147.73,-375000,-375000,-150597,-154484.7,0.05,0.00,0.88,-4,0,-2,40,0
'[11:53:02.984 21/01/2026]',-129433,-179895.4,-137685.3,-15164.63,-375000,-375000,-150605.4,-154246.2,0.05,0.00,0.88,-4,0,-2,40,0
'[11:53:02.988 21/01/2026]',-129445.4,-179911.6,-137740.7,-15218.5,-375000,-375000,-150647.1,-153960.9,0.03,0.00,0.88,-4,0,-2,40,0
'[11:53:02.992 21/01/2026]',-129419.7,-179904.7,-137750.6,-15216.22,-375000,-375000,-150652.7,-154184.2,0.03,0.00,0.88,-4,0,-2,40,0
'[11:53:02.996 21/01/2026]',-129418.3,-179881.9,-137707.1,-15168.07,-375000,-375000,-150619.9,-154495.4,0.03,0.00,0.88,-4,0,-2,40,0
'[11:53:03.000 21/01/2026]',-129438.2,-179889.3,-137698.5,-15171.87,-375000,-375000,-150617.2,-154338.1,0.03,0.00,0.88,-4,0,-2,40,0
'[11:53:03.004 21/01/2026]',-129452.9,-179906.1,-137732.3,-15220.24,-375000,-375000,-150648.6,-154013.7,0.03,0.00,0.88,-4,0,-2,40,0
'[11:53:03.008 21/01/2026]',-129437.5,-179903.7,-137728.8,-15210.99,-375000,-375000,-150652.4,-154125.1,0.03,0.00,0.88,-4,0,-2,40,0
'[11:53:03.012 21/01/2026]',-129417.8,-179878.5,-137688.3,-15155.91,-375000,-375000,-150613.7,-154460.3,0.03,0.00,0.88,-4,0,-2,40,0
'[11:53:03.016 21/01/2026]',-129431.4,-179858,-137670.5,-15144.07,-375000,-375000,-150597.2,-154370.3,0.03,0.00,0.88,-4,0,-2,40,0
'[11:53:03.020 21/01/2026]',-129435.3,-179895,-137725.3,-15196.64,-375000,-375000,-150634.5,-154022.3,0.03,0.00,0.88,-4,0,-2,40,0
'[11:53:03.024 21/01/2026]',-129415.6,-179911.1,-137756.2,-15217.11,-375000,-375000,-150654.6,-154063.4,0.03,-0.02,0.88,-4,0,-2,40,0
'[11:53:03.028 21/01/2026]',-129433.9,-179889.7,-137702.9,-15173.12,-375000,-375000,-150627.5,-154429.8,0.03,-0.02,0.88,-4,0,-2,40,0
'[11:53:03.032 21/01/2026]',-129438.5,-179869.7,-137671.7,-15149.97,-375000,-375000,-150608.2,-154442.6,0.03,-0.02,0.88,-4,0,-2,40,0
'[11:53:03.036 21/01/2026]',-129442.6,-179896.4,-137714.2,-15192.26,-375000,-375000,-150634.7,-154109.9,0.03,-0.02,0.88,-4,0,-2,40,0
'[11:53:03.040 21/01/2026]',-129456.8,-179924.9,-137748.4,-15223.91,-375000,-375000,-150660.5,-154062.6,0.03,-0.02,0.88,-4,0,-2,40,0
'[11:53:03.044 21/01/2026]',-129437.9,-179906.5,-137708.3,-15174.96,-375000,-375000,-150629.6,-154454,0.03,-0.02,0.88,-4,0,-2,40,0
'[11:53:03.048 21/01/2026]',-129388.4,-179851,-137663.6,-15122.83,-375000,-375000,-150579,-154519.5,0.03,-0.02,0.88,-4,0,-2,40,0
'[11:53:03.052 21/01/2026]',-129396.5,-179861.1,-137693.8,-15156.27,-375000,-375000,-150600.1,-154184.1,0.03,-0.02,0.88,-4,0,-2,40,0
'[11:53:03.056 21/01/2026]',-129459.9,-179921.8,-137757,-15221.54,-375000,-375000,-150663.3,-154049.7,0.03,-0.02,0.88,-4,0,-2,40,0
'[11:53:03.060 21/01/2026]',-129429.3,-179898.6,-137724.5,-15184.39,-375000,-375000,-150643.9,-154373.8,0.03,0.00,0.88,-4,0,-2,40,0
'[11:53:03.064 21/01/2026]',-129420,-179860.3,-137673.3,-15144.02,-375000,-375000,-150613.3,-154540,0.03,0.00,0.88,-4,0,-2,40,0
'[11:53:03.068 21/01/2026]',-129441.8,-179873.9,-137686.3,-15170.31,-375000,-375000,-150625.1,-154254.1,0.03,0.00,0.88,-4,0,-2,40,0
'[11:53:03.072 21/01/2026]',-129472.7,-179917.7,-137745.4,-15224.04,-375000,-375000,-150666.8,-154027.9,0.03,0.00,0.88,-4,0,-2,40,0
'[11:53:03.076 21/01/2026]',-129421.2,-179909.9,-137735.7,-15197.35,-375000,-375000,-150647.7,-154302.3,0.03,0.00,0.88,-4,0,-2,40,0
'[11:53:03.080 21/01/2026]',-129409.5,-179871,-137684.3,-15149.3,-375000,-375000,-150608.5,-154540,0.03,0.00,0.88,-4,0,-2,40,0
'[11:53:03.084 21/01/2026]',-129441.9,-179887,-137683.7,-15163.51,-375000,-375000,-150615.1,-154305.4,0.03,0.00,0.88,-4,0,-2,40,0
'[11:53:03.088 21/01/2026]',-129473.8,-179924.5,-137733.6,-15214.03,-375000,-375000,-150653,-154014.1,0.03,0.00,0.88,-4,0,-2,40,0
'[11:53:03.092 21/01/2026]',-129456.6,-179915.3,-137735.7,-15209.56,-375000,-375000,-150658.2,-154221.7,0.03,0.00,0.88,-4,0,-2,40,0
'[11:53:03.096 21/01/2026]',-129405.6,-179861.6,-137689.7,-15148.67,-375000,-375000,-150606.3,-154504.5,0.02,0.00,0.88,-4,0,-2,40,0
'[11:53:03.100 21/01/2026]',-129403.2,-179863.1,-137696.6,-15158.55,-375000,-375000,-150609.9,-154351.9,0.02,0.00,0.88,-4,0,-2,40,0
'[11:53:03.104 21/01/2026]',-129446.2,-179911,-137746.6,-15224.98,-375000,-375000,-150663.3,-154046.3,0.02,0.00,0.88,-4,0,-2,40,0
'[11:53:03.108 21/01/2026]',-129458.6,-179916.4,-137744.7,-15220.82,-375000,-375000,-150665.1,-154151.3,0.02,0.00,0.88,-4,0,-2,40,0
'[11:53:03.112 21/01/2026]',-129425.4,-179889.2,-137696.6,-15174.42,-375000,-375000,-150627.9,-154491.4,0.02,0.00,0.88,-4,0,-2,40,0
'[11:53:03.116 21/01/2026]',-129415.8,-179867.5,-137678.6,-15154.97,-375000,-375000,-150603.6,-154387.8,0.02,0.00,0.88,-4,0,-2,40,0
'[11:53:03.120 21/01/2026]',-129422.2,-179893.1,-137720.2,-15194.22,-375000,-375000,-150627.8,-154045.4,0.02,0.00,0.88,-4,0,-2,40,0
'[11:53:03.124 21/01/2026]',-129456.3,-179914.3,-137727.3,-15205.31,-375000,-375000,-150642.4,-154078.9,0.02,0.00,0.88,-4,0,-2,40,0
'[11:53:03.128 21/01/2026]',-129446.4,-179904.6,-137691.3,-15168.97,-375000,-375000,-150621.1,-154444.4,0.02,0.00,0.88,-4,0,-2,40,0
'[11:53:03.132 21/01/2026]',-129408.8,-179883.2,-137682.1,-15156.27,-375000,-375000,-150603.2,-154433.4,0.03,0.00,0.89,-4,0,-2,40,0
'[11:53:03.136 21/01/2026]',-129420.8,-179897.4,-137736.9,-15206.74,-375000,-375000,-150634.3,-154091.2,0.03,0.00,0.89,-4,0,-2,40,0
'[11:53:03.140 21/01/2026]',-129448.5,-179923,-137766.5,-15237.94,-375000,-375000,-150665.4,-154054.3,0.03,0.00,0.89,-4,0,-2,40,0
'[11:53:03.144 21/01/2026]',-129456.6,-179910,-137722.2,-15196.24,-375000,-375000,-150646.8,-154441.7,0.03,0.00,0.89,-4,0,-2,40,0
'[11:53:03.148 21/01/2026]',-129418.6,-179882.6,-137675.7,-15157.3,-375000,-375000,-150606.1,-154525.5,0.03,0.00,0.89,-4,0,-2,40,0
'[11:53:03.152 21/01/2026]',-129433.9,-179914,-137719.1,-15202.45,-375000,-375000,-150634.7,-154191.1,0.03,0.00,0.89,-4,0,-2,40,0
'[11:53:03.156 21/01/2026]',-129475,-179925.5,-137737.7,-15219.08,-375000,-375000,-150655.4,-154041.8,0.03,0.00,0.89,-4,0,-2,40,0
'[11:53:03.160 21/01/2026]',-129457.4,-179905.6,-137698.6,-15180.81,-375000,-375000,-150634.6,-154374.8,0.03,0.00,0.89,-4,0,-2,40,0
'[11:53:03.164 21/01/2026]',-129429.2,-179875.4,-137671.8,-15148.76,-375000,-375000,-150604.8,-154546,0.03,0.00,0.89,-4,0,-2,40,0
'[11:53:03.168 21/01/2026]',-129419.6,-179881,-137715.3,-15185.06,-375000,-375000,-150625.8,-154272,0.02,0.00,0.88,-4,0,-2,40,0
'[11:53:03.172 21/01/2026]',-129432.9,-179896,-137760.4,-15227.13,-375000,-375000,-150656.3,-154047.5,0.02,0.00,0.88,-4,0,-2,40,0
'[11:53:03.176 21/01/2026]',-129434.9,-179897.1,-137739.6,-15210.45,-375000,-375000,-150649,-154335.9,0.02,0.00,0.88,-4,0,-2,40,0
'[11:53:03.180 21/01/2026]',-129418,-179889,-137682.6,-15164.99,-375000,-375000,-150611.2,-154574.5,0.02,0.00,0.88,-4,0,-2,40,0
'[11:53:03.184 21/01/2026]',-129445.3,-179901.2,-137696.2,-15189.98,-375000,-375000,-150618.4,-154323.4,0.02,0.00,0.88,-4,0,-2,40,0
'[11:53:03.188 21/01/2026]',-129482.2,-179934,-137737.9,-15233.43,-375000,-375000,-150652.2,-154025.6,0.02,0.00,0.88,-4,0,-2,40,0
'[11:53:03.192 21/01/2026]',-129464.8,-179922.9,-137724.2,-15213,-375000,-375000,-150647.9,-154239.2,0.02,0.00,0.88,-4,0,-2,40,0
'[11:53:03.196 21/01/2026]',-129422.1,-179867.1,-137673.3,-15158.46,-375000,-375000,-150606.5,-154527.1,0.02,0.00,0.88,-4,0,-2,40,0
'[11:53:03.200 21/01/2026]',-129401,-179858.8,-137680.8,-15162.57,-375000,-375000,-150603.5,-154338.1,0.02,0.00,0.88,-4,0,-2,40,0
'[11:53:03.204 21/01/2026]',-129429.4,-179909.7,-137730.2,-15211.88,-375000,-375000,-150648.3,-154037.7,0.03,0.00,0.88,-4,0,-2,40,0
'[11:53:03.208 21/01/2026]',-129446.5,-179917,-137734.4,-15212.6,-375000,-375000,-150664.2,-154169.8,0.03,0.00,0.88,-4,0,-2,40,0
'[11:53:03.212 21/01/2026]',-129415.9,-179880.2,-137696.8,-15164.58,-375000,-375000,-150629,-154505.3,0.03,0.00,0.88,-4,0,-2,40,0
'[11:53:03.216 21/01/2026]',-129382,-179869.9,-137708.5,-15158.68,-375000,-375000,-150612.2,-154398.4,0.03,0.00,0.88,-4,0,-2,40,0
'[11:53:03.220 21/01/2026]',-129426.5,-179899,-137761.1,-15214.79,-375000,-375000,-150648.7,-154056.9,0.03,0.00,0.88,-4,0,-2,40,0
'[11:53:03.224 21/01/2026]',-129464.5,-179922.7,-137763,-15243.58,-375000,-375000,-150678.2,-154102,0.03,0.00,0.88,-4,0,-2,40,0
'[11:53:03.228 21/01/2026]',-129455,-179902.5,-137690.4,-15183.05,-375000,-375000,-150635.8,-154451.2,0.03,0.00,0.88,-4,0,-2,40,0
'[11:53:03.232 21/01/2026]',-129425.9,-179882,-137655.2,-15140.67,-375000,-375000,-150596.8,-154419.2,0.03,0.00,0.88,-4,0,-2,40,0
'[11:53:03.236 21/01/2026]',-129452.7,-179910.8,-137711.5,-15193.64,-375000,-375000,-150638.3,-154108.8,0.03,0.00,0.88,-4,0,-2,40,0
'[11:53:03.240 21/01/2026]',-129446.4,-179926.7,-137743.6,-15220.69,-375000,-375000,-150664.1,-154036.4,0.02,0.00,0.89,-4,0,-2,40,0
'[11:53:03.244 21/01/2026]',-129431.4,-179893,-137701.8,-15172.01,-375000,-375000,-150629.4,-154424,0.02,0.00,0.89,-4,0,-2,40,0
'[11:53:03.248 21/01/2026]',-129404.7,-179854.7,-137682.5,-15141.56,-375000,-375000,-150598.3,-154485.1,0.02,0.00,0.89,-4,0,-2,40,0
'[11:53:03.252 21/01/2026]',-129384,-179868.6,-137723.6,-15185.15,-375000,-375000,-150622.2,-154158.1,0.02,0.00,0.89,-4,0,-2,40,0
'[11:53:03.256 21/01/2026]',-129447.2,-179909.8,-137750.8,-15226.14,-375000,-375000,-150657,-154027.5,0.02,0.00,0.89,-4,0,-2,40,0
'[11:53:03.260 21/01/2026]',-129470.2,-179896.9,-137715.3,-15192.35,-375000,-375000,-150642.3,-154391.4,0.02,0.00,0.89,-4,0,-2,40,0
'[11:53:03.264 21/01/2026]',-129415.4,-179874.6,-137679.5,-15147.42,-375000,-375000,-150600.5,-154532.7,0.02,0.00,0.89,-4,0,-2,40,0
'[11:53:03.268 21/01/2026]',-129441.2,-179890.1,-137696.5,-15177.95,-375000,-375000,-150618,-154240.5,0.02,0.00,0.89,-4,0,-2,40,0
'[11:53:03.272 21/01/2026]',-129477.3,-179914.2,-137723.6,-15211.08,-375000,-375000,-150647,-154020.8,0.02,0.00,0.89,-4,0,-2,40,0
'[11:53:03.276 21/01/2026]',-129444,-179891.6,-137696.4,-15180.01,-375000,-375000,-150628.4,-154298.1,0.03,0.00,0.88,-4,0,-2,40,0
'[11:53:03.280 21/01/2026]',-129418.3,-179859.8,-137671.5,-15144.6,-375000,-375000,-150602.8,-154547.4,0.03,0.00,0.88,-4,0,-2,40,0
'[11:53:03.284 21/01/2026]',-129412.8,-179864.2,-137695.6,-15169.5,-375000,-375000,-150612.8,-154306.2,0.03,0.00,0.88,-4,0,-2,40,0
'[11:53:03.288 21/01/2026]',-129437.4,-179900,-137747.3,-15228.11,-375000,-375000,-150657,-154039.6,0.03,0.00,0.88,-4,0,-2,40,0
'[11:53:03.292 21/01/2026]',-129443.2,-179910.3,-137734.1,-15215.95,-375000,-375000,-150657,-154254.3,0.03,0.00,0.88,-4,0,-2,40,0
'[11:53:03.296 21/01/2026]',-129430.5,-179872.8,-137678.3,-15159,-375000,-375000,-150613.6,-154539,0.03,0.00,0.88,-4,0,-2,40,0
'[11:53:03.300 21/01/2026]',-129416.1,-179867.7,-137681.6,-15161.46,-375000,-375000,-150608.3,-154376,0.03,0.00,0.88,-4,0,-2,40,0
'[11:53:03.304 21/01/2026]',-129422.3,-179900.2,-137756.8,-15220.78,-375000,-375000,-150650.6,-154059.3,0.03,0.00,0.88,-4,0,-2,40,0
'[11:53:03.308 21/01/2026]',-129417.6,-179892.2,-137782.5,-15225.16,-375000,-375000,-150653.8,-154176.1,0.03,0.00,0.88,-4,0,-2,40,0
'[11:53:03.312 21/01/2026]',-129437.8,-179856.4,-137688.1,-15168.07,-375000,-375000,-150608.7,-154506.9,0.02,0.00,0.88,-4,0,-2,40,0
'[11:53:03.316 21/01/2026]',-129439.9,-179864.1,-137660.6,-15154.97,-375000,-375000,-150597.7,-154416.4,0.02,0.00,0.88,-4,0,-2,40,0
'[11:53:03.320 21/01/2026]',-129463.6,-179905.7,-137709.4,-15204.37,-375000,-375000,-150639.6,-154077.4,0.02,0.00,0.88,-4,0,-2,40,0
'[11:53:03.324 21/01/2026]',-129470.6,-179930.8,-137732,-15222.97,-375000,-375000,-150660,-154106.2,0.02,0.00,0.88,-4,0,-2,40,0
'[11:53:03.328 21/01/2026]',-129438.9,-179879.3,-137672.5,-15161.72,-375000,-375000,-150612.2,-154451,0.02,0.00,0.88,-4,0,-2,40,0
'[11:53:03.332 21/01/2026]',-129406.3,-179850.6,-137663.1,-15148.54,-375000,-375000,-150594.2,-154462.3,0.02,0.00,0.88,-4,0,-2,40,0
'[11:53:03.336 21/01/2026]',-129420.2,-179895.2,-137732.7,-15208.98,-375000,-375000,-150638.7,-154127.5,0.02,0.00,0.88,-4,0,-2,40,0
'[11:53:03.340 21/01/2026]',-129445.5,-179899.6,-137762.3,-15229.81,-375000,-375000,-150656.8,-154063.5,0.02,0.00,0.88,-4,0,-2,40,0
'[11:53:03.344 21/01/2026]',-129433.4,-179876.7,-137714.5,-15186.4,-375000,-375000,-150630.3,-154421.8,0.02,0.00,0.88,-4,0,-2,40,0
'[11:53:03.348 21/01/2026]',-129438.9,-179865.2,-137683,-15161.68,-375000,-375000,-150614.7,-154496.5,0.02,0.00,0.89,-4,0,-2,40,0
'[11:53:03.352 21/01/2026]',-129441.6,-179884,-137709.7,-15199.9,-375000,-375000,-150635.8,-154181.9,0.02,0.00,0.89,-4,0,-2,40,0
'[11:53:03.356 21/01/2026]',-129465.5,-179915.4,-137748.7,-15233.43,-375000,-375000,-150663.5,-154028.9,0.02,0.00,0.89,-4,0,-2,40,0
'[11:53:03.360 21/01/2026]',-129434.5,-179890.7,-137713.7,-15189.98,-375000,-375000,-150634.6,-154356.5,0.02,0.00,0.89,-4,0,-2,40,0
'[11:53:03.364 21/01/2026]',-129403,-179858.1,-137675.2,-15152.25,-375000,-375000,-150603.2,-154521.5,0.02,0.00,0.89,-4,0,-2,40,0
'[11:53:03.368 21/01/2026]',-129434.5,-179865.9,-137696.7,-15181.84,-375000,-375000,-150629.5,-154239.3,0.02,0.00,0.89,-4,0,-2,40,0
'[11:53:03.372 21/01/2026]',-129455.8,-179897.3,-137730.8,-15223.95,-375000,-375000,-150670.8,-154022.8,0.02,0.00,0.89,-4,0,-2,40,0
'[11:53:03.376 21/01/2026]',-129452.6,-179879.2,-137699.1,-15190.83,-375000,-375000,-150653.8,-154306.5,0.02,0.00,0.89,-4,0,-2,40,0
'[11:53:03.380 21/01/2026]',-129410.6,-179842.6,-137658.5,-15140.58,-375000,-375000,-150615.2,-154537.9,0.02,0.00,0.89,-4,0,-2,40,0
'[11:53:03.384 21/01/2026]',-129406.9,-179848.1,-137666.5,-15149.65,-375000,-375000,-150609.8,-154295.4,0.03,0.00,0.88,-4,0,-2,40,0
'[11:53:03.388 21/01/2026]',-129424.1,-179896.7,-137707.8,-15191.18,-375000,-375000,-150639.5,-154026.2,0.03,0.00,0.88,-4,0,-2,40,0
'[11:53:03.392 21/01/2026]',-129432.4,-179900.8,-137717.6,-15187.96,-375000,-375000,-150646.9,-154260,0.03,0.00,0.88,-4,0,-2,40,0
'[11:53:03.396 21/01/2026]',-129429.6,-179865.8,-137677.8,-15144.6,-375000,-375000,-150615,-154559,0.03,0.00,0.88,-4,0,-2,40,0
'[11:53:03.400 21/01/2026]',-129416.1,-179842.1,-137673.1,-15145.14,-375000,-375000,-150603.1,-154374.3,0.03,0.00,0.88,-4,0,-2,40,0
'[11:53:03.404 21/01/2026]',-129431.4,-179869.9,-137716.3,-15186.71,-375000,-375000,-150638,-154050.5,0.03,0.00,0.88,-4,0,-2,40,0
'[11:53:03.408 21/01/2026]',-129436.1,-179884,-137697.6,-15183.72,-375000,-375000,-150652.3,-154194.7,0.03,0.00,0.88,-4,0,-2,40,0
'[11:53:03.412 21/01/2026]',-129419.2,-179856.6,-137654.4,-15134.46,-375000,-375000,-150613,-154528.9,0.03,0.00,0.88,-4,0,-2,40,0
'[11:53:03.416 21/01/2026]',-129396.7,-179852.8,-137657.1,-15135.89,-375000,-375000,-150605.6,-154440.8,0.03,0.00,0.88,-4,0,-2,40,0
'[11:53:03.420 21/01/2026]',-129393.8,-179883.6,-137711.5,-15189.75,-375000,-375000,-150646.8,-154113.3,0.03,0.00,0.88,-4,0,-2,40,0
'[11:53:03.424 21/01/2026]',-129428.7,-179901.1,-137734.2,-15206.88,-375000,-375000,-150666.1,-154153.2,0.03,0.00,0.88,-4,0,-2,40,0
'[11:53:03.428 21/01/2026]',-129437.6,-179872.9,-137697.4,-15159.76,-375000,-375000,-150629.9,-154525.8,0.03,0.00,0.88,-4,0,-2,40,0
'[11:53:03.432 21/01/2026]',-129402.2,-179836.6,-137670.9,-15128.29,-375000,-375000,-150590.8,-154502,0.03,0.00,0.88,-4,0,-2,40,0
'[11:53:03.436 21/01/2026]',-129394.6,-179854.7,-137716.7,-15178.98,-375000,-375000,-150622.9,-154149.8,0.03,0.00,0.88,-4,0,-2,40,0
'[11:53:03.440 21/01/2026]',-129447.4,-179882.7,-137723.9,-15207.63,-375000,-375000,-150648.8,-154097.9,0.03,0.00,0.88,-4,0,-2,40,0
'[11:53:03.444 21/01/2026]',-129439.3,-179880,-137690,-15165.26,-375000,-375000,-150625.4,-154437.9,0.03,0.00,0.88,-4,0,-2,40,0
'[11:53:03.448 21/01/2026]',-129385.9,-179840.3,-137659,-15121.8,-375000,-375000,-150586.2,-154478.1,0.03,0.00,0.88,-4,0,-2,40,0
'[11:53:03.452 21/01/2026]',-129408.6,-179871.7,-137694,-15172.77,-375000,-375000,-150617.2,-154167.8,0.03,0.00,0.88,-4,0,-2,40,0
'[11:53:03.456 21/01/2026]',-129462.7,-179924,-137739.4,-15228.78,-375000,-375000,-150670.4,-154026.8,0.03,0.00,0.88,-4,0,-2,40,0
'[11:53:03.460 21/01/2026]',-129431.4,-179888.7,-137705.8,-15188.01,-375000,-375000,-150644.2,-154350.7,0.03,0.00,0.88,-4,0,-2,40,0
'[11:53:03.464 21/01/2026]',-129390.4,-179827.1,-137657.4,-15134.01,-375000,-375000,-150593,-154490.5,0.03,0.00,0.88,-4,0,-2,40,0
'[11:53:03.468 21/01/2026]',-129398.2,-179848.4,-137691.2,-15166.6,-375000,-375000,-150609,-154209,0.03,0.00,0.88,-4,0,-2,40,0
'[11:53:03.472 21/01/2026]',-129444.2,-179887.4,-137723.9,-15205.85,-375000,-375000,-150634.5,-153988.4,0.03,0.00,0.88,-4,0,-2,40,0
'[11:53:03.476 21/01/2026]',-129457.4,-179889.3,-137704.6,-15180.46,-375000,-375000,-150627.5,-154286.2,0.03,0.00,0.88,-4,0,-2,40,0
'[11:53:03.480 21/01/2026]',-129400.3,-179855,-137666.1,-15138.03,-375000,-375000,-150596.2,-154537,0.03,0.00,0.88,-4,0,-2,40,0
'[11:53:03.484 21/01/2026]',-129399,-179858.8,-137696,-15169.06,-375000,-375000,-150612,-154309.7,0.03,0.00,0.88,-4,0,-2,40,0
'[11:53:03.488 21/01/2026]',-129438.5,-179887.5,-137745.8,-15228.56,-375000,-375000,-150657,-154058.5,0.03,0.00,0.88,-4,0,-2,40,0
'[11:53:03.492 21/01/2026]',-129439.4,-179892.3,-137736.4,-15209.74,-375000,-375000,-150651.9,-154267.4,0.03,-0.02,0.88,-4,0,-2,40,0
'[11:53:03.496 21/01/2026]',-129455.8,-179875.7,-137666.3,-15152.34,-375000,-375000,-150612,-154554.8,0.03,-0.02,0.88,-4,0,-2,40,0
'[11:53:03.500 21/01/2026]',-129442.2,-179877.2,-137665.8,-15152.87,-375000,-375000,-150603.7,-154375.5,0.03,-0.02,0.88,-4,0,-2,40,0
'[11:53:03.504 21/01/2026]',-129443.1,-179891.3,-137711.4,-15197.84,-375000,-375000,-150632.4,-154062.9,0.03,-0.02,0.88,-4,0,-2,40,0
'[11:53:03.508 21/01/2026]',-129401.3,-179884.5,-137731.7,-15200.57,-375000,-375000,-150637.6,-154195,0.03,-0.02,0.88,-4,0,-2,40,0
'[11:53:03.512 21/01/2026]',-129395.7,-179863.9,-137689.3,-15157.7,-375000,-375000,-150609,-154541.5,0.03,-0.02,0.88,-4,0,-2,40,0
'[11:53:03.516 21/01/2026]',-129423.6,-179859.1,-137679.6,-15161.72,-375000,-375000,-150608.8,-154441.6,0.03,-0.02,0.88,-4,0,-2,40,0
'[11:53:03.520 21/01/2026]',-129423.9,-179866.5,-137729.1,-15208.13,-375000,-375000,-150646,-154104.3,0.03,-0.02,0.88,-4,0,-2,40,0
'[11:53:03.524 21/01/2026]',-129457.1,-179882.3,-137728.7,-15219.79,-375000,-375000,-150666.9,-154171.8,0.03,-0.02,0.88,-4,0,-2,40,0
'[11:53:03.528 21/01/2026]',-129444.9,-179874.3,-137668.6,-15160.7,-375000,-375000,-150627.4,-154539.9,0.02,0.00,0.89,-4,0,-2,40,0
'[11:53:03.532 21/01/2026]',-129426.8,-179865.2,-137652.4,-15136.11,-375000,-375000,-150603.2,-154521.5,0.02,0.00,0.89,-4,0,-2,40,0
'[11:53:03.536 21/01/2026]',-129434.8,-179878.3,-137707.9,-15183.27,-375000,-375000,-150633.5,-154160,0.02,0.00,0.89,-4,0,-2,40,0
'[11:53:03.540 21/01/2026]',-129438.1,-179888.2,-137740.8,-15211.12,-375000,-375000,-150660.5,-154102.5,0.02,0.00,0.89,-4,0,-2,40,0
'[11:53:03.544 21/01/2026]',-129428.6,-179875.7,-137685.7,-15166.42,-375000,-375000,-150631.9,-154452.5,0.02,0.00,0.89,-4,0,-2,40,0
'[11:53:03.548 21/01/2026]',-129408.5,-179853,-137651.5,-15132.35,-375000,-375000,-150596.9,-154501.3,0.02,0.00,0.89,-4,0,-2,40,0
'[11:53:03.552 21/01/2026]',-129417.4,-179858.5,-137698.1,-15175,-375000,-375000,-150619.1,-154168,0.02,0.00,0.89,-4,0,-2,40,0
'[11:53:03.556 21/01/2026]',-129448,-179883.7,-137728.7,-15211.57,-375000,-375000,-150646.2,-154035.8,0.02,0.00,0.89,-4,0,-2,40,0
'[11:53:03.560 21/01/2026]',-129448.3,-179892,-137694.3,-15187.7,-375000,-375000,-150639.8,-154398.3,0.02,0.00,0.89,-4,0,-2,40,0
'[11:53:03.564 21/01/2026]',-129430.6,-179858.6,-137664.4,-15151.22,-375000,-375000,-150607.9,-154550.1,0.03,0.00,0.86,-4,0,-2,40,0
'[11:53:03.568 21/01/2026]',-129410.2,-179868,-137694.2,-15177.42,-375000,-375000,-150617.3,-154251.8,0.03,0.00,0.86,-4,0,-2,40,0
'[11:53:03.572 21/01/2026]',-129406.5,-179904,-137740.4,-15216.4,-375000,-375000,-150649.4,-154037.5,0.03,0.00,0.86,-4,0,-2,40,0
'[11:53:03.576 21/01/2026]',-129399.7,-179885.8,-137717.5,-15188.55,-375000,-375000,-150633,-154314.1,0.03,0.00,0.86,-4,0,-2,40,0
'[11:53:03.580 21/01/2026]',-129439.4,-179857.2,-137641.2,-15133.11,-375000,-375000,-150585.4,-154546.8,0.03,0.00,0.86,-4,0,-2,40,0
'[11:53:03.584 21/01/2026]',-129447.1,-179873.6,-137654.1,-15148.72,-375000,-375000,-150593.9,-154303.2,0.03,0.00,0.86,-4,0,-2,40,0
'[11:53:03.588 21/01/2026]',-129436.7,-179900.6,-137715.3,-15209.56,-375000,-375000,-150642,-154037.1,0.03,0.00,0.86,-4,0,-2,40,0
'[11:53:03.592 21/01/2026]',-129451.4,-179891.9,-137712.2,-15200.84,-375000,-375000,-150647.7,-154272.1,0.03,0.00,0.86,-4,0,-2,40,0
'[11:53:03.596 21/01/2026]',-129420.7,-179845.1,-137670.2,-15145.18,-375000,-375000,-150608.7,-154572.6,0.03,0.00,0.86,-4,0,-2,40,0
'[11:53:03.600 21/01/2026]',-129410.3,-179839.2,-137679.7,-15153.5,-375000,-375000,-150611.8,-154398.1,0.03,-0.02,0.88,-4,0,-2,40,0
'[11:53:03.604 21/01/2026]',-129419.5,-179880.4,-137737.8,-15213,-375000,-375000,-150655,-154083.6,0.03,-0.02,0.88,-4,0,-2,40,0
'[11:53:03.608 21/01/2026]',-129469.6,-179928.5,-137747.8,-15218.68,-375000,-375000,-150663.9,-154235.6,0.03,-0.02,0.88,-4,0,-2,40,0
'[11:53:03.612 21/01/2026]',-129451.3,-179900.3,-137680.8,-15160.79,-375000,-375000,-150621.4,-154559.5,0.03,-0.02,0.88,-4,0,-2,40,0
'[11:53:03.616 21/01/2026]',-129428,-179869.7,-137668.5,-15156.94,-375000,-375000,-150605.8,-154463.3,0.03,-0.02,0.88,-4,0,-2,40,0
'[11:53:03.620 21/01/2026]',-129434,-179895.4,-137717.7,-15201.24,-375000,-375000,-150636.7,-154117.4,0.03,-0.02,0.88,-4,0,-2,40,0
'[11:53:03.624 21/01/2026]',-129437.8,-179919.4,-137739.6,-15216.08,-375000,-375000,-150652.9,-154169.5,0.03,-0.02,0.88,-4,0,-2,40,0
'[11:53:03.628 21/01/2026]',-129410.6,-179891.3,-137690,-15169.37,-375000,-375000,-150621.8,-154552.5,0.03,-0.02,0.88,-4,0,-2,40,0
'[11:53:03.632 21/01/2026]',-129400.2,-179860.7,-137662.6,-15146.75,-375000,-375000,-150600.8,-154534,0.03,-0.02,0.88,-4,0,-2,40,0
'[11:53:03.636 21/01/2026]',-129422,-179890.1,-137716.2,-15193.87,-375000,-375000,-150635.7,-154192.7,0.03,0.00,0.88,-4,0,-2,40,0
'[11:53:03.640 21/01/2026]',-129427.2,-179907.5,-137738.2,-15212.91,-375000,-375000,-150658.6,-154133.3,0.03,0.00,0.88,-4,0,-2,40,0
'[11:53:03.644 21/01/2026]',-129445.2,-179887.6,-137701.4,-15175.45,-375000,-375000,-150641.6,-154493.1,0.03,0.00,0.88,-4,0,-2,40,0
'[11:53:03.648 21/01/2026]',-129431.4,-179853.5,-137656.8,-15134.01,-375000,-375000,-150604.5,-154552.7,0.03,0.00,0.88,-4,0,-2,40,0
'[11:53:03.652 21/01/2026]',-129414.6,-179873,-137698,-15166.11,-375000,-375000,-150620.4,-154196.1,0.03,0.00,0.88,-4,0,-2,40,0
'[11:53:03.656 21/01/2026]',-129423.1,-179904,-137737.3,-15212.37,-375000,-375000,-150661.7,-154070.1,0.03,0.00,0.88,-4,0,-2,40,0
