'Time and date','Fp1','Fp2','F3','Fz','F4','P3','Pz','P4','AccX','AccY','AccZ','GyroX','GyroY','GyroZ','Battery','Event'
'[hh:mm:ss.mmm dd/mm/yyyy]','uV','uV','uV','uV','uV','uV','uV','uV','G','G','G','Deg/s','Deg/s','Deg/s','%','Button'
'[13:38:00.000 20/01/2026]',-104985.3,-185025.1,-110295.3,-131225.3,-375000,-375000,-146748.1,-117899.3,0.03,0.00,0.88,-4,0,-2,48,0
'[13:38:00.004 20/01/2026]',-105550.6,-186134.6,-108741.9,-128419.8,-375000,-375000,-145974.9,-118800.9,0.03,0.00,0.88,-4,0,-2,48,0
'[13:38:00.008 20/01/2026]',-107452.5,-188645.7,-107601.1,-126848.4,-375000,-375000,-146197.4,-121080.6,0.03,0.00,0.88,-4,0,-2,48,0
'[13:38:00.012 20/01/2026]',-106995.3,-187547.1,-109561.4,-130442.4,-375000,-375000,-147291.5,-120206.7,0.03,0.00,0.88,-4,0,-2,48,0
'[13:38:00.016 20/01/2026]',-105109.2,-185174.7,-110407,-131513,-375000,-375000,-146896.8,-118007.2,0.03,0.00,0.88,-4,0,-2,48,0
'[13:38:00.020 20/01/2026]',-105265.4,-185787.3,-108987.1,-128880,-375000,-375000,-146018.3,-118453.7,0.03,0.00,0.88,-4,0,-2,48,0
'[13:38:00.024 20/01/2026]',-107129.6,-188314.4,-107520,-126688.3,-375000,-375000,-145992.9,-120754.2,0.03,0.00,0.88,-4,0,-2,48,0
'[13:38:00.028 20/01/2026]',-107226,-187929.2,-109065.6,-129694.2,-375000,-375000,-147106,-120568.3,0.03,0.00,0.88,-4,0,-2,48,0
'[13:38:00.032 20/01/2026]',-105243.2,-185336.5,-110438.2,-131709.9,-375000,-375000,-147019.8,-118175.4,0.03,0.00,0.88,-4,0,-2,48,0
'[13:38:00.036 20/01/2026]',-105045.1,-185525.4,-109250.8,-129358.4,-375000,-375000,-146093,-118183.6,0.03,0.00,0.88,-4,0,-2,48,0
'[13:38:00.040 20/01/2026]',-106802.8,-188012.9,-107610.6,-126784.7,-375000,-375000,-145894.3,-120402.7,0.03,0.00,0.88,-4,0,-2,48,0
'[13:38:00.044 20/01/2026]',-107481.1,-188431.1,-108665.7,-128997.9,-375000,-375000,-146966.6,-120920,0.03,0.00,0.88,-4,0,-2,48,0
'[13:38:00.048 20/01/2026]',-105531.3,-185694.1,-110477.8,-131845.9,-375000,-375000,-147198.6,-118481.3,0.03,0.00,0.88,-4,0,-2,48,0
'[13:38:00.052 20/01/2026]',-104928.3,-185302.9,-109564.4,-129908.9,-375000,-375000,-146265.6,-118012.5,0.03,0.00,0.88,-4,0,-2,48,0
'[13:38:00.056 20/01/2026]',-106474.1,-187570.3,-107835.1,-127083.3,-375000,-375000,-145891.8,-120028.2,0.03,0.00,0.88,-4,0,-2,48,0
'[13:38:00.060 20/01/2026]',-107605.9,-188702.7,-108272.4,-128296.2,-375000,-375000,-146800,-121185.8,0.03,0.00,0.88,-4,0,-2,48,0
'[13:38:00.064 20/01/2026]',-105846.4,-186099.1,-110420.6,-131811.4,-375000,-375000,-147344.9,-118874.7,0.03,0.00,0.88,-4,0,-2,48,0
'[13:38:00.068 20/01/2026]',-104873.8,-185205.7,-109863.6,-130422,-375000,-375000,-146459.2,-117938.8,0.03,0.00,0.88,-4,0,-2,48,0
'[13:38:00.072 20/01/2026]',-106131.3,-187147.8,-108108.9,-127477.7,-375000,-375000,-145921.4,-119643.9,0.03,0.00,0.88,-4,0,-2,48,0
'[13:38:00.076 20/01/2026]',-107649.4,-188888.2,-107939,-127688.9,-375000,-375000,-146615.8,-121314.2,0.03,0.00,0.88,-4,0,-2,48,0
'[13:38:00.080 20/01/2026]',-106178.6,-186549.7,-110217.2,-131557.6,-375000,-375000,-147401.5,-119299.1,0.03,0.00,0.88,-4,0,-2,48,0
'[13:38:00.084 20/01/2026]',-104867.9,-185112.9,-110111.9,-130889.2,-375000,-375000,-146638.3,-117913.5,0.03,0.00,0.88,-4,0,-2,48,0
'[13:38:00.088 20/01/2026]',-105811.9,-186677.1,-108434.8,-127956.7,-375000,-375000,-145966.4,-119248.1,0.03,0.00,0.88,-4,0,-2,48,0
'[13:38:00.092 20/01/2026]',-107596.7,-188895.9,-107763.5,-127244.4,-375000,-375000,-146445.3,-121311.8,0.03,0.00,0.88,-4,0,-2,48,0
'[13:38:00.096 20/01/2026]',-106595,-187065.9,-109999.9,-131181.1,-375000,-375000,-147447.7,-119800,0.03,0.00,0.88,-4,0,-2,48,0
'[13:38:00.100 20/01/2026]',-104960.8,-185140.5,-110325.9,-131287.9,-375000,-375000,-146817.3,-117969,0.03,0.00,0.88,-4,0,-2,48,0
'[13:38:00.104 20/01/2026]',-105535.3,-186283.4,-108748.1,-128440.5,-375000,-375000,-146027.7,-118891.5,0.03,0.00,0.88,-4,0,-2,48,0
'[13:38:00.108 20/01/2026]',-107427.7,-188762.1,-107619,-126915.6,-375000,-375000,-146253.8,-121146,0.03,-0.02,0.89,-4,0,-2,48,0
'[13:38:00.112 20/01/2026]',-106958.6,-187600.5,-109636.1,-130598.2,-375000,-375000,-147387,-120249.5,0.03,-0.02,0.89,-4,0,-2,48,0
'[13:38:00.116 20/01/2026]',-105107.9,-185264.7,-110490.6,-131628.8,-375000,-375000,-147012.7,-118099.7,0.03,-0.02,0.89,-4,0,-2,48,0
'[13:38:00.120 20/01/2026]',-105304.7,-185923.2,-109069.4,-128971.1,-375000,-375000,-146142,-118583.8,0.03,-0.02,0.89,-4,0,-2,48,0
'[13:38:00.124 20/01/2026]',-107173.5,-188459,-107621,-126836.3,-375000,-375000,-146138.2,-120882.9,0.03,-0.02,0.89,-4,0,-2,48,0
'[13:38:00.128 20/01/2026]',-107248.1,-188041.5,-109195.6,-129866.1,-375000,-375000,-147251.8,-120656.7,0.03,-0.02,0.89,-4,0,-2,48,0
'[13:38:00.132 20/01/2026]',-105284,-185445.3,-110525.8,-131809.5,-375000,-375000,-147159.9,-118295.6,0.03,-0.02,0.89,-4,0,-2,48,0
'[13:38:00.136 20/01/2026]',-105104.6,-185611.5,-109332.3,-129484,-375000,-375000,-146259.5,-118330.4,0.03,-0.02,0.89,-4,0,-2,48,0
'[13:38:00.140 20/01/2026]',-106880.5,-188097.1,-107774.8,-126994.3,-375000,-375000,-146102.5,-120562.4,0.03,-0.02,0.89,-4,0,-2,48,0
'[13:38:00.144 20/01/2026]',-107500,-188454.8,-108818.1,-129179.4,-375000,-375000,-147137.2,-121036.8,0.03,-0.02,0.88,-4,0,-2,48,0
'[13:38:00.148 20/01/2026]',-105562.5,-185772.9,-110575.6,-131923.1,-375000,-375000,-147329.5,-118616.4,0.03,-0.02,0.88,-4,0,-2,48,0
'[13:38:00.152 20/01/2026]',-105021.1,-185455,-109683.2,-130007.5,-375000,-375000,-146417.1,-118183.4,0.03,-0.02,0.88,-4,0,-2,48,0
'[13:38:00.156 20/01/2026]',-106584.6,-187736.6,-107990.8,-127253.3,-375000,-375000,-146062,-120195.8,0.03,-0.02,0.88,-4,0,-2,48,0
'[13:38:00.160 20/01/2026]',-107695.4,-188826.4,-108440.7,-128488.2,-375000,-375000,-146948.9,-121299.4,0.03,-0.02,0.88,-4,0,-2,48,0
'[13:38:00.164 20/01/2026]',-105912.8,-186175.7,-110512.6,-131874.1,-375000,-375000,-147429.7,-118977.7,0.03,-0.02,0.88,-4,0,-2,48,0
'[13:38:00.168 20/01/2026]',-104952.5,-185275.5,-109916.8,-130461,-375000,-375000,-146529.4,-118057.2,0.03,-0.02,0.88,-4,0,-2,48,0
'[13:38:00.172 20/01/2026]',-106207.6,-187223.7,-108184.8,-127563.4,-375000,-375000,-146000.3,-119755.2,0.03,-0.02,0.88,-4,0,-2,48,0
'[13:38:00.176 20/01/2026]',-107705.7,-188929.7,-108087.9,-127853.3,-375000,-375000,-146721.4,-121389.8,0.03,-0.02,0.88,-4,0,-2,48,0
'[13:38:00.180 20/01/2026]',-106230.4,-186593.5,-110290.2,-131604.7,-375000,-375000,-147459,-119362.9,0.03,0.00,0.88,-4,0,-2,48,0
'[13:38:00.184 20/01/2026]',-104920.4,-185174,-110115.4,-130870.8,-375000,-375000,-146657.1,-117980.8,0.03,0.00,0.88,-4,0,-2,48,0
'[13:38:00.188 20/01/2026]',-105873.9,-186759.4,-108462.5,-127999.9,-375000,-375000,-146018.1,-119334.3,0.03,0.00,0.88,-4,0,-2,48,0
'[13:38:00.192 20/01/2026]',-107614.5,-188923.4,-107792,-127307.8,-375000,-375000,-146476,-121343.1,0.03,0.00,0.88,-4,0,-2,48,0
'[13:38:00.196 20/01/2026]',-106543.1,-187037.7,-109966.5,-131131.2,-375000,-375000,-147397,-119764,0.03,0.00,0.88,-4,0,-2,48,0
'[13:38:00.200 20/01/2026]',-104917.3,-185127,-110249.7,-131187.7,-375000,-375000,-146754.5,-117959.7,0.03,0.00,0.88,-4,0,-2,48,0
'[13:38:00.204 20/01/2026]',-105542.1,-186302,-108718.8,-128435,-375000,-375000,-146026.5,-118919.1,0.03,0.00,0.88,-4,0,-2,48,0
'[13:38:00.208 20/01/2026]',-107471.2,-188781.6,-107692.4,-127054.9,-375000,-375000,-146338.1,-121201.8,0.03,0.00,0.88,-4,0,-2,48,0
'[13:38:00.212 20/01/2026]',-106956.2,-187589.7,-109669,-130639.5,-375000,-375000,-147416.3,-120264.4,0.03,0.00,0.88,-4,0,-2,48,0
'[13:38:00.216 20/01/2026]',-105107.2,-185286.4,-110451.5,-131570.8,-375000,-375000,-146989.5,-118120.7,0.03,0.00,0.89,-4,0,-2,48,0
'[13:38:00.220 20/01/2026]',-105322.8,-185962.2,-109041.9,-128962.9,-375000,-375000,-146135.7,-118621.5,0.03,0.00,0.89,-4,0,-2,48,0
'[13:38:00.224 20/01/2026]',-107199.1,-188501.5,-107648.1,-126914.1,-375000,-375000,-146171.8,-120923.4,0.03,0.00,0.89,-4,0,-2,48,0
'[13:38:00.228 20/01/2026]',-107236.6,-188041.1,-109204.9,-129914.7,-375000,-375000,-147260.5,-120656.5,0.03,0.00,0.89,-4,0,-2,48,0
'[13:38:00.232 20/01/2026]',-105267.9,-185430.4,-110510,-131766.4,-375000,-375000,-147119.4,-118281.9,0.03,0.00,0.89,-4,0,-2,48,0
'[13:38:00.236 20/01/2026]',-105105.5,-185621.9,-109330.2,-129433.4,-375000,-375000,-146211.6,-118323.4,0.03,0.00,0.89,-4,0,-2,48,0
'[13:38:00.240 20/01/2026]',-106871.5,-188098.8,-107733.4,-126957.1,-375000,-375000,-146048.1,-120543.3,0.03,0.00,0.89,-4,0,-2,48,0
'[13:38:00.244 20/01/2026]',-107467,-188443,-108792,-129191.8,-375000,-375000,-147098.5,-120985.3,0.03,0.00,0.89,-4,0,-2,48,0
'[13:38:00.248 20/01/2026]',-105525.9,-185745.7,-110533.7,-131882.2,-375000,-375000,-147274.4,-118571.6,0.03,0.00,0.89,-4,0,-2,48,0
'[13:38:00.252 20/01/2026]',-105001.9,-185422.3,-109635.1,-129953.9,-375000,-375000,-146364.8,-118169,0.03,-0.02,0.88,-4,0,-2,48,0
'[13:38:00.256 20/01/2026]',-106577.2,-187710.3,-107943.5,-127217.7,-375000,-375000,-146025.8,-120196.3,0.03,-0.02,0.88,-4,0,-2,48,0
'[13:38:00.260 20/01/2026]',-107657.6,-188772.5,-108418,-128492,-375000,-375000,-146919.8,-121262.8,0.03,-0.02,0.88,-4,0,-2,48,0
'[13:38:00.264 20/01/2026]',-105844.9,-186125.1,-110446.9,-131809.8,-375000,-375000,-147362,-118921.2,0.03,-0.02,0.88,-4,0,-2,48,0
'[13:38:00.268 20/01/2026]',-104893.6,-185241.4,-109835.4,-130386.2,-375000,-375000,-146454.4,-117999.7,0.03,-0.02,0.88,-4,0,-2,48,0
'[13:38:00.272 20/01/2026]',-106184.7,-187214.9,-108132,-127514.5,-375000,-375000,-145954.2,-119723.3,0.03,-0.02,0.88,-4,0,-2,48,0
'[13:38:00.276 20/01/2026]',-107657,-188869.9,-108027.4,-127806.6,-375000,-375000,-146662.3,-121331.8,0.03,-0.02,0.88,-4,0,-2,48,0
'[13:38:00.280 20/01/2026]',-106145.6,-186501,-110230.8,-131560.3,-375000,-375000,-147390.3,-119280.1,0.03,-0.02,0.88,-4,0,-2,48,0
'[13:38:00.284 20/01/2026]',-104861,-185127.8,-110046.4,-130793.1,-375000,-375000,-146588.2,-117924.9,0.03,-0.02,0.88,-4,0,-2,48,0
'[13:38:00.288 20/01/2026]',-105854.2,-186750.4,-108409,-127937,-375000,-375000,-145971.1,-119312.4,0.05,0.00,0.89,-4,0,-2,48,0
'[13:38:00.292 20/01/2026]',-107606.9,-188919.9,-107797.3,-127330.5,-375000,-375000,-146481.8,-121335.8,0.05,0.00,0.89,-4,0,-2,48,0
'[13:38:00.296 20/01/2026]',-106528.9,-187026.2,-109988.3,-131168.6,-375000,-375000,-147410.2,-119743.7,0.05,0.00,0.89,-4,0,-2,48,0
'[13:38:00.300 20/01/2026]',-104945.4,-185156.6,-110269.7,-131205.2,-375000,-375000,-146773.3,-117973,0.05,0.00,0.89,-4,0,-2,48,0
'[13:38:00.304 20/01/2026]',-105564.5,-186321.8,-108701.9,-128411.3,-375000,-375000,-146018.7,-118935.5,0.05,0.00,0.89,-4,0,-2,48,0
'[13:38:00.308 20/01/2026]',-107436.4,-188746.2,-107632.3,-126992.8,-375000,-375000,-146279.7,-121174.4,0.05,0.00,0.89,-4,0,-2,48,0
'[13:38:00.312 20/01/2026]',-106869.4,-187502.3,-109609.3,-130599.9,-375000,-375000,-147337.2,-120176.4,0.05,0.00,0.89,-4,0,-2,48,0
'[13:38:00.316 20/01/2026]',-105044.1,-185233.2,-110385.8,-131509.6,-375000,-375000,-146919,-118056.3,0.05,0.00,0.89,-4,0,-2,48,0
'[13:38:00.320 20/01/2026]',-105294.6,-185962.3,-108982.7,-128904.6,-375000,-375000,-146093.2,-118607.8,0.05,0.00,0.89,-4,0,-2,48,0
'[13:38:00.324 20/01/2026]',-107201.6,-188525.6,-107620.6,-126906.9,-375000,-375000,-146165.8,-120935.5,0.03,0.00,0.89,-4,0,-2,48,0
'[13:38:00.328 20/01/2026]',-107229.7,-188027.3,-109260,-130000.8,-375000,-375000,-147284.7,-120636.2,0.03,0.00,0.89,-4,0,-2,48,0
'[13:38:00.332 20/01/2026]',-105290.8,-185438.5,-110556.7,-131836.1,-375000,-375000,-147157.4,-118304.5,0.03,0.00,0.89,-4,0,-2,48,0
'[13:38:00.336 20/01/2026]',-105169.4,-185684.9,-109357.6,-129488.8,-375000,-375000,-146267.9,-118404.9,0.03,0.00,0.89,-4,0,-2,48,0
'[13:38:00.340 20/01/2026]',-106944.9,-188196.6,-107758.4,-127023.7,-375000,-375000,-146108.8,-120624.1,0.03,0.00,0.89,-4,0,-2,48,0
'[13:38:00.344 20/01/2026]',-107500.8,-188472.2,-108842.5,-129282.5,-375000,-375000,-147148.5,-121017.5,0.03,0.00,0.89,-4,0,-2,48,0
'[13:38:00.348 20/01/2026]',-105544,-185752.8,-110585,-131944,-375000,-375000,-147311.1,-118593.6,0.03,0.00,0.89,-4,0,-2,48,0
'[13:38:00.352 20/01/2026]',-105048.1,-185490.2,-109668.5,-129996.9,-375000,-375000,-146405.2,-118215,0.03,0.00,0.89,-4,0,-2,48,0
'[13:38:00.356 20/01/2026]',-106650.5,-187816.2,-107984.9,-127271,-375000,-375000,-146082.1,-120264.6,0.03,0.00,0.89,-4,0,-2,48,0
'[13:38:00.360 20/01/2026]',-107720.7,-188846.8,-108522.2,-128639.5,-375000,-375000,-147024.3,-121331.7,0.03,0.00,0.89,-4,0,-2,48,0
'[13:38:00.364 20/01/2026]',-105912.7,-186197.1,-110559.1,-131950.8,-375000,-375000,-147475.9,-118993.9,0.03,0.00,0.89,-4,0,-2,48,0
'[13:38:00.368 20/01/2026]',-104998.8,-185363.2,-109939,-130488,-375000,-375000,-146574,-118120.6,0.03,0.00,0.89,-4,0,-2,48,0
'[13:38:00.372 20/01/2026]',-106309.1,-187364.4,-108222.4,-127617.7,-375000,-375000,-146076.4,-119863.7,0.03,0.00,0.89,-4,0,-2,48,0
'[13:38:00.376 20/01/2026]',-107771.8,-189014.2,-108159.6,-127969.5,-375000,-375000,-146802.1,-121452,0.03,0.00,0.89,-4,0,-2,48,0
'[13:38:00.380 20/01/2026]',-106248.9,-186615.4,-110369.7,-131702.7,-375000,-375000,-147518,-119386.9,0.03,0.00,0.89,-4,0,-2,48,0
'[13:38:00.384 20/01/2026]',-104977,-185248.4,-110148.4,-130903,-375000,-375000,-146707.3,-118051,0.03,0.00,0.89,-4,0,-2,48,0
'[13:38:00.388 20/01/2026]',-105953.8,-186864,-108472.4,-128025.5,-375000,-375000,-146073.3,-119432.4,0.03,0.00,0.89,-4,0,-2,48,0
'[13:38:00.392 20/01/2026]',-107676.7,-188994,-107866.2,-127439.2,-375000,-375000,-146569.9,-121418.2,0.03,0.00,0.89,-4,0,-2,48,0
'[13:38:00.396 20/01/2026]',-106573.4,-187068.8,-110066.7,-131294.4,-375000,-375000,-147497.4,-119799.3,0.03,0.00,0.89,-4,0,-2,48,0
'[13:38:00.400 20/01/2026]',-104990.5,-185221.2,-110317.9,-131275.1,-375000,-375000,-146846.8,-118049.9,0.03,0.00,0.89,-4,0,-2,48,0
'[13:38:00.404 20/01/2026]',-105649.6,-186452.4,-108766.4,-128498.7,-375000,-375000,-146122.5,-119057.9,0.03,0.00,0.89,-4,0,-2,48,0
'[13:38:00.408 20/01/2026]',-107525.8,-188875.1,-107729.4,-127122.6,-375000,-375000,-146396.7,-121286.7,0.03,0.00,0.89,-4,0,-2,48,0
'[13:38:00.412 20/01/2026]',-106922.4,-187576.6,-109729.1,-130747.9,-375000,-375000,-147440.8,-120246.8,0.03,0.00,0.89,-4,0,-2,48,0
'[13:38:00.416 20/01/2026]',-105093.5,-185308.8,-110463.3,-131586.9,-375000,-375000,-146991.8,-118134.8,0.03,0.00,0.89,-4,0,-2,48,0
'[13:38:00.420 20/01/2026]',-105364.5,-186038.9,-109049.1,-128959,-375000,-375000,-146164.9,-118704.4,0.03,0.00,0.89,-4,0,-2,48,0
'[13:38:00.424 20/01/2026]',-107265.3,-188583.8,-107677.5,-126948.2,-375000,-375000,-146222.6,-121014.9,0.03,0.00,0.89,-4,0,-2,48,0
'[13:38:00.428 20/01/2026]',-107264.3,-188062.3,-109306.7,-130062.7,-375000,-375000,-147328.8,-120683.1,0.03,0.00,0.89,-4,0,-2,48,0
'[13:38:00.432 20/01/2026]',-105302.8,-185471.7,-110549.6,-131850.2,-375000,-375000,-147165.4,-118320.8,0.03,0.00,0.88,-4,0,-2,48,0
'[13:38:00.436 20/01/2026]',-105174.4,-185724,-109329.4,-129455.4,-375000,-375000,-146253.1,-118415.5,0.03,0.00,0.88,-4,0,-2,48,0
'[13:38:00.440 20/01/2026]',-106959.2,-188237.9,-107736.6,-126980.4,-375000,-375000,-146102,-120661,0.03,0.00,0.88,-4,0,-2,48,0
'[13:38:00.444 20/01/2026]',-107490.1,-188473.3,-108872.6,-129332.8,-375000,-375000,-147161.8,-121013.2,0.03,0.00,0.88,-4,0,-2,48,0
'[13:38:00.448 20/01/2026]',-105522.9,-185752,-110581.3,-131952.6,-375000,-375000,-147298.6,-118574.7,0.03,0.00,0.88,-4,0,-2,48,0
'[13:38:00.452 20/01/2026]',-105016.4,-185474.7,-109616.7,-129935,-375000,-375000,-146361.9,-118198.8,0.03,0.00,0.88,-4,0,-2,48,0
'[13:38:00.456 20/01/2026]',-106613.1,-187801.1,-107918.9,-127198,-375000,-375000,-146040,-120260,0.03,0.00,0.88,-4,0,-2,48,0
'[13:38:00.460 20/01/2026]',-107651.3,-188784.6,-108458,-128579.2,-375000,-375000,-146957.2,-121279.4,0.03,0.00,0.88,-4,0,-2,48,0
'[13:38:00.464 20/01/2026]',-105840.5,-186104.3,-110498.4,-131902,-375000,-375000,-147401.4,-118923.3,0.03,0.00,0.88,-4,0,-2,48,0
'[13:38:00.468 20/01/2026]',-104934.4,-185289.5,-109877.2,-130432,-375000,-375000,-146502.3,-118054.5,0.03,0.00,0.88,-4,0,-2,48,0
'[13:38:00.472 20/01/2026]',-106259.2,-187333,-108137.2,-127528.5,-375000,-375000,-146002.3,-119826.3,0.03,0.00,0.88,-4,0,-2,48,0
'[13:38:00.476 20/01/2026]',-107707.1,-188952.3,-108098.3,-127935.2,-375000,-375000,-146737.4,-121388.1,0.03,0.00,0.88,-4,0,-2,48,0
'[13:38:00.480 20/01/2026]',-106173.7,-186519.9,-110337.3,-131695.3,-375000,-375000,-147456.5,-119302.3,0.03,0.00,0.88,-4,0,-2,48,0
'[13:38:00.484 20/01/2026]',-104919.2,-185192.5,-110092,-130849.7,-375000,-375000,-146643.1,-117994.9,0.03,0.00,0.88,-4,0,-2,48,0
'[13:38:00.488 20/01/2026]',-105918.8,-186859.1,-108394,-127937.6,-375000,-375000,-146009.6,-119406.9,0.03,0.00,0.88,-4,0,-2,48,0
'[13:38:00.492 20/01/2026]',-107640.1,-188973.3,-107816.1,-127388.4,-375000,-375000,-146515.7,-121379.1,0.03,0.00,0.88,-4,0,-2,48,0
'[13:38:00.496 20/01/2026]',-106531.2,-187020.2,-110063.8,-131291.8,-375000,-375000,-147454.2,-119741.6,0.03,0.00,0.88,-4,0,-2,48,0
'[13:38:00.500 20/01/2026]',-104962.9,-185189.8,-110290.6,-131233.9,-375000,-375000,-146795.9,-118009.8,0.03,0.00,0.88,-4,0,-2,48,0
'[13:38:00.504 20/01/2026]',-105617.7,-186406.8,-108710.5,-128413.4,-375000,-375000,-146054.4,-119024.3,0.03,-0.02,0.88,-4,0,-2,48,0
'[13:38:00.508 20/01/2026]',-107501.8,-188851,-107688.7,-127067.3,-375000,-375000,-146344.4,-121255.9,0.03,-0.02,0.88,-4,0,-2,48,0
'[13:38:00.512 20/01/2026]',-106886.2,-187537,-109713.3,-130745.1,-375000,-375000,-147403.9,-120192.8,0.03,-0.02,0.88,-4,0,-2,48,0
'[13:38:00.516 20/01/2026]',-105065.7,-185278,-110420.1,-131557.9,-375000,-375000,-146951.3,-118096.2,0.03,-0.02,0.88,-4,0,-2,48,0
'[13:38:00.520 20/01/2026]',-105352.3,-186044.1,-108992.5,-128894.7,-375000,-375000,-146117.9,-118684.7,0.03,-0.02,0.88,-4,0,-2,48,0
'[13:38:00.524 20/01/2026]',-107253,-188583.5,-107624,-126899.9,-375000,-375000,-146181.7,-120999.6,0.03,-0.02,0.88,-4,0,-2,48,0
'[13:38:00.528 20/01/2026]',-107211,-187996.1,-109294.7,-130071.2,-375000,-375000,-147294.7,-120618.3,0.03,-0.02,0.88,-4,0,-2,48,0
'[13:38:00.532 20/01/2026]',-105251.5,-185437.7,-110535.4,-131805.6,-375000,-375000,-147119.4,-118275.3,0.03,-0.02,0.88,-4,0,-2,48,0
'[13:38:00.536 20/01/2026]',-105156.4,-185721.4,-109300.3,-129411,-375000,-375000,-146227.2,-118408.8,0.03,-0.02,0.88,-4,0,-2,48,0
'[13:38:00.540 20/01/2026]',-106956.2,-188231,-107718.6,-126964.7,-375000,-375000,-146092.4,-120658.4,0.03,0.00,0.88,-4,0,-2,48,0
'[13:38:00.544 20/01/2026]',-107468.6,-188432.3,-108881.6,-129340.2,-375000,-375000,-147149.2,-120980.1,0.03,0.00,0.88,-4,0,-2,48,0
'[13:38:00.548 20/01/2026]',-105501.4,-185706.4,-110563.4,-131923.3,-375000,-375000,-147266.3,-118536.8,0.03,0.00,0.88,-4,0,-2,48,0
'[13:38:00.552 20/01/2026]',-105019.1,-185472,-109585.6,-129903.2,-375000,-375000,-146346.7,-118205.7,0.03,0.00,0.88,-4,0,-2,48,0
'[13:38:00.556 20/01/2026]',-106631.7,-187818.6,-107901,-127194,-375000,-375000,-146049,-120288.3,0.03,0.00,0.88,-4,0,-2,48,0
'[13:38:00.560 20/01/2026]',-107659.7,-188776.4,-108519,-128681.9,-375000,-375000,-147013.4,-121287,0.03,0.00,0.88,-4,0,-2,48,0
'[13:38:00.564 20/01/2026]',-105845.8,-186104.6,-110533.7,-131950.5,-375000,-375000,-147433.1,-118923.8,0.03,0.00,0.88,-4,0,-2,48,0
'[13:38:00.568 20/01/2026]',-104964.3,-185317.6,-109847.7,-130384.8,-375000,-375000,-146497.9,-118089.9,0.03,0.00,0.88,-4,0,-2,48,0
'[13:38:00.572 20/01/2026]',-106285.3,-187365.8,-108120.8,-127489.7,-375000,-375000,-145997,-119860.9,0.03,0.00,0.88,-4,0,-2,48,0
'[13:38:00.576 20/01/2026]',-107715.8,-188962.9,-108147,-127988.1,-375000,-375000,-146765.6,-121400.5,0.03,0.00,0.88,-4,0,-2,48,0
'[13:38:00.580 20/01/2026]',-106152.9,-186511.5,-110355,-131707.1,-375000,-375000,-147457.4,-119290.2,0.03,0.00,0.88,-4,0,-2,48,0
'[13:38:00.584 20/01/2026]',-104915,-185216.2,-110063.4,-130803,-375000,-375000,-146625.3,-118004.4,0.03,0.00,0.88,-4,0,-2,48,0
'[13:38:00.588 20/01/2026]',-105936.8,-186889,-108359.4,-127897.8,-375000,-375000,-145998,-119434.6,0.03,0.00,0.88,-4,0,-2,48,0
'[13:38:00.592 20/01/2026]',-107638.4,-188968.4,-107833.6,-127424.5,-375000,-375000,-146527.3,-121383.2,0.03,0.00,0.88,-4,0,-2,48,0
'[13:38:00.596 20/01/2026]',-106488.7,-186979.1,-110075.7,-131309.3,-375000,-375000,-147449.4,-119710.8,0.03,0.00,0.88,-4,0,-2,48,0
'[13:38:00.600 20/01/2026]',-104943.9,-185185.5,-110272.7,-131207.6,-375000,-375000,-146788.9,-118010.9,0.03,0.00,0.88,-4,0,-2,48,0
'[13:38:00.604 20/01/2026]',-105631.1,-186445.4,-108677.5,-128383.5,-375000,-375000,-146056.7,-119055.2,0.03,0.00,0.88,-4,0,-2,48,0
'[13:38:00.608 20/01/2026]',-107504.8,-188856.6,-107684.9,-127087.9,-375000,-375000,-146360.7,-121269.5,0.03,0.00,0.88,-4,0,-2,48,0
'[13:38:00.612 20/01/2026]',-106852.6,-187484.5,-109722.1,-130757.7,-375000,-375000,-147400.9,-120167.6,0.02,0.00,0.88,-4,0,-2,48,0
'[13:38:00.616 20/01/2026]',-105053.6,-185258.4,-110401.8,-131512.9,-375000,-375000,-146933.7,-118096.8,0.02,0.00,0.88,-4,0,-2,48,0
'[13:38:00.620 20/01/2026]',-105362.4,-186031.6,-108968.5,-128862.6,-375000,-375000,-146109.1,-118707.8,0.02,0.00,0.88,-4,0,-2,48,0
'[13:38:00.624 20/01/2026]',-107258.4,-188598.9,-107640.3,-126929.4,-375000,-375000,-146198.5,-121021,0.02,0.00,0.88,-4,0,-2,48,0
'[13:38:00.628 20/01/2026]',-107183,-187991,-109312.6,-130098.7,-375000,-375000,-147296.5,-120600,0.02,0.00,0.88,-4,0,-2,48,0
'[13:38:00.632 20/01/2026]',-105237.8,-185438.6,-110511.5,-131776,-375000,-375000,-147100.1,-118267.6,0.02,0.00,0.88,-4,0,-2,48,0
'[13:38:00.636 20/01/2026]',-105153.6,-185734.8,-109255.2,-129365.4,-375000,-375000,-146199.5,-118414.5,0.02,0.00,0.88,-4,0,-2,48,0
'[13:38:00.640 20/01/2026]',-106960.6,-188257.5,-107689,-126963.6,-375000,-375000,-146083.5,-120671.5,0.02,0.00,0.88,-4,0,-2,48,0
'[13:38:00.644 20/01/2026]',-107435.6,-188403.8,-108890.4,-129391.6,-375000,-375000,-147150.1,-120948.5,0.02,0.00,0.88,-4,0,-2,48,0
'[13:38:00.648 20/01/2026]',-105467.4,-185693.6,-110528.8,-131890.1,-375000,-375000,-147243.5,-118519.9,0.02,0.00,0.88,-4,0,-2,48,0
'[13:38:00.652 20/01/2026]',-105010,-185477.5,-109547.3,-129846.1,-375000,-375000,-146323.1,-118215,0.02,0.00,0.88,-4,0,-2,48,0
'[13:38:00.656 20/01/2026]',-106625.3,-187824.6,-107874,-127148.9,-375000,-375000,-146018.6,-120292.7,0.02,0.00,0.88,-4,0,-2,48,0
'[13:38:00.660 20/01/2026]',-107616,-188731.2,-108496.9,-128664.9,-375000,-375000,-146965.9,-121231.3,0.02,0.00,0.88,-4,0,-2,48,0
'[13:38:00.664 20/01/2026]',-105786.3,-186062.6,-110490.8,-131888.2,-375000,-375000,-147367.7,-118865.8,0.02,0.00,0.88,-4,0,-2,48,0
'[13:38:00.668 20/01/2026]',-104932.9,-185311.8,-109820,-130336.5,-375000,-375000,-146459.8,-118068.7,0.02,0.00,0.88,-4,0,-2,48,0
'[13:38:00.672 20/01/2026]',-106288.8,-187373.6,-108086,-127459.6,-375000,-375000,-145986.2,-119875.3,0.02,0.00,0.88,-4,0,-2,48,0
'[13:38:00.676 20/01/2026]',-107686,-188931.4,-108121.4,-127981,-375000,-375000,-146750.6,-121381.2,0.02,0.00,0.88,-4,0,-2,48,0
'[13:38:00.680 20/01/2026]',-106107.6,-186468.8,-110328.5,-131684.9,-375000,-375000,-147427,-119252.9,0.02,0.00,0.88,-4,0,-2,48,0
'[13:38:00.684 20/01/2026]',-104896.9,-185190.9,-110043.4,-130771.1,-375000,-375000,-146601,-117994.9,0.03,0.00,0.89,-4,0,-2,48,0
'[13:38:00.688 20/01/2026]',-105946.9,-186911.2,-108361.3,-127881,-375000,-375000,-145994.7,-119452.1,0.03,0.00,0.89,-4,0,-2,48,0
'[13:38:00.692 20/01/2026]',-107654,-188988.8,-107848.3,-127453.5,-375000,-375000,-146543.8,-121392.2,0.03,0.00,0.89,-4,0,-2,48,0
'[13:38:00.696 20/01/2026]',-106468.6,-186959.3,-110079.5,-131327.5,-375000,-375000,-147449.1,-119692,0.03,0.00,0.89,-4,0,-2,48,0
'[13:38:00.700 20/01/2026]',-104925.3,-185181,-110248.9,-131179.3,-375000,-375000,-146770,-118008.3,0.03,0.00,0.89,-4,0,-2,48,0
'[13:38:00.704 20/01/2026]',-105638.3,-186469.6,-108650.9,-128361.9,-375000,-375000,-146050.3,-119072.7,0.03,0.00,0.89,-4,0,-2,48,0
'[13:38:00.708 20/01/2026]',-107516.5,-188875.8,-107661.1,-127083.3,-375000,-375000,-146356.2,-121272.9,0.03,0.00,0.89,-4,0,-2,48,0
'[13:38:00.712 20/01/2026]',-106852.2,-187469.3,-109744.2,-130799.9,-375000,-375000,-147406.7,-120143.8,0.03,0.00,0.89,-4,0,-2,48,0
'[13:38:00.716 20/01/2026]',-105072.4,-185263.4,-110434.6,-131525.9,-375000,-375000,-146939.4,-118094.2,0.03,0.00,0.89,-4,0,-2,48,0
'[13:38:00.720 20/01/2026]',-105400.9,-186089,-108978.2,-128844.7,-375000,-375000,-146118.1,-118737.2,0.03,0.00,0.88,-4,0,-2,48,0
'[13:38:00.724 20/01/2026]',-107305.7,-188640.2,-107645.9,-126932.3,-375000,-375000,-146213.1,-121044.1,0.03,0.00,0.88,-4,0,-2,48,0
'[13:38:00.728 20/01/2026]',-107189.9,-187953.3,-109375.5,-130175.8,-375000,-375000,-147322.8,-120576.6,0.03,0.00,0.88,-4,0,-2,48,0
'[13:38:00.732 20/01/2026]',-105246.4,-185431,-110547.5,-131798.5,-375000,-375000,-147111,-118267.7,0.03,0.00,0.88,-4,0,-2,48,0
'[13:38:00.736 20/01/2026]',-105195.3,-185766.7,-109281.4,-129356.4,-375000,-375000,-146213.8,-118450.2,0.03,0.00,0.88,-4,0,-2,48,0
'[13:38:00.740 20/01/2026]',-107010.5,-188289.7,-107716.1,-126948.9,-375000,-375000,-146097,-120710.9,0.03,0.00,0.88,-4,0,-2,48,0
'[13:38:00.744 20/01/2026]',-107448.4,-188378,-108938.6,-129422.3,-375000,-375000,-147158.2,-120938.7,0.03,0.00,0.88,-4,0,-2,48,0
'[13:38:00.748 20/01/2026]',-105481.2,-185676.2,-110573.5,-131932.6,-375000,-375000,-147256.8,-118511.7,0.03,0.00,0.88,-4,0,-2,48,0
'[13:38:00.752 20/01/2026]',-105046.1,-185500.5,-109562.4,-129859.8,-375000,-375000,-146333.1,-118224.5,0.03,0.00,0.88,-4,0,-2,48,0
'[13:38:00.756 20/01/2026]',-106687.9,-187866,-107885.1,-127153.7,-375000,-375000,-146039.6,-120324.9,0.03,0.00,0.89,-4,0,-2,48,0
'[13:38:00.760 20/01/2026]',-107651,-188727.6,-108535.6,-128702.6,-375000,-375000,-146985.7,-121233.6,0.03,0.00,0.89,-4,0,-2,48,0
'[13:38:00.764 20/01/2026]',-105797.6,-186028.6,-110532.3,-131932,-375000,-375000,-147381.3,-118853.6,0.03,0.00,0.89,-4,0,-2,48,0
'[13:38:00.768 20/01/2026]',-104973.1,-185333.2,-109840.7,-130361.8,-375000,-375000,-146480.9,-118093.6,0.03,0.00,0.89,-4,0,-2,48,0
'[13:38:00.772 20/01/2026]',-106346.3,-187423.3,-108095.3,-127477.4,-375000,-375000,-146012.9,-119918.3,0.03,0.00,0.89,-4,0,-2,48,0
'[13:38:00.776 20/01/2026]',-107722.4,-188939.2,-108150.1,-128038.8,-375000,-375000,-146781.4,-121398.9,0.03,0.00,0.89,-4,0,-2,48,0
'[13:38:00.780 20/01/2026]',-106122.1,-186449,-110369.1,-131747.7,-375000,-375000,-147447.2,-119247.2,0.03,0.00,0.89,-4,0,-2,48,0
'[13:38:00.784 20/01/2026]',-104931.6,-185211.5,-110081,-130806.5,-375000,-375000,-146623.9,-118020.7,0.03,0.00,0.89,-4,0,-2,48,0
'[13:38:00.788 20/01/2026]',-105990,-186942.2,-108377.2,-127883.6,-375000,-375000,-146012.7,-119496.9,0.03,0.00,0.89,-4,0,-2,48,0
'[13:38:00.792 20/01/2026]',-107680.1,-188986,-107878.1,-127478.8,-375000,-375000,-146559.3,-121402.9,0.05,0.00,0.88,-4,0,-2,48,0
'[13:38:00.796 20/01/2026]',-106488.4,-186944,-110135.7,-131401.5,-375000,-375000,-147470.5,-119676.6,0.05,0.00,0.88,-4,0,-2,48,0
'[13:38:00.800 20/01/2026]',-104967.8,-185186.7,-110274.6,-131195.2,-375000,-375000,-146769,-118005.9,0.05,0.00,0.88,-4,0,-2,48,0
'[13:38:00.804 20/01/2026]',-105693.6,-186491.3,-108650,-128320.2,-375000,-375000,-146030.1,-119088.8,0.05,0.00,0.88,-4,0,-2,48,0
'[13:38:00.808 20/01/2026]',-107553.5,-188886.5,-107693,-127091.9,-375000,-375000,-146356.6,-121286.8,0.05,0.00,0.88,-4,0,-2,48,0
'[13:38:00.812 20/01/2026]',-106851.6,-187439.9,-109788.3,-130863,-375000,-375000,-147412.3,-120115.3,0.05,0.00,0.88,-4,0,-2,48,0
'[13:38:00.816 20/01/2026]',-105076.9,-185245.8,-110440.1,-131548.9,-375000,-375000,-146934,-118082.1,0.05,0.00,0.88,-4,0,-2,48,0
'[13:38:00.820 20/01/2026]',-105426.7,-186091.6,-108967.8,-128835.4,-375000,-375000,-146103.4,-118740.7,0.05,0.00,0.88,-4,0,-2,48,0
'[13:38:00.824 20/01/2026]',-107331.2,-188654.9,-107643.2,-126928.1,-375000,-375000,-146206.6,-121058.2,0.05,0.00,0.88,-4,0,-2,48,0
'[13:38:00.828 20/01/2026]',-107171.5,-187933.1,-109393.3,-130208.7,-375000,-375000,-147311.5,-120552.6,0.03,-0.02,0.89,-4,0,-2,48,0
'[13:38:00.832 20/01/2026]',-105234,-185405.5,-110542.7,-131793.1,-375000,-375000,-147084.3,-118244,0.03,-0.02,0.89,-4,0,-2,48,0
'[13:38:00.836 20/01/2026]',-105206.8,-185757.5,-109266.4,-129332.6,-375000,-375000,-146187.6,-118449,0.03,-0.02,0.89,-4,0,-2,48,0
'[13:38:00.840 20/01/2026]',-107026.3,-188290.3,-107698.8,-126926.8,-375000,-375000,-146075.9,-120725.4,0.03,-0.02,0.89,-4,0,-2,48,0
'[13:38:00.844 20/01/2026]',-107419.1,-188333.6,-108958.3,-129473.2,-375000,-375000,-147144.1,-120906.3,0.03,-0.02,0.89,-4,0,-2,48,0
'[13:38:00.848 20/01/2026]',-105444.7,-185631.8,-110564.9,-131915.3,-375000,-375000,-147206,-118468.7,0.03,-0.02,0.89,-4,0,-2,48,0
'[13:38:00.852 20/01/2026]',-105039.2,-185488.7,-109525.8,-129800.3,-375000,-375000,-146277.8,-118218.3,0.03,-0.02,0.89,-4,0,-2,48,0
'[13:38:00.856 20/01/2026]',-106711.2,-187897.4,-107865.1,-127125.1,-375000,-375000,-146014.6,-120354.4,0.03,-0.02,0.89,-4,0,-2,48,0
'[13:38:00.860 20/01/2026]',-107656.7,-188732.5,-108585.3,-128783.2,-375000,-375000,-146997.2,-121236.4,0.03,-0.02,0.89,-4,0,-2,48,0
'[13:38:00.864 20/01/2026]',-105794.4,-186019.8,-110576.9,-131987.1,-375000,-375000,-147380.4,-118843.6,0.03,-0.02,0.88,-4,0,-2,48,0
'[13:38:00.868 20/01/2026]',-104991.8,-185335.3,-109838.3,-130332.8,-375000,-375000,-146456.3,-118109.2,0.03,-0.02,0.88,-4,0,-2,48,0
'[13:38:00.872 20/01/2026]',-106402.5,-187462.5,-108123.7,-127483.6,-375000,-375000,-146024,-119976.5,0.03,-0.02,0.88,-4,0,-2,48,0
'[13:38:00.876 20/01/2026]',-107759.7,-188947.2,-108201.3,-128089.8,-375000,-375000,-146791.5,-121415.8,0.03,-0.02,0.88,-4,0,-2,48,0
'[13:38:00.880 20/01/2026]',-106126.8,-186440,-110415.4,-131791.5,-375000,-375000,-147439.8,-119225.6,0.03,-0.02,0.88,-4,0,-2,48,0
'[13:38:00.884 20/01/2026]',-104952.9,-185239.1,-110076.8,-130774.2,-375000,-375000,-146592.5,-118020.9,0.03,-0.02,0.88,-4,0,-2,48,0
'[13:38:00.888 20/01/2026]',-106041.8,-186996.5,-108364.9,-127853.8,-375000,-375000,-145994.9,-119530.8,0.03,-0.02,0.88,-4,0,-2,48,0
'[13:38:00.892 20/01/2026]',-107711.2,-189005.5,-107915.9,-127536.7,-375000,-375000,-146568.8,-121421.8,0.03,-0.02,0.88,-4,0,-2,48,0
'[13:38:00.896 20/01/2026]',-106479.1,-186904.7,-110181.9,-131450.7,-375000,-375000,-147464.9,-119652,0.03,-0.02,0.88,-4,0,-2,48,0
'[13:38:00.900 20/01/2026]',-104958.8,-185182.9,-110262.3,-131156.4,-375000,-375000,-146734,-117999.3,0.03,0.00,0.88,-4,0,-2,48,0
'[13:38:00.904 20/01/2026]',-105695.8,-186525,-108634.2,-128292.6,-375000,-375000,-146011.3,-119110,0.03,0.00,0.88,-4,0,-2,48,0
'[13:38:00.908 20/01/2026]',-107574.8,-188906.7,-107732.8,-127160,-375000,-375000,-146379.8,-121304.1,0.03,0.00,0.88,-4,0,-2,48,0
'[13:38:00.912 20/01/2026]',-106841.9,-187412.9,-109848.3,-130930.9,-375000,-375000,-147423.9,-120098.8,0.03,0.00,0.88,-4,0,-2,48,0
'[13:38:00.916 20/01/2026]',-105072,-185254.6,-110441.8,-131513.2,-375000,-375000,-146905.1,-118081.5,0.03,0.00,0.88,-4,0,-2,48,0
'[13:38:00.920 20/01/2026]',-105441.3,-186131.4,-108945.8,-128786.6,-375000,-375000,-146076.5,-118765,0.03,0.00,0.88,-4,0,-2,48,0
'[13:38:00.924 20/01/2026]',-107338.3,-188663.4,-107640.6,-126913.8,-375000,-375000,-146187.3,-121074,0.03,0.00,0.88,-4,0,-2,48,0
'[13:38:00.928 20/01/2026]',-107147.5,-187890.7,-109412,-130244.7,-375000,-375000,-147298,-120518.9,0.03,0.00,0.88,-4,0,-2,48,0
'[13:38:00.932 20/01/2026]',-105225.6,-185397.3,-110524.3,-131766.5,-375000,-375000,-147060.1,-118229.7,0.03,0.00,0.88,-4,0,-2,48,0
'[13:38:00.936 20/01/2026]',-105220.5,-185796.3,-109233.8,-129284.5,-375000,-375000,-146174,-118477.7,0.03,-0.02,0.88,-4,0,-2,48,0
'[13:38:00.940 20/01/2026]',-107031.6,-188315.5,-107675.3,-126917.4,-375000,-375000,-146075.5,-120751.3,0.03,-0.02,0.88,-4,0,-2,48,0
'[13:38:00.944 20/01/2026]',-107399.7,-188325.7,-108975.7,-129527.8,-375000,-375000,-147161.4,-120898.7,0.03,-0.02,0.88,-4,0,-2,48,0
'[13:38:00.948 20/01/2026]',-105445.3,-185646.4,-110581.9,-131943.8,-375000,-375000,-147230,-118480.8,0.03,-0.02,0.88,-4,0,-2,48,0
'[13:38:00.952 20/01/2026]',-105064.4,-185530.3,-109531.9,-129802.6,-375000,-375000,-146300.1,-118252.1,0.03,-0.02,0.88,-4,0,-2,48,0
'[13:38:00.956 20/01/2026]',-106728.3,-187920.7,-107847.7,-127110.9,-375000,-375000,-146014.6,-120369.9,0.03,-0.02,0.88,-4,0,-2,48,0
'[13:38:00.960 20/01/2026]',-107647.9,-188701.1,-108608.6,-128832.9,-375000,-375000,-147010.7,-121209.1,0.03,-0.02,0.88,-4,0,-2,48,0
'[13:38:00.964 20/01/2026]',-105772.3,-185995.8,-110564,-131967.9,-375000,-375000,-147359.9,-118809.4,0.03,-0.02,0.88,-4,0,-2,48,0
'[13:38:00.968 20/01/2026]',-104979.4,-185340.7,-109806.7,-130276.4,-375000,-375000,-146425.4,-118102.5,0.03,-0.02,0.88,-4,0,-2,48,0
'[13:38:00.972 20/01/2026]',-106376.9,-187451.6,-108051,-127386.2,-375000,-375000,-145966,-119959.4,0.03,0.00,0.88,-4,0,-2,48,0
'[13:38:00.976 20/01/2026]',-107706.9,-188910,-108183.3,-128096.9,-375000,-375000,-146768,-121369.6,0.03,0.00,0.88,-4,0,-2,48,0
'[13:38:00.980 20/01/2026]',-106072.1,-186399.2,-110384.6,-131782.3,-375000,-375000,-147417.1,-119184.1,0.03,0.00,0.88,-4,0,-2,48,0
'[13:38:00.984 20/01/2026]',-104932.1,-185229.5,-110031.1,-130735.7,-375000,-375000,-146578.9,-118021.3,0.03,0.00,0.88,-4,0,-2,48,0
'[13:38:00.988 20/01/2026]',-106054,-187007.1,-108352.1,-127847.7,-375000,-375000,-146014.6,-119564.7,0.03,0.00,0.88,-4,0,-2,48,0
'[13:38:00.992 20/01/2026]',-107719.7,-189012.3,-107941.1,-127598.5,-375000,-375000,-146613.9,-121443.9,0.03,0.00,0.88,-4,0,-2,48,0
'[13:38:00.996 20/01/2026]',-106468.2,-186894.8,-110205.9,-131500.9,-375000,-375000,-147489,-119643.9,0.03,0.00,0.88,-4,0,-2,48,0
'[13:38:01.000 20/01/2026]',-104985.9,-185210.8,-110279.3,-131180.2,-375000,-375000,-146764.4,-118029.5,0.03,0.00,0.88,-4,0,-2,48,0
'[13:38:01.004 20/01/2026]',-105759.2,-186592.4,-108666,-128325,-375000,-375000,-146060,-119177.8,0.03,0.00,0.88,-4,0,-2,48,0
'[13:38:01.008 20/01/2026]',-107612.8,-188953.9,-107765.2,-127202.3,-375000,-375000,-146422,-121358,0.02,-0.02,0.88,-4,0,-2,48,0
'[13:38:01.012 20/01/2026]',-106838.3,-187416.2,-109893.7,-130999.5,-375000,-375000,-147461.5,-120110.7,0.02,-0.02,0.88,-4,0,-2,48,0
'[13:38:01.016 20/01/2026]',-105092.6,-185286.4,-110461.6,-131541.2,-375000,-375000,-146944.8,-118122,0.02,-0.02,0.88,-4,0,-2,48,0
'[13:38:01.020 20/01/2026]',-105488.3,-186186.5,-108957,-128805.6,-375000,-375000,-146123.9,-118834,0.02,-0.02,0.88,-4,0,-2,48,0
'[13:38:01.024 20/01/2026]',-107388.9,-188722.2,-107684.5,-126990.1,-375000,-375000,-146257.8,-121135.5,0.02,-0.02,0.88,-4,0,-2,48,0
'[13:38:01.028 20/01/2026]',-107176.7,-187922.2,-109508.9,-130371.9,-375000,-375000,-147379.3,-120552.2,0.02,-0.02,0.88,-4,0,-2,48,0
'[13:38:01.032 20/01/2026]',-105264.1,-185440.4,-110599.2,-131834.2,-375000,-375000,-147118.5,-118281.3,0.02,-0.02,0.88,-4,0,-2,48,0
'[13:38:01.036 20/01/2026]',-105286.9,-185857.3,-109281.3,-129328.5,-375000,-375000,-146225.7,-118548.2,0.02,-0.02,0.88,-4,0,-2,48,0
'[13:38:01.040 20/01/2026]',-107125.5,-188386.8,-107744.7,-127002,-375000,-375000,-146156.8,-120835,0.02,-0.02,0.88,-4,0,-2,48,0
'[13:38:01.044 20/01/2026]',-107469.4,-188363.5,-109079.6,-129643.1,-375000,-375000,-147243.8,-120948.1,0.03,-0.02,0.88,-4,0,-2,48,0
'[13:38:01.048 20/01/2026]',-105483,-185678.3,-110634.9,-131984.6,-375000,-375000,-147266.3,-118513.5,0.03,-0.02,0.88,-4,0,-2,48,0
'[13:38:01.052 20/01/2026]',-105106.4,-185578.7,-109558.6,-129819.9,-375000,-375000,-146331,-118304,0.03,-0.02,0.88,-4,0,-2,48,0
'[13:38:01.056 20/01/2026]',-106776.3,-187972.2,-107882.9,-127150.5,-375000,-375000,-146062.6,-120434.1,0.03,-0.02,0.88,-4,0,-2,48,0
'[13:38:01.060 20/01/2026]',-107642.3,-188704.3,-108618.3,-128862.8,-375000,-375000,-147023.4,-121217.4,0.03,-0.02,0.88,-4,0,-2,48,0
'[13:38:01.064 20/01/2026]',-105735,-185968.6,-110556.1,-131951.5,-375000,-375000,-147340.2,-118799.4,0.03,-0.02,0.88,-4,0,-2,48,0
'[13:38:01.068 20/01/2026]',-104968.4,-185354.3,-109786.5,-130248,-375000,-375000,-146411.9,-118117.1,0.03,-0.02,0.88,-4,0,-2,48,0
'[13:38:01.072 20/01/2026]',-106411.4,-187517.2,-108059.5,-127414.9,-375000,-375000,-145993.8,-120003.5,0.03,-0.02,0.88,-4,0,-2,48,0
'[13:38:01.076 20/01/2026]',-107738.2,-188938.2,-108241.2,-128189.5,-375000,-375000,-146815,-121392.1,0.03,-0.02,0.88,-4,0,-2,48,0
'[13:38:01.080 20/01/2026]',-106078.7,-186395.8,-110420.6,-131813.2,-375000,-375000,-147425.9,-119179,0.02,-0.02,0.88,-4,0,-2,48,0
'[13:38:01.084 20/01/2026]',-104949.2,-185253.8,-110039.7,-130727.2,-375000,-375000,-146573.8,-118032.4,0.02,-0.02,0.88,-4,0,-2,48,0
'[13:38:01.088 20/01/2026]',-106089.5,-187057.9,-108341.7,-127839.9,-375000,-375000,-146012.9,-119593.9,0.02,-0.02,0.88,-4,0,-2,48,0
'[13:38:01.092 20/01/2026]',-107739.9,-189013.3,-107954.6,-127634.3,-375000,-375000,-146626.2,-121451.6,0.02,-0.02,0.88,-4,0,-2,48,0
'[13:38:01.096 20/01/2026]',-106453.2,-186856.2,-110218.2,-131509.7,-375000,-375000,-147482.3,-119630.2,0.02,-0.02,0.88,-4,0,-2,48,0
'[13:38:01.100 20/01/2026]',-104978.5,-185216.2,-110260.2,-131143.7,-375000,-375000,-146744.6,-118038.3,0.02,-0.02,0.88,-4,0,-2,48,0
'[13:38:01.104 20/01/2026]',-105765.8,-186623.1,-108628.9,-128291.6,-375000,-375000,-146051.7,-119204.8,0.02,-0.02,0.88,-4,0,-2,48,0
'[13:38:01.108 20/01/2026]',-107617,-188970.8,-107758.2,-127223.5,-375000,-375000,-146436.6,-121371.6,0.02,-0.02,0.88,-4,0,-2,48,0
'[13:38:01.112 20/01/2026]',-106808.8,-187393.8,-109900.1,-131006.2,-375000,-375000,-147453.1,-120090.3,0.02,-0.02,0.88,-4,0,-2,48,0
'[13:38:01.116 20/01/2026]',-105075.7,-185283.8,-110436.9,-131491.9,-375000,-375000,-146909.3,-118114.5,0.03,0.00,0.88,-4,0,-2,48,0
'[13:38:01.120 20/01/2026]',-105501.6,-186216.2,-108949.5,-128778.5,-375000,-375000,-146114.5,-118854.1,0.03,0.00,0.88,-4,0,-2,48,0
'[13:38:01.124 20/01/2026]',-107414.2,-188761.5,-107707.6,-127015.7,-375000,-375000,-146279.7,-121164.5,0.03,0.00,0.88,-4,0,-2,48,0
'[13:38:01.128 20/01/2026]',-107179.6,-187914.4,-109549.4,-130424.3,-375000,-375000,-147400.2,-120545.9,0.03,0.00,0.88,-4,0,-2,48,0
'[13:38:01.132 20/01/2026]',-105272.8,-185445.8,-110589.8,-131821.1,-375000,-375000,-147111.3,-118284.2,0.03,0.00,0.88,-4,0,-2,48,0
'[13:38:01.136 20/01/2026]',-105306.2,-185893.7,-109270.9,-129315.9,-375000,-375000,-146229.2,-118577.5,0.03,0.00,0.88,-4,0,-2,48,0
'[13:38:01.140 20/01/2026]',-107137.6,-188438.2,-107743,-126998.9,-375000,-375000,-146157.5,-120857,0.03,0.00,0.88,-4,0,-2,48,0
'[13:38:01.144 20/01/2026]',-107458,-188361.2,-109107.2,-129682.9,-375000,-375000,-147244.6,-120930.1,0.03,0.00,0.88,-4,0,-2,48,0
'[13:38:01.148 20/01/2026]',-105484.6,-185678.5,-110632.4,-131977.4,-375000,-375000,-147252,-118509,0.03,0.00,0.88,-4,0,-2,48,0
'[13:38:01.152 20/01/2026]',-105132.9,-185611.9,-109562.8,-129812.4,-375000,-375000,-146330.1,-118334.2,0.03,-0.02,0.88,-4,0,-2,48,0
'[13:38:01.156 20/01/2026]',-106819.7,-188018.3,-107898.2,-127160.4,-375000,-375000,-146077.8,-120484.5,0.03,-0.02,0.88,-4,0,-2,48,0
'[13:38:01.160 20/01/2026]',-107672.3,-188720.8,-108686.6,-128943.5,-375000,-375000,-147061.9,-121236.2,0.03,-0.02,0.88,-4,0,-2,48,0
'[13:38:01.164 20/01/2026]',-105775.9,-186016.8,-110600.4,-131995.2,-375000,-375000,-147370.3,-118823.6,0.03,-0.02,0.88,-4,0,-2,48,0
'[13:38:01.168 20/01/2026]',-105032.2,-185431.2,-109830.6,-130285.1,-375000,-375000,-146453.3,-118168.8,0.03,-0.02,0.88,-4,0,-2,48,0
'[13:38:01.172 20/01/2026]',-106468.4,-187585.4,-108119.9,-127469.9,-375000,-375000,-146048,-120066.6,0.03,-0.02,0.88,-4,0,-2,48,0
'[13:38:01.176 20/01/2026]',-107765.2,-188968.1,-108313.9,-128271.2,-375000,-375000,-146870.7,-121420.7,0.03,-0.02,0.88,-4,0,-2,48,0
'[13:38:01.180 20/01/2026]',-106105.4,-186427.3,-110477.8,-131863.5,-375000,-375000,-147468.4,-119208.5,0.03,-0.02,0.88,-4,0,-2,48,0
'[13:38:01.184 20/01/2026]',-105000,-185309.5,-110074.3,-130746.8,-375000,-375000,-146613.4,-118090.5,0.03,-0.02,0.88,-4,0,-2,48,0
'[13:38:01.188 20/01/2026]',-106150.2,-187121.5,-108366.4,-127860.4,-375000,-375000,-146060.6,-119667.3,0.03,-0.02,0.88,-4,0,-2,48,0
'[13:38:01.192 20/01/2026]',-107771.7,-189038.8,-108002.4,-127696,-375000,-375000,-146677.3,-121494.3,0.03,-0.02,0.88,-4,0,-2,48,0
'[13:38:01.196 20/01/2026]',-106475.4,-186896.7,-110280.7,-131587.9,-375000,-375000,-147532.7,-119656.1,0.03,-0.02,0.88,-4,0,-2,48,0
'[13:38:01.200 20/01/2026]',-105037.4,-185294.6,-110312.4,-131193.5,-375000,-375000,-146795.1,-118088,0.03,-0.02,0.88,-4,0,-2,48,0
'[13:38:01.204 20/01/2026]',-105832.1,-186692.7,-108674.8,-128322.8,-375000,-375000,-146093.5,-119262.7,0.03,-0.02,0.88,-4,0,-2,48,0
'[13:38:01.208 20/01/2026]',-107660,-188999.7,-107805.9,-127273,-375000,-375000,-146470.8,-121399.9,0.03,-0.02,0.88,-4,0,-2,48,0
'[13:38:01.212 20/01/2026]',-106830.7,-187394.2,-109929.5,-131056.6,-375000,-375000,-147472.4,-120080.6,0.03,-0.02,0.88,-4,0,-2,48,0
'[13:38:01.216 20/01/2026]',-105112.2,-185310.9,-110449.2,-131514.4,-375000,-375000,-146926,-118125.7,0.03,-0.02,0.88,-4,0,-2,48,0
'[13:38:01.220 20/01/2026]',-105546,-186267.1,-108958.5,-128800.2,-375000,-375000,-146137.3,-118890.3,0.03,-0.02,0.88,-4,0,-2,48,0
'[13:38:01.224 20/01/2026]',-107452,-188791.5,-107726.6,-127076.9,-375000,-375000,-146320.6,-121199.4,0.03,0.00,0.88,-4,0,-2,48,0
'[13:38:01.228 20/01/2026]',-107170.2,-187893.5,-109553.2,-130457,-375000,-375000,-147408,-120529.7,0.03,0.00,0.88,-4,0,-2,48,0
'[13:38:01.232 20/01/2026]',-105257.5,-185443.1,-110561.7,-131780.4,-375000,-375000,-147091,-118276.3,0.03,0.00,0.88,-4,0,-2,48,0
'[13:38:01.236 20/01/2026]',-105320.4,-185922.8,-109248.1,-129290.6,-375000,-375000,-146227.5,-118596,0.03,0.00,0.88,-4,0,-2,48,0
'[13:38:01.240 20/01/2026]',-107158.5,-188451.4,-107737.1,-127023.5,-375000,-375000,-146180.9,-120880.8,0.03,0.00,0.88,-4,0,-2,48,0
'[13:38:01.244 20/01/2026]',-107424.8,-188312.2,-109116,-129716.1,-375000,-375000,-147250.7,-120898.5,0.03,0.00,0.88,-4,0,-2,48,0
'[13:38:01.248 20/01/2026]',-105444.9,-185634.1,-110607.9,-131923,-375000,-375000,-147225.7,-118483.9,0.03,0.00,0.88,-4,0,-2,48,0
'[13:38:01.252 20/01/2026]',-105130.8,-185634.2,-109540.4,-129784.5,-375000,-375000,-146327.5,-118345.3,0.03,0.00,0.88,-4,0,-2,48,0
'[13:38:01.256 20/01/2026]',-106831,-188064.4,-107903.2,-127201.3,-375000,-375000,-146102,-120490.9,0.03,0.00,0.88,-4,0,-2,48,0
'[13:38:01.260 20/01/2026]',-107649.4,-188713.2,-108720.9,-129008.9,-375000,-375000,-147088.6,-121216.2,0.03,0.00,0.89,-4,0,-2,48,0
'[13:38:01.264 20/01/2026]',-105764.3,-186004.5,-110600.7,-131981.1,-375000,-375000,-147366.4,-118810.1,0.03,0.00,0.89,-4,0,-2,48,0
'[13:38:01.268 20/01/2026]',-105064.8,-185453.2,-109824.3,-130278.8,-375000,-375000,-146463.2,-118192.5,0.03,0.00,0.89,-4,0,-2,48,0
'[13:38:01.272 20/01/2026]',-106516.9,-187619.2,-108119,-127485,-375000,-375000,-146072.4,-120106.2,0.03,0.00,0.89,-4,0,-2,48,0
'[13:38:01.276 20/01/2026]',-107782.4,-188968.6,-108339.2,-128321.1,-375000,-375000,-146894.4,-121424.5,0.03,0.00,0.89,-4,0,-2,48,0
'[13:38:01.280 20/01/2026]',-106094.8,-186428.4,-110458.8,-131836.9,-375000,-375000,-147447.3,-119188.5,0.03,0.00,0.89,-4,0,-2,48,0
'[13:38:01.284 20/01/2026]',-104997,-185329.8,-110025.4,-130687.1,-375000,-375000,-146577.3,-118082.8,0.03,0.00,0.89,-4,0,-2,48,0
'[13:38:01.288 20/01/2026]',-106153.4,-187140.6,-108349.7,-127835,-375000,-375000,-146040.7,-119662.4,0.03,0.00,0.89,-4,0,-2,48,0
'[13:38:01.292 20/01/2026]',-107755.2,-189029.3,-108009.6,-127712.6,-375000,-375000,-146666.9,-121464.2,0.03,0.00,0.89,-4,0,-2,48,0
'[13:38:01.296 20/01/2026]',-106412.2,-186827,-110212.3,-131476.1,-375000,-375000,-147449.9,-119583.8,0.03,0.00,0.88,-4,0,0,48,0
'[13:38:01.300 20/01/2026]',-104973.9,-185228.1,-110216.4,-131059.5,-375000,-375000,-146701.3,-118032.4,0.03,0.00,0.88,-4,0,0,48,0
'[13:38:01.304 20/01/2026]',-105784,-186651.6,-108587.6,-128234.8,-375000,-375000,-146020.5,-119215.8,0.03,0.00,0.88,-4,0,0,48,0
'[13:38:01.308 20/01/2026]',-107598.8,-188946.1,-107754.3,-127250.4,-375000,-375000,-146424.7,-121339.9,0.03,0.00,0.88,-4,0,0,48,0
'[13:38:01.312 20/01/2026]',-106744.8,-187315.5,-109881.7,-130992.7,-375000,-375000,-147408,-120006.2,0.03,0.00,0.88,-4,0,0,48,0
'[13:38:01.316 20/01/2026]',-105039.6,-185237.3,-110373.8,-131398.9,-375000,-375000,-146843.3,-118065.7,0.03,0.00,0.88,-4,0,0,48,0
'[13:38:01.320 20/01/2026]',-105498.7,-186189.2,-108870,-128697.6,-375000,-375000,-146062,-118842.6,0.03,0.00,0.88,-4,0,0,48,0
'[13:38:01.324 20/01/2026]',-107399.3,-188724.6,-107656.4,-127015.3,-375000,-375000,-146256.7,-121135.4,0.03,0.00,0.88,-4,0,0,48,0
'[13:38:01.328 20/01/2026]',-107088.2,-187820.7,-109501.4,-130391.4,-375000,-375000,-147334.5,-120442.4,0.03,0.00,0.88,-4,0,0,48,0
'[13:38:01.332 20/01/2026]',-105180.1,-185385.3,-110497.5,-131677.3,-375000,-375000,-147008.2,-118210.5,0.03,0.00,0.89,-4,0,-2,48,0
'[13:38:01.336 20/01/2026]',-105274.7,-185894.1,-109216.8,-129225.5,-375000,-375000,-146176.8,-118567,0.03,0.00,0.89,-4,0,-2,48,0
'[13:38:01.340 20/01/2026]',-107132.8,-188438.9,-107750.3,-127039.8,-375000,-375000,-146172.5,-120863,0.03,0.00,0.89,-4,0,-2,48,0
'[13:38:01.344 20/01/2026]',-107398.2,-188280.2,-109138.9,-129741.8,-375000,-375000,-147244.5,-120874.2,0.03,0.00,0.89,-4,0,-2,48,0
'[13:38:01.348 20/01/2026]',-105440.7,-185638.3,-110609.9,-131919,-375000,-375000,-147206.1,-118465,0.03,0.00,0.89,-4,0,-2,48,0
'[13:38:01.352 20/01/2026]',-105129.8,-185640.3,-109496.9,-129723.7,-375000,-375000,-146284.5,-118335.3,0.03,0.00,0.89,-4,0,-2,48,0
'[13:38:01.356 20/01/2026]',-106823.8,-188053.7,-107851.1,-127141.1,-375000,-375000,-146066,-120492.8,0.03,0.00,0.89,-4,0,-2,48,0
'[13:38:01.360 20/01/2026]',-107610.7,-188658.2,-108704.8,-129007.7,-375000,-375000,-147065.3,-121174.9,0.03,0.00,0.89,-4,0,-2,48,0
'[13:38:01.364 20/01/2026]',-105704.4,-185931.8,-110558.7,-131927.8,-375000,-375000,-147318.9,-118767.8,0.03,0.00,0.89,-4,0,-2,48,0
'[13:38:01.368 20/01/2026]',-105005,-185382.8,-109757.7,-130189.7,-375000,-375000,-146402.5,-118165.4,0.03,0.00,0.89,-4,0,-2,48,0
'[13:38:01.372 20/01/2026]',-106478.7,-187582.4,-108064.8,-127418.9,-375000,-375000,-146020.4,-120084.3,0.03,0.00,0.89,-4,0,-2,48,0
'[13:38:01.376 20/01/2026]',-107726.5,-188907.6,-108323.8,-128321.6,-375000,-375000,-146856.2,-121370.3,0.03,0.00,0.89,-4,0,-2,48,0
'[13:38:01.380 20/01/2026]',-106029.9,-186346.8,-110457.5,-131808.4,-375000,-375000,-147395.8,-119129.3,0.03,0.00,0.89,-4,0,-2,48,0
'[13:38:01.384 20/01/2026]',-104961.9,-185284.4,-110026.2,-130659.5,-375000,-375000,-146546.6,-118071.9,0.03,0.00,0.89,-4,0,-2,48,0
'[13:38:01.388 20/01/2026]',-106134.3,-187132.1,-108316,-127803.4,-375000,-375000,-146013.6,-119670.4,0.03,0.00,0.89,-4,0,-2,48,0
'[13:38:01.392 20/01/2026]',-107726.5,-189005.7,-108003.4,-127729.1,-375000,-375000,-146644,-121438,0.03,0.00,0.89,-4,0,-2,48,0
'[13:38:01.396 20/01/2026]',-106383,-186798.2,-110243.2,-131523.3,-375000,-375000,-147439.3,-119547,0.03,0.00,0.89,-4,0,-2,48,0
'[13:38:01.400 20/01/2026]',-104983.7,-185220.7,-110223.3,-131067,-375000,-375000,-146698.3,-118039,0.03,0.00,0.89,-4,0,-2,48,0
'[13:38:01.404 20/01/2026]',-105831.8,-186686.2,-108605.5,-128261.5,-375000,-375000,-146049.2,-119273.2,0.03,0.00,0.89,-4,0,-2,48,0
'[13:38:01.408 20/01/2026]',-107630.7,-188945,-107797,-127321.3,-375000,-375000,-146461.6,-121374.5,0.03,0.00,0.89,-4,0,-2,48,0
'[13:38:01.412 20/01/2026]',-106733.6,-187280.6,-109946.1,-131077.2,-375000,-375000,-147434.8,-119998.6,0.03,0.00,0.89,-4,0,-2,48,0
'[13:38:01.416 20/01/2026]',-105055.5,-185286.9,-110434.1,-131459.4,-375000,-375000,-146885.5,-118108,0.03,0.00,0.89,-4,0,-2,48,0
'[13:38:01.420 20/01/2026]',-105544.6,-186296.9,-108930.5,-128749.9,-375000,-375000,-146112.6,-118917.7,0.03,0.00,0.89,-4,0,-2,48,0
'[13:38:01.424 20/01/2026]',-107458,-188802.1,-107759,-127127.3,-375000,-375000,-146324.8,-121196.6,0.03,0.00,0.89,-4,0,-2,48,0
'[13:38:01.428 20/01/2026]',-107116.8,-187838.6,-109586.7,-130482.1,-375000,-375000,-147378.9,-120461,0.03,0.00,0.89,-4,0,-2,48,0
'[13:38:01.432 20/01/2026]',-105216.5,-185413.7,-110529.2,-131707.3,-375000,-375000,-147022.9,-118230.8,0.03,0.00,0.89,-4,0,-2,48,0
'[13:38:01.436 20/01/2026]',-105318.2,-185932.6,-109209.1,-129216.1,-375000,-375000,-146168.6,-118594.1,0.03,0.00,0.89,-4,0,-2,48,0
'[13:38:01.440 20/01/2026]',-107152.3,-188453.7,-107727.5,-127006.6,-375000,-375000,-146140.2,-120868.2,0.03,-0.02,0.89,-4,0,-2,48,0
'[13:38:01.444 20/01/2026]',-107354.3,-188225.4,-109119.7,-129734.4,-375000,-375000,-147196.1,-120812.3,0.03,-0.02,0.89,-4,0,-2,48,0
'[13:38:01.448 20/01/2026]',-105389.1,-185582.8,-110560,-131870.9,-375000,-375000,-147146.2,-118411.8,0.03,-0.02,0.89,-4,0,-2,48,0
'[13:38:01.452 20/01/2026]',-105089.2,-185585.4,-109446,-129665.2,-375000,-375000,-146230.5,-118298.6,0.03,-0.02,0.89,-4,0,-2,48,0
'[13:38:01.456 20/01/2026]',-106776,-187989.4,-107790.2,-127079.8,-375000,-375000,-146007.1,-120445.9,0.03,-0.02,0.89,-4,0,-2,48,0
'[13:38:01.460 20/01/2026]',-107527.4,-188551.5,-108675.7,-128979.4,-375000,-375000,-146999.5,-121088.6,0.03,-0.02,0.89,-4,0,-2,48,0
'[13:38:01.464 20/01/2026]',-105635.6,-185868.1,-110540.9,-131897.9,-375000,-375000,-147261.5,-118698.5,0.03,-0.02,0.89,-4,0,-2,48,0
'[13:38:01.468 20/01/2026]',-104991.5,-185397.7,-109748.2,-130180,-375000,-375000,-146388.5,-118155.7,0.03,-0.02,0.89,-4,0,-2,48,0
'[13:38:01.472 20/01/2026]',-106492.7,-187617.3,-108047.9,-127412.5,-375000,-375000,-146025.3,-120107.6,0.03,-0.02,0.89,-4,0,-2,48,0
'[13:38:01.476 20/01/2026]',-107721.8,-188890.7,-108334.5,-128334.4,-375000,-375000,-146854.1,-121358.4,0.03,0.00,0.88,-4,0,-2,48,0
'[13:38:01.480 20/01/2026]',-106019,-186312.2,-110466.8,-131815.9,-375000,-375000,-147393.3,-119113.2,0.03,0.00,0.88,-4,0,-2,48,0
'[13:38:01.484 20/01/2026]',-104983.3,-185301.5,-110012.7,-130653,-375000,-375000,-146553.7,-118085.1,0.03,0.00,0.88,-4,0,-2,48,0
'[13:38:01.488 20/01/2026]',-106175.3,-187168.8,-108319.5,-127805.9,-375000,-375000,-146029.3,-119699.8,0.03,0.00,0.88,-4,0,-2,48,0
'[13:38:01.492 20/01/2026]',-107745.5,-189012.9,-108035.6,-127774.1,-375000,-375000,-146672.7,-121450.2,0.03,0.00,0.88,-4,0,-2,48,0
'[13:38:01.496 20/01/2026]',-106376.8,-186782.2,-110264.1,-131550.2,-375000,-375000,-147452.4,-119541.6,0.03,0.00,0.88,-4,0,-2,48,0
'[13:38:01.500 20/01/2026]',-104993.3,-185240,-110233,-131072.4,-375000,-375000,-146704.8,-118049.5,0.03,0.00,0.88,-4,0,-2,48,0
'[13:38:01.504 20/01/2026]',-105837.2,-186705.9,-108606.4,-128232.8,-375000,-375000,-146039.4,-119285.8,0.03,0.00,0.88,-4,0,-2,48,0
'[13:38:01.508 20/01/2026]',-107629.9,-188960.9,-107818.6,-127316.6,-375000,-375000,-146455.9,-121376.4,0.03,0.00,0.88,-4,0,-2,48,0
'[13:38:01.512 20/01/2026]',-106716.5,-187248.8,-109952.7,-131071.3,-375000,-375000,-147411.1,-119962.2,0.03,0.00,0.89,-4,0,-2,48,0
'[13:38:01.516 20/01/2026]',-105038.5,-185241.8,-110376.3,-131384.6,-375000,-375000,-146826.5,-118068,0.03,0.00,0.89,-4,0,-2,48,0
'[13:38:01.520 20/01/2026]',-105527.7,-186269.2,-108854.6,-128671.3,-375000,-375000,-146059.4,-118893.3,0.03,0.00,0.89,-4,0,-2,48,0
'[13:38:01.524 20/01/2026]',-107413.7,-188754.3,-107673.7,-127038,-375000,-375000,-146258,-121160.6,0.03,0.00,0.89,-4,0,-2,48,0
'[13:38:01.528 20/01/2026]',-107051.3,-187738.6,-109578.8,-130482.5,-375000,-375000,-147332.8,-120388.7,0.03,0.00,0.89,-4,0,-2,48,0
'[13:38:01.532 20/01/2026]',-105183.5,-185365.6,-110511,-131677.5,-375000,-375000,-146985.3,-118193.4,0.03,0.00,0.89,-4,0,-2,48,0
'[13:38:01.536 20/01/2026]',-105301.8,-185922.1,-109166.1,-129173.9,-375000,-375000,-146142.5,-118584.9,0.03,0.00,0.89,-4,0,-2,48,0
'[13:38:01.540 20/01/2026]',-107155.9,-188464.9,-107712.8,-127001.3,-375000,-375000,-146148.1,-120886.2,0.03,0.00,0.89,-4,0,-2,48,0
'[13:38:01.544 20/01/2026]',-107368.5,-188240.1,-109157.3,-129772.1,-375000,-375000,-147222.1,-120823,0.03,0.00,0.89,-4,0,-2,48,0
'[13:38:01.548 20/01/2026]',-105423.3,-185613.9,-110589.4,-131872.3,-375000,-375000,-147162.9,-118441.2,0.03,-0.02,0.89,-4,0,-2,48,0
'[13:38:01.552 20/01/2026]',-105154.3,-185653.5,-109498.6,-129706.8,-375000,-375000,-146291.8,-118372.7,0.03,-0.02,0.89,-4,0,-2,48,0
'[13:38:01.556 20/01/2026]',-106865.1,-188092.5,-107854.1,-127138.4,-375000,-375000,-146088.5,-120546.8,0.03,-0.02,0.89,-4,0,-2,48,0
'[13:38:01.560 20/01/2026]',-107594.1,-188624,-108754,-129079.1,-375000,-375000,-147076.7,-121144.9,0.03,-0.02,0.89,-4,0,-2,48,0
'[13:38:01.564 20/01/2026]',-105672.3,-185897.6,-110565.4,-131932,-375000,-375000,-147293,-118719.3,0.03,-0.02,0.89,-4,0,-2,48,0
'[13:38:01.568 20/01/2026]',-105025.3,-185441.9,-109737.3,-130154.3,-375000,-375000,-146391.5,-118181.3,0.03,-0.02,0.89,-4,0,-2,48,0
'[13:38:01.572 20/01/2026]',-106514.7,-187637.6,-108036.3,-127384.5,-375000,-375000,-146026.3,-120129.4,0.03,-0.02,0.89,-4,0,-2,48,0
'[13:38:01.576 20/01/2026]',-107710.5,-188861.1,-108363.4,-128380.1,-375000,-375000,-146882.1,-121359.8,0.03,-0.02,0.89,-4,0,-2,48,0
'[13:38:01.580 20/01/2026]',-105975.3,-186273.8,-110456.4,-131809.7,-375000,-375000,-147379.2,-119083,0.03,-0.02,0.89,-4,0,-2,48,0
'[13:38:01.584 20/01/2026]',-104937,-185266.9,-109959,-130575.3,-375000,-375000,-146504.1,-118058.6,0.02,0.00,0.88,-4,0,-2,48,0
'[13:38:01.588 20/01/2026]',-106141.8,-187155.7,-108263.3,-127725.6,-375000,-375000,-145989.3,-119685.9,0.02,0.00,0.88,-4,0,-2,48,0
'[13:38:01.592 20/01/2026]',-107705.3,-188974.2,-108016.9,-127754.8,-375000,-375000,-146649,-121416.6,0.02,0.00,0.88,-4,0,-2,48,0
'[13:38:01.596 20/01/2026]',-106314,-186716,-110241.7,-131529.7,-375000,-375000,-147414,-119481.4,0.02,0.00,0.88,-4,0,-2,48,0
'[13:38:01.600 20/01/2026]',-104942.5,-185204.6,-110170.8,-130998.9,-375000,-375000,-146658.5,-118016.5,0.02,0.00,0.88,-4,0,-2,48,0
'[13:38:01.604 20/01/2026]',-105818.2,-186688.4,-108535.6,-128168.8,-375000,-375000,-146015.8,-119279.8,0.02,0.00,0.88,-4,0,-2,48,0
'[13:38:01.608 20/01/2026]',-107614.7,-188918,-107802.5,-127333.4,-375000,-375000,-146473.5,-121367.8,0.02,0.00,0.88,-4,0,-2,48,0
'[13:38:01.612 20/01/2026]',-106684.5,-187219.8,-109960.8,-131110.7,-375000,-375000,-147434.9,-119947.3,0.02,0.00,0.88,-4,0,-2,48,0
'[13:38:01.616 20/01/2026]',-105025.6,-185249.8,-110374.1,-131377.7,-375000,-375000,-146843.4,-118088.3,0.02,0.00,0.88,-4,0,-2,48,0
'[13:38:01.620 20/01/2026]',-105547.2,-186293.6,-108859.4,-128653.8,-375000,-375000,-146082.8,-118934.9,0.05,-0.02,0.89,-4,0,-2,48,0
'[13:38:01.624 20/01/2026]',-107444,-188783.7,-107716.9,-127083.4,-375000,-375000,-146316.8,-121208.5,0.05,-0.02,0.89,-4,0,-2,48,0
'[13:38:01.628 20/01/2026]',-107052.9,-187729.3,-109627,-130544.7,-375000,-375000,-147392.6,-120418.4,0.05,-0.02,0.89,-4,0,-2,48,0
'[13:38:01.632 20/01/2026]',-105185.6,-185355.6,-110530.8,-131697,-375000,-375000,-147028.5,-118236.9,0.05,-0.02,0.89,-4,0,-2,48,0
'[13:38:01.636 20/01/2026]',-105321.6,-185960.5,-109163.6,-129168.8,-375000,-375000,-146181.9,-118644.8,0.05,-0.02,0.89,-4,0,-2,48,0
'[13:38:01.640 20/01/2026]',-107183,-188490.3,-107734.8,-127027.3,-375000,-375000,-146194.7,-120935,0.05,-0.02,0.89,-4,0,-2,48,0
'[13:38:01.644 20/01/2026]',-107333.8,-188188,-109191.9,-129827.1,-375000,-375000,-147246.3,-120801.7,0.05,-0.02,0.89,-4,0,-2,48,0
'[13:38:01.648 20/01/2026]',-105369.4,-185563.1,-110560,-131844.1,-375000,-375000,-147142.5,-118414.9,0.05,-0.02,0.89,-4,0,-2,48,0
'[13:38:01.652 20/01/2026]',-105121,-185636.2,-109428.8,-129617,-375000,-375000,-146242.6,-118365.7,0.05,-0.02,0.89,-4,0,-2,48,0
'[13:38:01.656 20/01/2026]',-106832.5,-188084.2,-107794.8,-127067.1,-375000,-375000,-146052.6,-120546.2,0.03,0.00,0.88,-4,0,-2,48,0
'[13:38:01.660 20/01/2026]',-107527.3,-188566.1,-108723.1,-129065.7,-375000,-375000,-147055.3,-121115.9,0.03,0.00,0.88,-4,0,-2,48,0
'[13:38:01.664 20/01/2026]',-105621.3,-185863.3,-110554.8,-131923.6,-375000,-375000,-147282.6,-118705.3,0.03,0.00,0.88,-4,0,-2,48,0
'[13:38:01.668 20/01/2026]',-104999.6,-185421.1,-109708.9,-130118.4,-375000,-375000,-146383.3,-118189.9,0.03,0.00,0.88,-4,0,-2,48,0
'[13:38:01.672 20/01/2026]',-106498.9,-187632.9,-107993.6,-127342.7,-375000,-375000,-146015.4,-120140.5,0.03,0.00,0.88,-4,0,-2,48,0
'[13:38:01.676 20/01/2026]',-107655,-188806.6,-108339.6,-128366.5,-375000,-375000,-146856.6,-121325.3,0.03,0.00,0.88,-4,0,-2,48,0
'[13:38:01.680 20/01/2026]',-105907.3,-186206.5,-110431.2,-131805.6,-375000,-375000,-147354,-119039.8,0.03,0.00,0.88,-4,0,-2,48,0
'[13:38:01.684 20/01/2026]',-104924.1,-185256.5,-109957.1,-130572.8,-375000,-375000,-146506.1,-118061.7,0.03,0.00,0.88,-4,0,-2,48,0
'[13:38:01.688 20/01/2026]',-106166.9,-187173.3,-108260.9,-127720.7,-375000,-375000,-146003.9,-119725.9,0.03,0.00,0.88,-4,0,-2,48,0
'[13:38:01.692 20/01/2026]',-107723.5,-188986.6,-108054.3,-127811.3,-375000,-375000,-146690.7,-121447.6,0.03,0.00,0.88,-4,0,-2,48,0
'[13:38:01.696 20/01/2026]',-106319.2,-186726.2,-110282.6,-131575.7,-375000,-375000,-147446.2,-119497.4,0.03,0.00,0.88,-4,0,-2,48,0
'[13:38:01.700 20/01/2026]',-104957,-185223.4,-110187.8,-131010.5,-375000,-375000,-146682.3,-118051.7,0.03,0.00,0.88,-4,0,-2,48,0
'[13:38:01.704 20/01/2026]',-105847.6,-186742.9,-108551.6,-128182.2,-375000,-375000,-146046.1,-119332.3,0.03,0.00,0.88,-4,0,-2,48,0
'[13:38:01.708 20/01/2026]',-107625.3,-188975,-107822.8,-127359.5,-375000,-375000,-146495,-121393.6,0.03,0.00,0.88,-4,0,-2,48,0
'[13:38:01.712 20/01/2026]',-106661.4,-187212.4,-109984.9,-131135.4,-375000,-375000,-147440.7,-119936.8,0.03,0.00,0.88,-4,0,-2,48,0
'[13:38:01.716 20/01/2026]',-105020.9,-185247,-110378.4,-131381,-375000,-375000,-146845.2,-118091.6,0.03,0.00,0.88,-4,0,-2,48,0
'[13:38:01.720 20/01/2026]',-105571.7,-186335.7,-108862.2,-128662,-375000,-375000,-146103.6,-118978.4,0.03,0.00,0.88,-4,0,-2,48,0
'[13:38:01.724 20/01/2026]',-107446.4,-188803.6,-107701.9,-127074,-375000,-375000,-146314.5,-121230.9,0.03,0.00,0.88,-4,0,-2,48,0
'[13:38:01.728 20/01/2026]',-107005,-187709.9,-109608.5,-130547.1,-375000,-375000,-147362.8,-120377.1,0.03,-0.02,0.89,-4,0,-2,48,0
'[13:38:01.732 20/01/2026]',-105142.3,-185344.8,-110490.8,-131667.6,-375000,-375000,-146989.4,-118202.8,0.03,-0.02,0.89,-4,0,-2,48,0
'[13:38:01.736 20/01/2026]',-105294,-185930.8,-109114.6,-129108.1,-375000,-375000,-146136,-118630.8,0.03,-0.02,0.89,-4,0,-2,48,0
'[13:38:01.740 20/01/2026]',-107155.2,-188475.1,-107675.9,-126954,-375000,-375000,-146142.2,-120919,0.03,-0.02,0.89,-4,0,-2,48,0
'[13:38:01.744 20/01/2026]',-107283.3,-188159.8,-109176.9,-129827.3,-375000,-375000,-147217.7,-120759.9,0.03,-0.02,0.89,-4,0,-2,48,0
'[13:38:01.748 20/01/2026]',-105337.7,-185558.3,-110571.8,-131857.1,-375000,-375000,-147137.6,-118393.7,0.03,-0.02,0.89,-4,0,-2,48,0
'[13:38:01.752 20/01/2026]',-105119.4,-185649.7,-109427.8,-129612.4,-375000,-375000,-146243.7,-118363.3,0.03,-0.02,0.89,-4,0,-2,48,0
'[13:38:01.756 20/01/2026]',-106861.2,-188103.9,-107787.1,-127064.1,-375000,-375000,-146065.6,-120564.5,0.03,-0.02,0.89,-4,0,-2,48,0
'[13:38:01.760 20/01/2026]',-107541.8,-188558.5,-108758.7,-129106.8,-375000,-375000,-147078.5,-121108.4,0.03,-0.02,0.89,-4,0,-2,48,0
'[13:38:01.764 20/01/2026]',-105602,-185842.7,-110544.7,-131905.3,-375000,-375000,-147270.2,-118682.2,0.03,-0.02,0.88,-4,0,-2,48,0
'[13:38:01.768 20/01/2026]',-105001.2,-185435.1,-109700,-130094.2,-375000,-375000,-146376.7,-118199.6,0.03,-0.02,0.88,-4,0,-2,48,0
'[13:38:01.772 20/01/2026]',-106530.3,-187684.5,-108000.4,-127330.1,-375000,-375000,-146028.4,-120182.8,0.03,-0.02,0.88,-4,0,-2,48,0
'[13:38:01.776 20/01/2026]',-107683,-188851.3,-108384.5,-128429.9,-375000,-375000,-146900.3,-121348.9,0.03,-0.02,0.88,-4,0,-2,48,0
'[13:38:01.780 20/01/2026]',-105939.2,-186245.5,-110489.2,-131864.2,-375000,-375000,-147401.3,-119065.5,0.03,-0.02,0.88,-4,0,-2,48,0
'[13:38:01.784 20/01/2026]',-104954.3,-185296.3,-109967.2,-130571.5,-375000,-375000,-146530.4,-118100.3,0.03,-0.02,0.88,-4,0,-2,48,0
'[13:38:01.788 20/01/2026]',-106195.5,-187218.8,-108253.3,-127701.6,-375000,-375000,-146019.6,-119770.4,0.03,-0.02,0.88,-4,0,-2,48,0
'[13:38:01.792 20/01/2026]',-107738.8,-188997,-108074,-127846.6,-375000,-375000,-146710.6,-121459.7,0.03,-0.02,0.88,-4,0,-2,48,0
'[13:38:01.796 20/01/2026]',-106324.8,-186715.9,-110323.1,-131639.9,-375000,-375000,-147475.7,-119496.8,0.03,-0.02,0.88,-4,0,-2,48,0
'[13:38:01.800 20/01/2026]',-104995,-185264.9,-110228.2,-131039,-375000,-375000,-146713.7,-118083.2,0.03,0.00,0.89,-4,0,-2,48,0
'[13:38:01.804 20/01/2026]',-105917.4,-186791.6,-108579.1,-128171.2,-375000,-375000,-146072,-119388.4,0.03,0.00,0.89,-4,0,-2,48,0
'[13:38:01.808 20/01/2026]',-107696.6,-189015.6,-107851.4,-127395.9,-375000,-375000,-146538.7,-121449,0.03,0.00,0.89,-4,0,-2,48,0
'[13:38:01.812 20/01/2026]',-106683.4,-187220.9,-110012.2,-131197.2,-375000,-375000,-147468.6,-119943.7,0.03,0.00,0.89,-4,0,-2,48,0
'[13:38:01.816 20/01/2026]',-105033.2,-185280.6,-110397.5,-131385.4,-375000,-375000,-146846.1,-118099.2,0.03,0.00,0.89,-4,0,-2,48,0
'[13:38:01.820 20/01/2026]',-105591.9,-186381.6,-108876.1,-128652.3,-375000,-375000,-146106.8,-119002.5,0.03,0.00,0.89,-4,0,-2,48,0
'[13:38:01.824 20/01/2026]',-107503.8,-188855.7,-107759.9,-127130.1,-375000,-375000,-146370.9,-121283.3,0.03,0.00,0.89,-4,0,-2,48,0
'[13:38:01.828 20/01/2026]',-107047.6,-187727.7,-109693.8,-130645.1,-375000,-375000,-147427.9,-120400.3,0.03,0.00,0.89,-4,0,-2,48,0
'[13:38:01.832 20/01/2026]',-105198.2,-185393.1,-110570.3,-131730.1,-375000,-375000,-147050.9,-118245.2,0.03,0.00,0.89,-4,0,-2,48,0
'[13:38:01.836 20/01/2026]',-105391.2,-186032.3,-109215.4,-129183.1,-375000,-375000,-146227.5,-118717.8,0.03,-0.02,0.88,-4,0,-2,48,0
'[13:38:01.840 20/01/2026]',-107265.9,-188579.1,-107748.9,-127023.8,-375000,-375000,-146231.1,-121018.7,0.03,-0.02,0.88,-4,0,-2,48,0
'[13:38:01.844 20/01/2026]',-107361.1,-188211.9,-109256.5,-129940.5,-375000,-375000,-147295.6,-120817.3,0.03,-0.02,0.88,-4,0,-2,48,0
'[13:38:01.848 20/01/2026]',-105386.7,-185596.2,-110612.6,-131905.1,-375000,-375000,-147174.6,-118425.8,0.03,-0.02,0.88,-4,0,-2,48,0
'[13:38:01.852 20/01/2026]',-105175.3,-185713.5,-109445.9,-129621.8,-375000,-375000,-146268.1,-118417.4,0.03,-0.02,0.88,-4,0,-2,48,0
'[13:38:01.856 20/01/2026]',-106925.9,-188177.6,-107784.3,-127073.2,-375000,-375000,-146083.1,-120627.8,0.03,-0.02,0.88,-4,0,-2,48,0
'[13:38:01.860 20/01/2026]',-107573,-188596.1,-108764.8,-129154.3,-375000,-375000,-147088.4,-121137.6,0.03,-0.02,0.88,-4,0,-2,48,0
'[13:38:01.864 20/01/2026]',-105632.2,-185869,-110600.5,-131951.4,-375000,-375000,-147287.9,-118707,0.03,-0.02,0.88,-4,0,-2,48,0
'[13:38:01.868 20/01/2026]',-105038.4,-185464.4,-109739.5,-130111.9,-375000,-375000,-146386.7,-118222.3,0.03,-0.02,0.88,-4,0,-2,48,0
'[13:38:01.872 20/01/2026]',-106575.4,-187740,-107996,-127319.3,-375000,-375000,-146024.7,-120219.4,0.02,-0.02,0.89,-4,0,-2,48,0
'[13:38:01.876 20/01/2026]',-107706.8,-188874.1,-108393.7,-128473.9,-375000,-375000,-146907.1,-121361.5,0.02,-0.02,0.89,-4,0,-2,48,0
'[13:38:01.880 20/01/2026]',-105940.7,-186251.5,-110521.4,-131899.6,-375000,-375000,-147404.3,-119050.6,0.02,-0.02,0.89,-4,0,-2,48,0
'[13:38:01.884 20/01/2026]',-104965,-185318.3,-109977.4,-130560.4,-375000,-375000,-146524,-118101.7,0.02,-0.02,0.89,-4,0,-2,48,0
'[13:38:01.888 20/01/2026]',-106246.7,-187291.6,-108254,-127703.1,-375000,-375000,-146027.8,-119808.9,0.02,-0.02,0.89,-4,0,-2,48,0
'[13:38:01.892 20/01/2026]',-107789.5,-189067.1,-108117.9,-127929.8,-375000,-375000,-146750.4,-121499.8,0.02,-0.02,0.89,-4,0,-2,48,0
'[13:38:01.896 20/01/2026]',-106329.1,-186725.4,-110376.6,-131691.6,-375000,-375000,-147495.6,-119493.3,0.02,-0.02,0.89,-4,0,-2,48,0
'[13:38:01.900 20/01/2026]',-105001,-185269,-110235.3,-131019,-375000,-375000,-146707.1,-118082.3,0.02,-0.02,0.89,-4,0,-2,48,0
'[13:38:01.904 20/01/2026]',-105943.9,-186834.6,-108563.9,-128169,-375000,-375000,-146075.2,-119426,0.02,-0.02,0.89,-4,0,-2,48,0
'[13:38:01.908 20/01/2026]',-107717.9,-189047.9,-107860.5,-127437.4,-375000,-375000,-146536.6,-121468.8,0.03,0.00,0.88,-4,0,-2,48,0
'[13:38:01.912 20/01/2026]',-106685,-187211.5,-110073,-131242,-375000,-375000,-147469.5,-119924.4,0.03,0.00,0.88,-4,0,-2,48,0
'[13:38:01.916 20/01/2026]',-105051.5,-185278.2,-110418,-131365.8,-375000,-375000,-146843.4,-118101.1,0.03,0.00,0.88,-4,0,-2,48,0
'[13:38:01.920 20/01/2026]',-105644.6,-186428.7,-108872.4,-128631.2,-375000,-375000,-146107.9,-119039.8,0.03,0.00,0.88,-4,0,-2,48,0
'[13:38:01.924 20/01/2026]',-107549.8,-188910.1,-107754.7,-127160.6,-375000,-375000,-146368,-121312.6,0.03,0.00,0.88,-4,0,-2,48,0
'[13:38:01.928 20/01/2026]',-107034.1,-187708.5,-109721.7,-130694.9,-375000,-375000,-147424.8,-120376.7,0.03,0.00,0.88,-4,0,-2,48,0
'[13:38:01.932 20/01/2026]',-105167.9,-185364.3,-110552.8,-131684.3,-375000,-375000,-147015.9,-118207.9,0.03,0.00,0.88,-4,0,-2,48,0
'[13:38:01.936 20/01/2026]',-105378.6,-186033,-109154.5,-129118,-375000,-375000,-146178.1,-118701.4,0.03,0.00,0.88,-4,0,-2,48,0
'[13:38:01.940 20/01/2026]',-107276.9,-188598.4,-107733.9,-127067.4,-375000,-375000,-146222.7,-121027,0.03,0.00,0.88,-4,0,-2,48,0
'[13:38:01.944 20/01/2026]',-107357.7,-188188.1,-109299.3,-130019.1,-375000,-375000,-147316.9,-120802.6,0.03,-0.02,0.88,-4,0,-2,48,0
'[13:38:01.948 20/01/2026]',-105376.8,-185573.3,-110637,-131904.8,-375000,-375000,-147187.8,-118421.1,0.03,-0.02,0.88,-4,0,-2,48,0
'[13:38:01.952 20/01/2026]',-105205.1,-185746.8,-109466.9,-129636.8,-375000,-375000,-146298.9,-118452.2,0.03,-0.02,0.88,-4,0,-2,48,0
'[13:38:01.956 20/01/2026]',-106991.7,-188247.9,-107842.1,-127163.9,-375000,-375000,-146137.1,-120687.2,0.03,-0.02,0.88,-4,0,-2,48,0
'[13:38:01.960 20/01/2026]',-107607.7,-188601,-108885.1,-129325.6,-375000,-375000,-147163.8,-121142.8,0.03,-0.02,0.88,-4,0,-2,48,0
'[13:38:01.964 20/01/2026]',-105657.9,-185860.6,-110680.8,-132027,-375000,-375000,-147344.5,-118703,0.03,-0.02,0.88,-4,0,-2,48,0
'[13:38:01.968 20/01/2026]',-105085.6,-185519.9,-109777.2,-130129.3,-375000,-375000,-146427.2,-118267.7,0.03,-0.02,0.88,-4,0,-2,48,0
'[13:38:01.972 20/01/2026]',-106655.1,-187833.8,-108058.3,-127420.9,-375000,-375000,-146094.2,-120297.6,0.03,-0.02,0.88,-4,0,-2,48,0
'[13:38:01.976 20/01/2026]',-107779.1,-188932.6,-108511.8,-128650.9,-375000,-375000,-147003.8,-121416.9,0.03,-0.02,0.88,-4,0,-2,48,0
'[13:38:01.980 20/01/2026]',-105983.4,-186274.9,-110593.3,-131959.1,-375000,-375000,-147462.7,-119083.7,0.02,0.00,0.88,-4,0,-2,48,0
'[13:38:01.984 20/01/2026]',-105037.1,-185393.7,-110055.1,-130626.1,-375000,-375000,-146597.1,-118172.1,0.02,0.00,0.88,-4,0,-2,48,0
'[13:38:01.988 20/01/2026]',-106336.6,-187390,-108328.9,-127804.4,-375000,-375000,-146110.3,-119902.9,0.02,0.00,0.88,-4,0,-2,48,0
'[13:38:01.992 20/01/2026]',-107833.4,-189095.9,-108172.4,-128040.7,-375000,-375000,-146807,-121539.7,0.02,0.00,0.88,-4,0,-2,48,0
'[13:38:01.996 20/01/2026]',-106330.4,-186712.2,-110406.1,-131735.3,-375000,-375000,-147523,-119488.7,0.02,0.00,0.88,-4,0,-2,48,0
'[13:38:02.000 20/01/2026]',-105013.1,-185284.8,-110279,-131035.5,-375000,-375000,-146730.9,-118099.9,0.02,0.00,0.88,-4,0,-2,48,0
'[13:38:02.004 20/01/2026]',-105988.9,-186898,-108617.4,-128213.9,-375000,-375000,-146106.5,-119467.7,0.02,0.00,0.88,-4,0,-2,48,0
'[13:38:02.008 20/01/2026]',-107773,-189102.5,-107956.8,-127573.1,-375000,-375000,-146607.6,-121516.2,0.02,0.00,0.88,-4,0,-2,48,0
'[13:38:02.012 20/01/2026]',-106709.7,-187224.2,-110163.6,-131349.8,-375000,-375000,-147534.8,-119942.5,0.02,0.00,0.88,-4,0,-2,48,0
'[13:38:02.016 20/01/2026]',-105094.4,-185320.4,-110488.8,-131442.5,-375000,-375000,-146905.5,-118139.9,0.03,-0.02,0.89,-4,0,-2,48,0
'[13:38:02.020 20/01/2026]',-105693.4,-186470.3,-108921.6,-128711.3,-375000,-375000,-146164.3,-119099.5,0.03,-0.02,0.89,-4,0,-2,48,0
'[13:38:02.024 20/01/2026]',-107591.1,-188951.7,-107817.5,-127283.8,-375000,-375000,-146430.9,-121369.6,0.03,-0.02,0.89,-4,0,-2,48,0
'[13:38:02.028 20/01/2026]',-107067.1,-187738.2,-109810.9,-130816.1,-375000,-375000,-147492.9,-120409.4,0.03,-0.02,0.89,-4,0,-2,48,0
'[13:38:02.032 20/01/2026]',-105212,-185416.3,-110636.5,-131773.4,-375000,-375000,-147086.1,-118261.7,0.03,-0.02,0.89,-4,0,-2,48,0
'[13:38:02.036 20/01/2026]',-105451.3,-186113.4,-109232.6,-129202.5,-375000,-375000,-146246.5,-118776.1,0.03,-0.02,0.89,-4,0,-2,48,0
'[13:38:02.040 20/01/2026]',-107351,-188680.7,-107791.9,-127146.7,-375000,-375000,-146273.3,-121089.5,0.03,-0.02,0.89,-4,0,-2,48,0
'[13:38:02.044 20/01/2026]',-107364.5,-188183.2,-109381.4,-130135.3,-375000,-375000,-147360.4,-120795.2,0.03,-0.02,0.89,-4,0,-2,48,0
'[13:38:02.048 20/01/2026]',-105389.6,-185566.2,-110696.7,-131971.2,-375000,-375000,-147216.7,-118420.7,0.03,-0.02,0.89,-4,0,-2,48,0
'[13:38:02.052 20/01/2026]',-105245.1,-185765.8,-109515.8,-129679.5,-375000,-375000,-146318.5,-118481,0.02,-0.02,0.88,-4,0,-2,48,0
'[13:38:02.056 20/01/2026]',-107032,-188268.8,-107891.3,-127235.6,-375000,-375000,-146169.7,-120725.3,0.02,-0.02,0.88,-4,0,-2,48,0
'[13:38:02.060 20/01/2026]',-107616.6,-188597.4,-108948.4,-129419.5,-375000,-375000,-147200.2,-121148.9,0.02,-0.02,0.88,-4,0,-2,48,0
'[13:38:02.064 20/01/2026]',-105648.4,-185853,-110710.7,-132075.3,-375000,-375000,-147351,-118692,0.02,-0.02,0.88,-4,0,-2,48,0
'[13:38:02.068 20/01/2026]',-105092.8,-185522,-109782.6,-130157.3,-375000,-375000,-146421.4,-118262.9,0.02,-0.02,0.88,-4,0,-2,48,0
'[13:38:02.072 20/01/2026]',-106661.4,-187825.6,-108041.3,-127429.2,-375000,-375000,-146080.9,-120303.8,0.02,-0.02,0.88,-4,0,-2,48,0
'[13:38:02.076 20/01/2026]',-107751.3,-188871.5,-108524.7,-128689.3,-375000,-375000,-146983.2,-121372.5,0.02,-0.02,0.88,-4,0,-2,48,0
'[13:38:02.080 20/01/2026]',-105936.4,-186199.6,-110618.3,-132001.3,-375000,-375000,-147435.2,-119015.8,0.02,-0.02,0.88,-4,0,-2,48,0
'[13:38:02.084 20/01/2026]',-105017.7,-185355.8,-110054.3,-130631.8,-375000,-375000,-146567.9,-118137.3,0.02,-0.02,0.88,-4,0,-2,48,0
'[13:38:02.088 20/01/2026]',-106344.9,-187383.8,-108328.6,-127811.6,-375000,-375000,-146095.5,-119906.2,0.03,0.00,0.88,-4,0,-2,48,0
'[13:38:02.092 20/01/2026]',-107852.7,-189088.7,-108236.6,-128126.1,-375000,-375000,-146832.9,-121547,0.03,0.00,0.88,-4,0,-2,48,0
'[13:38:02.096 20/01/2026]',-106338.9,-186705.1,-110482,-131836.7,-375000,-375000,-147553.7,-119491,0.03,0.00,0.88,-4,0,-2,48,0
'[13:38:02.100 20/01/2026]',-105044.4,-185320.7,-110303.4,-131103.7,-375000,-375000,-146756,-118124.1,0.03,0.00,0.88,-4,0,-2,48,0
'[13:38:02.104 20/01/2026]',-106035.4,-186959,-108640.2,-128263.8,-375000,-375000,-146134.8,-119513.3,0.03,0.00,0.88,-4,0,-2,48,0
'[13:38:02.108 20/01/2026]',-107795.4,-189119.2,-108002.7,-127648.4,-375000,-375000,-146640.5,-121535,0.03,0.00,0.88,-4,0,-2,48,0
'[13:38:02.112 20/01/2026]',-106689,-187183.5,-110209.6,-131434.3,-375000,-375000,-147551.6,-119921.4,0.03,0.00,0.88,-4,0,-2,48,0
'[13:38:02.116 20/01/2026]',-105065.1,-185306.4,-110481.2,-131464.1,-375000,-375000,-146896.4,-118131.5,0.03,0.00,0.88,-4,0,-2,48,0
'[13:38:02.120 20/01/2026]',-105692.3,-186495.3,-108897.7,-128718.4,-375000,-375000,-146163.2,-119107.7,0.03,0.00,0.88,-4,0,-2,48,0
'[13:38:02.124 20/01/2026]',-107609,-188958.7,-107841.1,-127335.7,-375000,-375000,-146454.4,-121374.9,0.03,0.00,0.89,-4,0,-2,48,0
'[13:38:02.128 20/01/2026]',-107051.3,-187677.7,-109855,-130881.5,-375000,-375000,-147497.8,-120366.6,0.03,0.00,0.89,-4,0,-2,48,0
'[13:38:02.132 20/01/2026]',-105203.4,-185355.6,-110645.8,-131776.9,-375000,-375000,-147060.3,-118225.3,0.03,0.00,0.89,-4,0,-2,48,0
'[13:38:02.136 20/01/2026]',-105464.3,-186104.2,-109233.5,-129201.6,-375000,-375000,-146240.8,-118781.2,0.03,0.00,0.89,-4,0,-2,48,0
'[13:38:02.140 20/01/2026]',-107368.2,-188698.6,-107820,-127183.1,-375000,-375000,-146296.6,-121111.4,0.03,0.00,0.89,-4,0,-2,48,0
'[13:38:02.144 20/01/2026]',-107367.6,-188172.8,-109440.5,-130224.3,-375000,-375000,-147394.1,-120791.1,0.03,0.00,0.89,-4,0,-2,48,0
'[13:38:02.148 20/01/2026]',-105389.8,-185565.8,-110737.4,-132010.5,-375000,-375000,-147227.9,-118414.5,0.03,0.00,0.89,-4,0,-2,48,0
'[13:38:02.152 20/01/2026]',-105240.5,-185792.4,-109514.7,-129668.5,-375000,-375000,-146317,-118489.8,0.03,0.00,0.89,-4,0,-2,48,0
'[13:38:02.156 20/01/2026]',-107036.1,-188308.8,-107870.5,-127202.3,-375000,-375000,-146161.7,-120741.9,0.03,0.00,0.89,-4,0,-2,48,0
'[13:38:02.160 20/01/2026]',-107588.6,-188573.7,-108969.8,-129471.4,-375000,-375000,-147209.1,-121124.1,0.03,-0.02,0.88,-4,0,-2,48,0
'[13:38:02.164 20/01/2026]',-105618.8,-185835.3,-110717.1,-132099.5,-375000,-375000,-147353.9,-118671.8,0.03,-0.02,0.88,-4,0,-2,48,0
'[13:38:02.168 20/01/2026]',-105089.9,-185534,-109786.7,-130148.3,-375000,-375000,-146437.5,-118285.6,0.03,-0.02,0.88,-4,0,-2,48,0
'[13:38:02.172 20/01/2026]',-106689.5,-187862,-108055.2,-127420.7,-375000,-375000,-146112.7,-120353.5,0.03,-0.02,0.88,-4,0,-2,48,0
'[13:38:02.176 20/01/2026]',-107734.8,-188859.9,-108552.5,-128735.9,-375000,-375000,-147007.5,-121373,0.03,-0.02,0.88,-4,0,-2,48,0
'[13:38:02.180 20/01/2026]',-105899.1,-186167.4,-110635.1,-132027.2,-375000,-375000,-147440.3,-119000.1,0.03,-0.02,0.88,-4,0,-2,48,0
'[13:38:02.184 20/01/2026]',-104983.9,-185339.5,-110017.1,-130579,-375000,-375000,-146540.5,-118129.9,0.03,-0.02,0.88,-4,0,-2,48,0
'[13:38:02.188 20/01/2026]',-106311.1,-187372.7,-108265,-127734,-375000,-375000,-146054.7,-119894.5,0.03,-0.02,0.88,-4,0,-2,48,0
'[13:38:02.192 20/01/2026]',-107786.5,-189023.5,-108205.1,-128109.6,-375000,-375000,-146793.8,-121487.1,0.03,-0.02,0.88,-4,0,-2,48,0
'[13:38:02.196 20/01/2026]',-106254.6,-186608.3,-110456.8,-131820.9,-375000,-375000,-147508.1,-119407.7,0.03,0.00,0.88,-4,0,-2,48,0
'[13:38:02.200 20/01/2026]',-104986.4,-185272,-110248.8,-131021.9,-375000,-375000,-146701.3,-118076.2,0.03,0.00,0.88,-4,0,-2,48,0
'[13:38:02.204 20/01/2026]',-106014.3,-186942.7,-108587.7,-128186.9,-375000,-375000,-146105.4,-119505.9,0.03,0.00,0.88,-4,0,-2,48,0
'[13:38:02.208 20/01/2026]',-107775.3,-189095.7,-107993.5,-127649.5,-375000,-375000,-146643.6,-121527.7,0.03,0.00,0.88,-4,0,-2,48,0
'[13:38:02.212 20/01/2026]',-106663.5,-187146.8,-110237.7,-131478.6,-375000,-375000,-147565.4,-119891.1,0.03,0.00,0.88,-4,0,-2,48,0
'[13:38:02.216 20/01/2026]',-105074.9,-185300.9,-110494.2,-131460,-375000,-375000,-146910.6,-118130.7,0.03,0.00,0.88,-4,0,-2,48,0
'[13:38:02.220 20/01/2026]',-105720,-186513,-108895.7,-128670.9,-375000,-375000,-146167.4,-119136.6,0.03,0.00,0.88,-4,0,-2,48,0
'[13:38:02.224 20/01/2026]',-107606.1,-188959.1,-107802.3,-127287.2,-375000,-375000,-146442.7,-121376.9,0.03,0.00,0.88,-4,0,-2,48,0
'[13:38:02.228 20/01/2026]',-107007.5,-187650.4,-109844.1,-130897.7,-375000,-375000,-147498.9,-120333,0.03,0.00,0.88,-4,0,-2,48,0
'[13:38:02.232 20/01/2026]',-105176,-185371.1,-110630.9,-131761.5,-375000,-375000,-147066.5,-118227.4,0.03,0.00,0.88,-4,0,-2,48,0
'[13:38:02.236 20/01/2026]',-105453.7,-186129.1,-109209.2,-129170.1,-375000,-375000,-146247.5,-118804.8,0.03,0.00,0.88,-4,0,-2,48,0
'[13:38:02.240 20/01/2026]',-107380.6,-188713.5,-107817.3,-127191.7,-375000,-375000,-146327.8,-121148.1,0.03,0.00,0.88,-4,0,-2,48,0
'[13:38:02.244 20/01/2026]',-107365.5,-188169.2,-109489.2,-130296.9,-375000,-375000,-147435.8,-120796.7,0.03,0.00,0.88,-4,0,-2,48,0
'[13:38:02.248 20/01/2026]',-105400.8,-185584,-110748.7,-132037.8,-375000,-375000,-147256.5,-118438.8,0.03,0.00,0.88,-4,0,-2,48,0
'[13:38:02.252 20/01/2026]',-105289.3,-185827.5,-109528,-129696.7,-375000,-375000,-146370.9,-118554.7,0.03,0.00,0.88,-4,0,-2,48,0
'[13:38:02.256 20/01/2026]',-107097.7,-188357.6,-107916.5,-127247.9,-375000,-375000,-146240.5,-120825.1,0.03,0.00,0.88,-4,0,-2,48,0
'[13:38:02.260 20/01/2026]',-107620.6,-188595.3,-109049.8,-129555.4,-375000,-375000,-147284.5,-121167.5,0.03,0.00,0.88,-4,0,-2,48,0
'[13:38:02.264 20/01/2026]',-105646,-185872.7,-110776.8,-132154.5,-375000,-375000,-147408.2,-118712.4,0.03,0.00,0.88,-4,0,-2,48,0
'[13:38:02.268 20/01/2026]',-105144.5,-185601.8,-109811.5,-130169.9,-375000,-375000,-146484.5,-118348.7,0.05,0.00,0.88,-4,0,-2,48,0
'[13:38:02.272 20/01/2026]',-106748.5,-187930.3,-108072,-127428,-375000,-375000,-146154.3,-120419.3,0.05,0.00,0.88,-4,0,-2,48,0
'[13:38:02.276 20/01/2026]',-107783.2,-188906.5,-108623.8,-128820.7,-375000,-375000,-147078.4,-121422.1,0.05,0.00,0.88,-4,0,-2,48,0
'[13:38:02.280 20/01/2026]',-105955.5,-186231.1,-110699.2,-132106.9,-375000,-375000,-147511.9,-119053.8,0.05,0.00,0.88,-4,0,-2,48,0
'[13:38:02.284 20/01/2026]',-105053.7,-185414.8,-110051.4,-130616.2,-375000,-375000,-146598.4,-118196.6,0.05,0.00,0.88,-4,0,-2,48,0
'[13:38:02.288 20/01/2026]',-106383.4,-187459.7,-108282.8,-127735.3,-375000,-375000,-146103.8,-119975,0.05,0.00,0.88,-4,0,-2,48,0
'[13:38:02.292 20/01/2026]',-107824.4,-189079.3,-108241,-128154.5,-375000,-375000,-146845.2,-121537,0.05,0.00,0.88,-4,0,-2,48,0
'[13:38:02.296 20/01/2026]',-106282.1,-186631.9,-110503.9,-131901.4,-375000,-375000,-147561.8,-119434,0.05,0.00,0.88,-4,0,-2,48,0
'[13:38:02.300 20/01/2026]',-105022.2,-185305.5,-110282.7,-131061.1,-375000,-375000,-146741.9,-118117.8,0.05,0.00,0.88,-4,0,-2,48,0
'[13:38:02.304 20/01/2026]',-106036.9,-186972.7,-108565,-128152.2,-375000,-375000,-146106.5,-119540.9,0.03,0.00,0.88,-4,0,-2,48,0
'[13:38:02.308 20/01/2026]',-107759.9,-189082.4,-107947.3,-127588.1,-375000,-375000,-146602,-121507.6,0.03,0.00,0.88,-4,0,-2,48,0
'[13:38:02.312 20/01/2026]',-106619.8,-187113,-110210.7,-131477.3,-375000,-375000,-147539.3,-119850,0.03,0.00,0.88,-4,0,-2,48,0
'[13:38:02.316 20/01/2026]',-105050.7,-185292.2,-110461,-131437.3,-375000,-375000,-146889,-118121.9,0.03,0.00,0.88,-4,0,-2,48,0
'[13:38:02.320 20/01/2026]',-105724.5,-186534.3,-108880.1,-128642.1,-375000,-375000,-146166.3,-119159.2,0.03,0.00,0.88,-4,0,-2,48,0
'[13:38:02.324 20/01/2026]',-107623.4,-188979.8,-107828.8,-127296.9,-375000,-375000,-146472,-121412.8,0.03,0.00,0.88,-4,0,-2,48,0
'[13:38:02.328 20/01/2026]',-107004.5,-187641.6,-109881.4,-130958.2,-375000,-375000,-147530.5,-120341.7,0.03,0.00,0.88,-4,0,-2,48,0
'[13:38:02.332 20/01/2026]',-105167.9,-185376.8,-110601.7,-131747.1,-375000,-375000,-147059.8,-118231,0.03,0.00,0.88,-4,0,-2,48,0
'[13:38:02.336 20/01/2026]',-105449.5,-186142.4,-109141.6,-129096.6,-375000,-375000,-146224.5,-118821.7,0.03,0.00,0.88,-4,0,-2,48,0
'[13:38:02.340 20/01/2026]',-107357.4,-188721.5,-107743.8,-127101.9,-375000,-375000,-146291.1,-121149.1,0.03,0.00,0.88,-4,0,-2,48,0
'[13:38:02.344 20/01/2026]',-107295.3,-188118.4,-109443.6,-130257.4,-375000,-375000,-147393.8,-120743,0.03,0.00,0.88,-4,0,-2,48,0
'[13:38:02.348 20/01/2026]',-105343.8,-185546.4,-110700.1,-131985.9,-375000,-375000,-147213.8,-118395.4,0.03,0.00,0.88,-4,0,-2,48,0
'[13:38:02.352 20/01/2026]',-105244.5,-185816,-109444.5,-129590.2,-375000,-375000,-146309.3,-118524.6,0.03,0.00,0.88,-4,0,-2,48,0
'[13:38:02.356 20/01/2026]',-107056.1,-188343.6,-107830.1,-127147.6,-375000,-375000,-146177.6,-120794.2,0.03,0.00,0.88,-4,0,-2,48,0
'[13:38:02.360 20/01/2026]',-107567.6,-188537,-109015.8,-129544.4,-375000,-375000,-147249.8,-121116,0.03,0.00,0.88,-4,0,-2,48,0
'[13:38:02.364 20/01/2026]',-105598.2,-185830.9,-110728,-132124.9,-375000,-375000,-147369.7,-118675.2,0.03,0.00,0.88,-4,0,-2,48,0
'[13:38:02.368 20/01/2026]',-105099.5,-185569,-109729.3,-130086,-375000,-375000,-146427.1,-118321.7,0.03,0.00,0.88,-4,0,-2,48,0
'[13:38:02.372 20/01/2026]',-106707.9,-187901.8,-107961.6,-127309.8,-375000,-375000,-146086.7,-120395.3,0.03,0.00,0.88,-4,0,-2,48,0
'[13:38:02.376 20/01/2026]',-107697.4,-188832.1,-108533.5,-128748,-375000,-375000,-147008,-121350.6,0.02,0.00,0.88,-4,0,-2,48,0
'[13:38:02.380 20/01/2026]',-105863.6,-186150.1,-110621.6,-132057.4,-375000,-375000,-147449.4,-118983.2,0.02,0.00,0.88,-4,0,-2,48,0
'[13:38:02.384 20/01/2026]',-105024.1,-185401.1,-109994.1,-130566.1,-375000,-375000,-146570.6,-118177.8,0.02,0.00,0.88,-4,0,-2,48,0
'[13:38:02.388 20/01/2026]',-106385.7,-187466.3,-108233.2,-127671,-375000,-375000,-146095.6,-119991.4,0.02,0.00,0.88,-4,0,-2,48,0
'[13:38:02.392 20/01/2026]',-107807.9,-189049.7,-108219.7,-128149.9,-375000,-375000,-146848,-121518,0.02,0.00,0.88,-4,0,-2,48,0
'[13:38:02.396 20/01/2026]',-106235.2,-186601.8,-110495.8,-131897.5,-375000,-375000,-147548.9,-119397.7,0.02,0.00,0.88,-4,0,-2,48,0
'[13:38:02.400 20/01/2026]',-105002.8,-185312.1,-110253.3,-131028,-375000,-375000,-146738.8,-118124,0.02,0.00,0.88,-4,0,-2,48,0
'[13:38:02.404 20/01/2026]',-106049.6,-187007.4,-108547.6,-128120.1,-375000,-375000,-146123.6,-119572.8,0.02,0.00,0.88,-4,0,-2,48,0
'[13:38:02.408 20/01/2026]',-107776.4,-189094.4,-107975.9,-127627.5,-375000,-375000,-146653,-121534,0.02,0.00,0.88,-4,0,-2,48,0
'[13:38:02.412 20/01/2026]',-106620.5,-187077.5,-110260.3,-131544.1,-375000,-375000,-147585.6,-119847.4,0.03,0.00,0.89,-4,0,-2,48,0
'[13:38:02.416 20/01/2026]',-105068.4,-185295.5,-110473.6,-131442.2,-375000,-375000,-146915.5,-118139.4,0.03,0.00,0.89,-4,0,-2,48,0
'[13:38:02.420 20/01/2026]',-105749.9,-186585.3,-108843.3,-128580.6,-375000,-375000,-146165.9,-119189.9,0.03,0.00,0.89,-4,0,-2,48,0
'[13:38:02.424 20/01/2026]',-107623.2,-188996.6,-107799,-127247.6,-375000,-375000,-146457.6,-121411.4,0.03,0.00,0.89,-4,0,-2,48,0
'[13:38:02.428 20/01/2026]',-106965.3,-187592.5,-109886.8,-130978.7,-375000,-375000,-147517.8,-120292.8,0.03,0.00,0.89,-4,0,-2,48,0
'[13:38:02.432 20/01/2026]',-105165.3,-185375.1,-110610,-131757.2,-375000,-375000,-147061.5,-118223.1,0.03,0.00,0.89,-4,0,-2,48,0
'[13:38:02.436 20/01/2026]',-105478.9,-186182.1,-109140,-129055.9,-375000,-375000,-146220.3,-118843.1,0.03,0.00,0.89,-4,0,-2,48,0
'[13:38:02.440 20/01/2026]',-107382.4,-188742.1,-107743,-127065.4,-375000,-375000,-146291.5,-121163.4,0.03,0.00,0.89,-4,0,-2,48,0
'[13:38:02.444 20/01/2026]',-107284.2,-188080.3,-109473.4,-130305.1,-375000,-375000,-147403.9,-120718.9,0.03,0.00,0.89,-4,0,-2,48,0
'[13:38:02.448 20/01/2026]',-105333.6,-185521.2,-110707,-131999.3,-375000,-375000,-147212.5,-118389.6,0.03,0.00,0.89,-4,0,-2,48,0
'[13:38:02.452 20/01/2026]',-105267.8,-185842.3,-109433.7,-129557,-375000,-375000,-146308.5,-118548.4,0.03,0.00,0.89,-4,0,-2,48,0
'[13:38:02.456 20/01/2026]',-107099.7,-188395.9,-107821.7,-127107,-375000,-375000,-146184.9,-120828.1,0.03,0.00,0.89,-4,0,-2,48,0
'[13:38:02.460 20/01/2026]',-107576.6,-188534.4,-109046,-129585,-375000,-375000,-147262.8,-121094.4,0.03,0.00,0.89,-4,0,-2,48,0
'[13:38:02.464 20/01/2026]',-105602.2,-185811.8,-110741.5,-132148.3,-375000,-375000,-147371.4,-118651.7,0.03,0.00,0.89,-4,0,-2,48,0
'[13:38:02.468 20/01/2026]',-105132,-185600.2,-109744.4,-130082.5,-375000,-375000,-146442.1,-118341.1,0.03,0.00,0.89,-4,0,-2,48,0
'[13:38:02.472 20/01/2026]',-106762.1,-187957.7,-108004.2,-127307.5,-375000,-375000,-146122.5,-120440.2,0.03,0.00,0.89,-4,0,-2,48,0
'[13:38:02.476 20/01/2026]',-107748.4,-188847.3,-108621.1,-128836.9,-375000,-375000,-147067.2,-121368.6,0.03,0.00,0.89,-4,0,-2,48,0
'[13:38:02.480 20/01/2026]',-105900.4,-186162.2,-110675.6,-132110.7,-375000,-375000,-147476.5,-118984.8,0.03,0.00,0.89,-4,0,-2,48,0
'[13:38:02.484 20/01/2026]',-105047.1,-185429.4,-110003.3,-130541.8,-375000,-375000,-146568.8,-118198.2,0.05,0.00,0.88,-4,0,-2,48,0
'[13:38:02.488 20/01/2026]',-106417.4,-187508.8,-108228.6,-127622.2,-375000,-375000,-146086.6,-120019.3,0.05,0.00,0.88,-4,0,-2,48,0
'[13:38:02.492 20/01/2026]',-107821.9,-189058.4,-108255.9,-128152,-375000,-375000,-146849.2,-121522.4,0.05,0.00,0.88,-4,0,-2,48,0
'[13:38:02.496 20/01/2026]',-106243.9,-186594.5,-110529.9,-131937.7,-375000,-375000,-147554.9,-119385.8,0.05,0.00,0.88,-4,0,-2,48,0
'[13:38:02.500 20/01/2026]',-105027.7,-185321.7,-110261.5,-131019.5,-375000,-375000,-146732.6,-118130,0.05,0.00,0.88,-4,0,-2,48,0
'[13:38:02.504 20/01/2026]',-106076.6,-187042.3,-108529.5,-128060.8,-375000,-375000,-146103.9,-119600.2,0.05,0.00,0.88,-4,0,-2,48,0
'[13:38:02.508 20/01/2026]',-107775.4,-189106.4,-107977.2,-127609.8,-375000,-375000,-146633.7,-121530,0.05,0.00,0.88,-4,0,-2,48,0
'[13:38:02.512 20/01/2026]',-106585,-187054.8,-110254.1,-131533.4,-375000,-375000,-147537,-119798.4,0.05,0.00,0.88,-4,0,-2,48,0
'[13:38:02.516 20/01/2026]',-105053.7,-185290.6,-110425.5,-131377.1,-375000,-375000,-146855.6,-118110.5,0.05,0.00,0.88,-4,0,-2,48,0
'[13:38:02.520 20/01/2026]',-105762.4,-186593.5,-108808,-128518.7,-375000,-375000,-146128.1,-119193,0.03,0.00,0.89,-4,0,-2,48,0
'[13:38:02.524 20/01/2026]',-107628.8,-188996.4,-107790.5,-127226.4,-375000,-375000,-146437.6,-121410.9,0.03,0.00,0.89,-4,0,-2,48,0
'[13:38:02.528 20/01/2026]',-106951.2,-187554.6,-109913.9,-131002.7,-375000,-375000,-147502.6,-120259.8,0.03,0.00,0.89,-4,0,-2,48,0
'[13:38:02.532 20/01/2026]',-105173.8,-185361.8,-110615.5,-131738.3,-375000,-375000,-147038,-118207.1,0.03,0.00,0.89,-4,0,-2,48,0
'[13:38:02.536 20/01/2026]',-105511.4,-186209.5,-109135.5,-129031.1,-375000,-375000,-146206.1,-118849.2,0.03,0.00,0.89,-4,0,-2,48,0
'[13:38:02.540 20/01/2026]',-107415.9,-188777.4,-107752.4,-127067.5,-375000,-375000,-146291.1,-121175.7,0.03,0.00,0.89,-4,0,-2,48,0
'[13:38:02.544 20/01/2026]',-107287.6,-188076.7,-109507.6,-130355.5,-375000,-375000,-147406.1,-120691.6,0.03,0.00,0.89,-4,0,-2,48,0
'[13:38:02.548 20/01/2026]',-105355.7,-185549.6,-110731.7,-132023.2,-375000,-375000,-147214.7,-118383.6,0.03,0.00,0.89,-4,0,-2,48,0
'[13:38:02.552 20/01/2026]',-105304.3,-185889.3,-109448.8,-129568.3,-375000,-375000,-146324.3,-118582.7,0.03,0.00,0.89,-4,0,-2,48,0
'[13:38:02.556 20/01/2026]',-107120.6,-188433.6,-107828.4,-127104.5,-375000,-375000,-146195.5,-120861.5,0.05,-0.02,0.89,-4,0,-2,48,0
'[13:38:02.560 20/01/2026]',-107580.5,-188538.2,-109092.6,-129621,-375000,-375000,-147274.7,-121105,0.05,-0.02,0.89,-4,0,-2,48,0
'[13:38:02.564 20/01/2026]',-105617.4,-185812.5,-110781.7,-132173.7,-375000,-375000,-147379.8,-118666.4,0.05,-0.02,0.89,-4,0,-2,48,0
'[13:38:02.568 20/01/2026]',-105170.9,-185632.3,-109759.9,-130089.6,-375000,-375000,-146456.6,-118381,0.05,-0.02,0.89,-4,0,-2,48,0
'[13:38:02.572 20/01/2026]',-106806.3,-188024.1,-108005.3,-127308.9,-375000,-375000,-146136.2,-120484.4,0.05,-0.02,0.89,-4,0,-2,48,0
'[13:38:02.576 20/01/2026]',-107759.7,-188882.1,-108677.4,-128907.3,-375000,-375000,-147092.4,-121371.7,0.05,-0.02,0.89,-4,0,-2,48,0
'[13:38:02.580 20/01/2026]',-105901.9,-186165.9,-110731.3,-132162.5,-375000,-375000,-147492.6,-118980.3,0.05,-0.02,0.89,-4,0,-2,48,0
'[13:38:02.584 20/01/2026]',-105075.2,-185455.5,-110029.4,-130547,-375000,-375000,-146586.2,-118228.9,0.05,-0.02,0.89,-4,0,-2,48,0
'[13:38:02.588 20/01/2026]',-106458.2,-187556.3,-108235.2,-127602.3,-375000,-375000,-146104.5,-120067.8,0.05,-0.02,0.89,-4,0,-2,48,0
'[13:38:02.592 20/01/2026]',-107834.8,-189067.3,-108292.9,-128196.5,-375000,-375000,-146878.6,-121539,0.05,-0.02,0.88,-4,0,-2,48,0
'[13:38:02.596 20/01/2026]',-106250.2,-186593.7,-110563.6,-131969.4,-375000,-375000,-147567.4,-119385,0.05,-0.02,0.88,-4,0,-2,48,0
'[13:38:02.600 20/01/2026]',-105052.2,-185341.6,-110268.2,-131029.9,-375000,-375000,-146743.1,-118149.3,0.05,-0.02,0.88,-4,0,-2,48,0
'[13:38:02.604 20/01/2026]',-106125,-187103.2,-108514,-128059.4,-375000,-375000,-146129,-119655,0.05,-0.02,0.88,-4,0,-2,48,0
'[13:38:02.608 20/01/2026]',-107821.5,-189147.4,-108023.5,-127670.6,-375000,-375000,-146681.8,-121569.9,0.05,-0.02,0.88,-4,0,-2,48,0
'[13:38:02.612 20/01/2026]',-106616.4,-187069.5,-110352.3,-131655.3,-375000,-375000,-147604.3,-119822.9,0.05,-0.02,0.88,-4,0,-2,48,0
'[13:38:02.616 20/01/2026]',-105094.5,-185331.7,-110490.3,-131432.2,-375000,-375000,-146905.3,-118160.3,0.05,-0.02,0.88,-4,0,-2,48,0
'[13:38:02.620 20/01/2026]',-105824.5,-186665.5,-108832.6,-128518,-375000,-375000,-146167.1,-119263.3,0.05,-0.02,0.88,-4,0,-2,48,0
'[13:38:02.624 20/01/2026]',-107684.6,-189058.5,-107835.4,-127273.8,-375000,-375000,-146491.7,-121464.6,0.05,-0.02,0.88,-4,0,-2,48,0
'[13:38:02.628 20/01/2026]',-106959,-187566.8,-109975.6,-131099.5,-375000,-375000,-147548.6,-120260.4,0.05,-0.02,0.88,-4,0,-2,48,0
'[13:38:02.632 20/01/2026]',-105188.7,-185387.7,-110637.2,-131770.2,-375000,-375000,-147067.9,-118232,0.05,-0.02,0.88,-4,0,-2,48,0
'[13:38:02.636 20/01/2026]',-105550.6,-186256.9,-109139.7,-129022.8,-375000,-375000,-146236,-118909.4,0.05,-0.02,0.88,-4,0,-2,48,0
'[13:38:02.640 20/01/2026]',-107450.8,-188807.3,-107766.2,-127063.6,-375000,-375000,-146316.8,-121222,0.05,-0.02,0.88,-4,0,-2,48,0
'[13:38:02.644 20/01/2026]',-107284.3,-188048.2,-109558.1,-130415.5,-375000,-375000,-147436,-120692.1,0.05,-0.02,0.88,-4,0,-2,48,0
'[13:38:02.648 20/01/2026]',-105351.5,-185540.1,-110726.1,-132012.7,-375000,-375000,-147212.1,-118385.6,0.05,-0.02,0.88,-4,0,-2,48,0
'[13:38:02.652 20/01/2026]',-105327.3,-185922,-109415.7,-129499.5,-375000,-375000,-146307,-118605.8,0.05,-0.02,0.88,-4,0,-2,48,0
'[13:38:02.656 20/01/2026]',-107152.7,-188463.9,-107800.7,-127046.5,-375000,-375000,-146185.9,-120891.5,0.05,-0.02,0.88,-4,0,-2,48,0
'[13:38:02.660 20/01/2026]',-107557.4,-188497.8,-109106.7,-129677,-375000,-375000,-147287.3,-121070.9,0.05,-0.02,0.88,-4,0,-2,48,0
'[13:38:02.664 20/01/2026]',-105585.6,-185786.8,-110771.8,-132173.1,-375000,-375000,-147370.3,-118635.9,0.02,-0.02,0.88,-4,0,-2,48,0
'[13:38:02.668 20/01/2026]',-105166.3,-185637.1,-109723.4,-130018.6,-375000,-375000,-146438.5,-118389.5,0.02,-0.02,0.88,-4,0,-2,48,0
'[13:38:02.672 20/01/2026]',-106805.6,-188026.4,-107965.8,-127238.6,-375000,-375000,-146120.6,-120495.2,0.02,-0.02,0.88,-4,0,-2,48,0
'[13:38:02.676 20/01/2026]',-107734.6,-188835.6,-108685.7,-128915.6,-375000,-375000,-147094.5,-121345,0.02,-0.02,0.88,-4,0,-2,48,0
'[13:38:02.680 20/01/2026]',-105866,-186118.1,-110717,-132161.8,-375000,-375000,-147487.6,-118947.2,0.02,-0.02,0.88,-4,0,-2,48,0
'[13:38:02.684 20/01/2026]',-105057.6,-185438.6,-109975.6,-130497.4,-375000,-375000,-146563,-118220,0.02,-0.02,0.88,-4,0,-2,48,0
'[13:38:02.688 20/01/2026]',-106459.7,-187569.9,-108192.5,-127557.1,-375000,-375000,-146087.5,-120073.8,0.02,-0.02,0.88,-4,0,-2,48,0
'[13:38:02.692 20/01/2026]',-107811.3,-189048.2,-108294.3,-128214.3,-375000,-375000,-146870,-121503.3,0.02,-0.02,0.88,-4,0,-2,48,0
'[13:38:02.696 20/01/2026]',-106183.3,-186515.3,-110552.2,-131969.7,-375000,-375000,-147535.8,-119311.4,0.02,-0.02,0.88,-4,0,-2,48,0
'[13:38:02.700 20/01/2026]',-105019.9,-185323.5,-110235.5,-130973.4,-375000,-375000,-146717.2,-118129.1,0.03,0.00,0.88,-4,0,-2,48,0
'[13:38:02.704 20/01/2026]',-106116.8,-187101.1,-108466.2,-127983.8,-375000,-375000,-146106.2,-119658.1,0.03,0.00,0.88,-4,0,-2,48,0
'[13:38:02.708 20/01/2026]',-107795.6,-189126.3,-108004.5,-127660.6,-375000,-375000,-146677.5,-121561.2,0.03,0.00,0.88,-4,0,-2,48,0
'[13:38:02.712 20/01/2026]',-106578.8,-187043.7,-110354.6,-131673.4,-375000,-375000,-147608,-119798.1,0.03,0.00,0.88,-4,0,-2,48,0
'[13:38:02.716 20/01/2026]',-105092.8,-185343.2,-110480.6,-131429.4,-375000,-375000,-146917,-118170.4,0.03,0.00,0.88,-4,0,-2,48,0
'[13:38:02.720 20/01/2026]',-105836.3,-186693.6,-108805.5,-128478.4,-375000,-375000,-146165.5,-119292.4,0.03,0.00,0.88,-4,0,-2,48,0
'[13:38:02.724 20/01/2026]',-107685.7,-189063.7,-107837.4,-127259.3,-375000,-375000,-146490.1,-121482,0.03,0.00,0.88,-4,0,-2,48,0
'[13:38:02.728 20/01/2026]',-106934.7,-187539.9,-110012.2,-131144,-375000,-375000,-147559.2,-120247.6,0.03,0.00,0.88,-4,0,-2,48,0
'[13:38:02.732 20/01/2026]',-105175.3,-185391.2,-110632.9,-131761.6,-375000,-375000,-147065.1,-118235.9,0.03,0.00,0.88,-4,0,-2,48,0
'[13:38:02.736 20/01/2026]',-105554.5,-186285,-109118.2,-128990.1,-375000,-375000,-146234.8,-118940,0.03,-0.02,0.88,-4,0,-2,48,0
'[13:38:02.740 20/01/2026]',-107459.1,-188819.5,-107773.4,-127074.1,-375000,-375000,-146329.2,-121251.1,0.03,-0.02,0.88,-4,0,-2,48,0
'[13:38:02.744 20/01/2026]',-107271.1,-188038.1,-109616.8,-130500.6,-375000,-375000,-147466.4,-120683.9,0.03,-0.02,0.88,-4,0,-2,48,0
'[13:38:02.748 20/01/2026]',-105351.3,-185553.7,-110760.1,-132053.8,-375000,-375000,-147235,-118397.5,0.03,-0.02,0.88,-4,0,-2,48,0
'[13:38:02.752 20/01/2026]',-105360.1,-185965,-109451.6,-129537.9,-375000,-375000,-146341.9,-118651.8,0.03,-0.02,0.88,-4,0,-2,48,0
'[13:38:02.756 20/01/2026]',-107197,-188520,-107858,-127106.8,-375000,-375000,-146235,-120949.7,0.03,-0.02,0.88,-4,0,-2,48,0
'[13:38:02.760 20/01/2026]',-107572.3,-188509.1,-109196.4,-129772.4,-375000,-375000,-147336.8,-121090.5,0.03,-0.02,0.88,-4,0,-2,48,0
'[13:38:02.764 20/01/2026]',-105603.4,-185808.4,-110828.1,-132218.3,-375000,-375000,-147403.2,-118662.5,0.03,-0.02,0.88,-4,0,-2,48,0
'[13:38:02.768 20/01/2026]',-105210.8,-185691.1,-109749.8,-130045.9,-375000,-375000,-146467.4,-118439.3,0.03,-0.02,0.88,-4,0,-2,48,0
'[13:38:02.772 20/01/2026]',-106864.7,-188087.9,-107994.8,-127259,-375000,-375000,-146150.1,-120564.1,0.03,0.00,0.88,-4,0,-2,48,0
'[13:38:02.776 20/01/2026]',-107755.8,-188854,-108743.1,-128988.7,-375000,-375000,-147118.6,-121364.3,0.03,0.00,0.88,-4,0,-2,48,0
'[13:38:02.780 20/01/2026]',-105874,-186138.4,-110759.8,-132206.4,-375000,-375000,-147496.4,-118952,0.03,0.00,0.88,-4,0,-2,48,0
'[13:38:02.784 20/01/2026]',-105092.8,-185491.5,-110015.5,-130525.2,-375000,-375000,-146583.8,-118257,0.03,0.00,0.88,-4,0,-2,48,0
'[13:38:02.788 20/01/2026]',-106505.9,-187635,-108226.4,-127583.3,-375000,-375000,-146114,-120128.9,0.03,0.00,0.88,-4,0,-2,48,0
'[13:38:02.792 20/01/2026]',-107835.9,-189073.2,-108347,-128281.5,-375000,-375000,-146900.7,-121529.2,0.03,0.00,0.88,-4,0,-2,48,0
'[13:38:02.796 20/01/2026]',-106214.5,-186544.8,-110610.8,-132047.1,-375000,-375000,-147576.8,-119345.3,0.03,0.00,0.88,-4,0,-2,48,0
'[13:38:02.800 20/01/2026]',-105043.2,-185346.5,-110262,-130998.9,-375000,-375000,-146735.9,-118162.6,0.03,0.00,0.88,-4,0,-2,48,0
'[13:38:02.804 20/01/2026]',-106150.1,-187137.2,-108498.4,-127987.5,-375000,-375000,-146117.1,-119697.1,0.03,0.00,0.88,-4,0,-2,48,0
'[13:38:02.808 20/01/2026]',-107813.4,-189129.2,-108044.4,-127691,-375000,-375000,-146683.3,-121562.9,0.03,-0.02,0.89,-4,0,-2,48,0
'[13:38:02.812 20/01/2026]',-106553.3,-186991.2,-110339.6,-131680.8,-375000,-375000,-147584.3,-119757.3,0.03,-0.02,0.89,-4,0,-2,48,0
'[13:38:02.816 20/01/2026]',-105067.7,-185317.3,-110426.1,-131373.8,-375000,-375000,-146869.2,-118144.9,0.03,-0.02,0.89,-4,0,-2,48,0
'[13:38:02.820 20/01/2026]',-105842.9,-186699.4,-108776.4,-128430.3,-375000,-375000,-146134,-119294.6,0.03,-0.02,0.89,-4,0,-2,48,0
'[13:38:02.824 20/01/2026]',-107690.8,-189052.8,-107838.5,-127257,-375000,-375000,-146475.3,-121462.9,0.03,-0.02,0.89,-4,0,-2,48,0
'[13:38:02.828 20/01/2026]',-106920.8,-187494,-110033.5,-131162.3,-375000,-375000,-147541.8,-120198.5,0.03,-0.02,0.89,-4,0,-2,48,0
'[13:38:02.832 20/01/2026]',-105176.8,-185361.5,-110631.4,-131737.3,-375000,-375000,-147036,-118211.8,0.03,-0.02,0.89,-4,0,-2,48,0
'[13:38:02.836 20/01/2026]',-105578.3,-186294.3,-109108.6,-128955.8,-375000,-375000,-146212.8,-118938.9,0.03,-0.02,0.89,-4,0,-2,48,0
'[13:38:02.840 20/01/2026]',-107483.9,-188828.8,-107781.6,-127074.5,-375000,-375000,-146331.6,-121258.7,0.03,-0.02,0.89,-4,0,-2,48,0
'[13:38:02.844 20/01/2026]',-107245.1,-187982.5,-109627.8,-130525.6,-375000,-375000,-147452.3,-120639,0.02,0.00,0.88,-4,0,-2,48,0
'[13:38:02.848 20/01/2026]',-105333.5,-185526.4,-110748.6,-132034.6,-375000,-375000,-147210.7,-118369.1,0.02,0.00,0.88,-4,0,-2,48,0
'[13:38:02.852 20/01/2026]',-105362.1,-185973.8,-109418.7,-129481.5,-375000,-375000,-146320.6,-118660.7,0.02,0.00,0.88,-4,0,-2,48,0
'[13:38:02.856 20/01/2026]',-107200.5,-188524.7,-107821.6,-127056.7,-375000,-375000,-146210.9,-120952.5,0.02,0.00,0.88,-4,0,-2,48,0
'[13:38:02.860 20/01/2026]',-107539.3,-188446.2,-109204.2,-129808.4,-375000,-375000,-147315.2,-121031,0.02,0.00,0.88,-4,0,-2,48,0
'[13:38:02.864 20/01/2026]',-105563.2,-185739.5,-110807.3,-132207.9,-375000,-375000,-147364.2,-118601.9,0.02,0.00,0.88,-4,0,-2,48,0
'[13:38:02.868 20/01/2026]',-105197.1,-185683,-109717.2,-129998,-375000,-375000,-146437,-118420.7,0.02,0.00,0.88,-4,0,-2,48,0
'[13:38:02.872 20/01/2026]',-106870.3,-188114.5,-107951.1,-127207.5,-375000,-375000,-146125.3,-120561.5,0.02,0.00,0.88,-4,0,-2,48,0
'[13:38:02.876 20/01/2026]',-107733,-188811.3,-108756.4,-129026.1,-375000,-375000,-147117,-121327.5,0.02,0.00,0.88,-4,0,-2,48,0
'[13:38:02.880 20/01/2026]',-105841.5,-186073.3,-110751,-132203.2,-375000,-375000,-147465.5,-118898.4,0.03,0.00,0.89,-4,0,-2,48,0
'[13:38:02.884 20/01/2026]',-105090.5,-185477.7,-109969.9,-130466.5,-375000,-375000,-146545,-118243.5,0.03,0.00,0.89,-4,0,-2,48,0
'[13:38:02.888 20/01/2026]',-106522.6,-187644.9,-108184.3,-127513.7,-375000,-375000,-146087.7,-120145.6,0.03,0.00,0.89,-4,0,-2,48,0
'[13:38:02.892 20/01/2026]',-107828.3,-189032.9,-108372,-128311.1,-375000,-375000,-146902,-121513.5,0.03,0.00,0.89,-4,0,-2,48,0
'[13:38:02.896 20/01/2026]',-106183.9,-186493.2,-110644.7,-132086.5,-375000,-375000,-147569.2,-119294.7,0.03,0.00,0.89,-4,0,-2,48,0
'[13:38:02.900 20/01/2026]',-105060.6,-185362.3,-110243.9,-130957.7,-375000,-375000,-146716.5,-118164.8,0.03,0.00,0.89,-4,0,-2,48,0
'[13:38:02.904 20/01/2026]',-106193.8,-187192.1,-108472.6,-127952.2,-375000,-375000,-146115.4,-119737.8,0.03,0.00,0.89,-4,0,-2,48,0
'[13:38:02.908 20/01/2026]',-107827,-189130.7,-108051.8,-127717.3,-375000,-375000,-146695.8,-121573.3,0.03,0.00,0.89,-4,0,-2,48,0
'[13:38:02.912 20/01/2026]',-106524,-186953.4,-110378.4,-131718,-375000,-375000,-147576.1,-119720.2,0.03,0.00,0.89,-4,0,-2,48,0
'[13:38:02.916 20/01/2026]',-105058.3,-185316.8,-110430.7,-131353.2,-375000,-375000,-146852.2,-118134.1,0.03,-0.02,0.89,-4,0,-2,48,0
'[13:38:02.920 20/01/2026]',-105843.6,-186717.5,-108746.6,-128385.7,-375000,-375000,-146124.7,-119308.4,0.03,-0.02,0.89,-4,0,-2,48,0
'[13:38:02.924 20/01/2026]',-107692.6,-189066,-107829.3,-127261.5,-375000,-375000,-146483.6,-121470.1,0.03,-0.02,0.89,-4,0,-2,48,0
'[13:38:02.928 20/01/2026]',-106894.6,-187473.1,-110042.4,-131227.6,-375000,-375000,-147558.6,-120174.4,0.03,-0.02,0.89,-4,0,-2,48,0
'[13:38:02.932 20/01/2026]',-105168,-185366.4,-110622,-131746,-375000,-375000,-147038.3,-118206.8,0.03,-0.02,0.89,-4,0,-2,48,0
'[13:38:02.936 20/01/2026]',-105598.4,-186324.7,-109083.8,-128918.2,-375000,-375000,-146210.4,-118966.4,0.03,-0.02,0.89,-4,0,-2,48,0
'[13:38:02.940 20/01/2026]',-107495.8,-188864.5,-107762.8,-127043.6,-375000,-375000,-146323.7,-121272,0.03,-0.02,0.89,-4,0,-2,48,0
'[13:38:02.944 20/01/2026]',-107230.8,-187975.7,-109656.7,-130566.8,-375000,-375000,-147457.6,-120616.9,0.03,-0.02,0.89,-4,0,-2,48,0
'[13:38:02.948 20/01/2026]',-105319.4,-185504.3,-110744.8,-132030,-375000,-375000,-147197.6,-118353.2,0.03,-0.02,0.89,-4,0,-2,48,0
'[13:38:02.952 20/01/2026]',-105363.4,-185971.7,-109389,-129433.4,-375000,-375000,-146302.1,-118665,0.03,0.00,0.89,-4,0,-2,48,0
'[13:38:02.956 20/01/2026]',-107202.5,-188536.3,-107796.4,-127003.2,-375000,-375000,-146197.8,-120962.7,0.03,0.00,0.89,-4,0,-2,48,0
'[13:38:02.960 20/01/2026]',-107512.8,-188429.9,-109221.4,-129828.1,-375000,-375000,-147318.4,-121008,0.03,0.00,0.89,-4,0,-2,48,0
'[13:38:02.964 20/01/2026]',-105547.6,-185751.5,-110800.9,-132211.1,-375000,-375000,-147360.1,-118588.7,0.03,0.00,0.89,-4,0,-2,48,0
'[13:38:02.968 20/01/2026]',-105199.9,-185704.6,-109679.6,-129955.6,-375000,-375000,-146422.3,-118427.4,0.03,0.00,0.89,-4,0,-2,48,0
'[13:38:02.972 20/01/2026]',-106887.5,-188136.1,-107933.9,-127163.2,-375000,-375000,-146122,-120584.2,0.03,0.00,0.89,-4,0,-2,48,0
'[13:38:02.976 20/01/2026]',-107720.7,-188795.9,-108779.8,-129055.2,-375000,-375000,-147126.3,-121310.8,0.03,0.00,0.89,-4,0,-2,48,0
'[13:38:02.980 20/01/2026]',-105827.9,-186069.7,-110770.7,-132241.9,-375000,-375000,-147481.3,-118894.8,0.03,0.00,0.89,-4,0,-2,48,0
'[13:38:02.984 20/01/2026]',-105102.5,-185507.3,-109958.6,-130460.7,-375000,-375000,-146557.2,-118267.5,0.03,0.00,0.89,-4,0,-2,48,0
'[13:38:02.988 20/01/2026]',-106548.2,-187689,-108166.8,-127470.3,-375000,-375000,-146090.5,-120182.1,0.03,-0.02,0.89,-4,0,-2,48,0
'[13:38:02.992 20/01/2026]',-107840.5,-189044.4,-108409.9,-128347,-375000,-375000,-146927.4,-121519.1,0.03,-0.02,0.89,-4,0,-2,48,0
'[13:38:02.996 20/01/2026]',-106170.4,-186465.3,-110668,-132120.1,-375000,-375000,-147584.9,-119289.8,0.03,-0.02,0.89,-4,0,-2,48,0
'[13:38:03.000 20/01/2026]',-105058.9,-185371.4,-110250.2,-130959.6,-375000,-375000,-146735,-118193,0.03,-0.02,0.89,-4,0,-2,48,0
'[13:38:03.004 20/01/2026]',-106199.5,-187232.7,-108442.7,-127879.6,-375000,-375000,-146108.3,-119777,0.03,-0.02,0.89,-4,0,-2,48,0
'[13:38:03.008 20/01/2026]',-107817.2,-189145,-108059.4,-127708.7,-375000,-375000,-146706.2,-121584.9,0.03,-0.02,0.89,-4,0,-2,48,0
'[13:38:03.012 20/01/2026]',-106508.8,-186942,-110408.1,-131770.8,-375000,-375000,-147601.4,-119713.4,0.03,-0.02,0.89,-4,0,-2,48,0
'[13:38:03.016 20/01/2026]',-105075.3,-185327.2,-110441.4,-131369.4,-375000,-375000,-146875.6,-118161.8,0.03,-0.02,0.89,-4,0,-2,48,0
'[13:38:03.020 20/01/2026]',-105880.7,-186763.8,-108745.4,-128373.8,-375000,-375000,-146147.4,-119362.1,0.03,-0.02,0.89,-4,0,-2,48,0
'[13:38:03.024 20/01/2026]',-107701.1,-189084,-107850.4,-127283.7,-375000,-375000,-146509.9,-121502.4,0.03,0.00,0.88,-4,0,-2,48,0
'[13:38:03.028 20/01/2026]',-106873.1,-187457.3,-110096.5,-131292.8,-375000,-375000,-147585.5,-120174.1,0.03,0.00,0.88,-4,0,-2,48,0
'[13:38:03.032 20/01/2026]',-105162.3,-185387.4,-110626.4,-131779.2,-375000,-375000,-147066.5,-118236.1,0.03,0.00,0.88,-4,0,-2,48,0
'[13:38:03.036 20/01/2026]',-105606.7,-186372.3,-109079.1,-128919.7,-375000,-375000,-146235.8,-119011.1,0.03,0.00,0.88,-4,0,-2,48,0
'[13:38:03.040 20/01/2026]',-107517.6,-188898.3,-107787.2,-127052.4,-375000,-375000,-146356.9,-121312.6,0.03,0.00,0.88,-4,0,-2,48,0
'[13:38:03.044 20/01/2026]',-107239.5,-187970.5,-109720.9,-130645.1,-375000,-375000,-147505.3,-120623.4,0.03,0.00,0.88,-4,0,-2,48,0
'[13:38:03.048 20/01/2026]',-105350.7,-185537,-110789,-132077,-375000,-375000,-147242.2,-118386.9,0.03,0.00,0.88,-4,0,-2,48,0
'[13:38:03.052 20/01/2026]',-105403.1,-186018.6,-109396.6,-129433,-375000,-375000,-146323,-118710.2,0.03,0.00,0.88,-4,0,-2,48,0
'[13:38:03.056 20/01/2026]',-107227.8,-188555.9,-107783.3,-126986.5,-375000,-375000,-146196.2,-120991.1,0.03,0.00,0.88,-4,0,-2,48,0
'[13:38:03.060 20/01/2026]',-107486.1,-188383.7,-109225.5,-129855.3,-375000,-375000,-147304.9,-120978.7,0.02,-0.02,0.88,-4,0,-2,48,0
'[13:38:03.064 20/01/2026]',-105524.5,-185710.3,-110796.1,-132205.8,-375000,-375000,-147341.5,-118570.9,0.02,-0.02,0.88,-4,0,-2,48,0
'[13:38:03.068 20/01/2026]',-105202.5,-185723.9,-109675.5,-129931.9,-375000,-375000,-146410.2,-118441.8,0.02,-0.02,0.88,-4,0,-2,48,0
'[13:38:03.072 20/01/2026]',-106886.2,-188168.3,-107910.9,-127131.9,-375000,-375000,-146108.8,-120601.8,0.02,-0.02,0.88,-4,0,-2,48,0
'[13:38:03.076 20/01/2026]',-107686,-188773.4,-108767,-129067.6,-375000,-375000,-147114.6,-121287.7,0.02,-0.02,0.88,-4,0,-2,48,0
'[13:38:03.080 20/01/2026]',-105799.9,-186042.3,-110758.3,-132247.1,-375000,-375000,-147471.5,-118872.4,0.02,-0.02,0.88,-4,0,-2,48,0
'[13:38:03.084 20/01/2026]',-105105.2,-185513.9,-109967.2,-130450.9,-375000,-375000,-146559.1,-118277.9,0.02,-0.02,0.88,-4,0,-2,48,0
'[13:38:03.088 20/01/2026]',-106570,-187715.9,-108170.9,-127468.8,-375000,-375000,-146106.9,-120214.7,0.02,-0.02,0.88,-4,0,-2,48,0
'[13:38:03.092 20/01/2026]',-107832.5,-189030.4,-108444.7,-128415.5,-375000,-375000,-146956,-121514.1,0.02,-0.02,0.88,-4,0,-2,48,0
'[13:38:03.096 20/01/2026]',-106152.8,-186463.6,-110692.6,-132152.2,-375000,-375000,-147590.2,-119265.5,0.03,-0.02,0.89,-4,0,-2,48,0
'[13:38:03.100 20/01/2026]',-105074.9,-185398.9,-110241.6,-130937.1,-375000,-375000,-146725.3,-118192.8,0.03,-0.02,0.89,-4,0,-2,48,0
'[13:38:03.104 20/01/2026]',-106254,-187258.5,-108463.3,-127907.9,-375000,-375000,-146135.1,-119813.2,0.03,-0.02,0.89,-4,0,-2,48,0
'[13:38:03.108 20/01/2026]',-107857.3,-189153.1,-108128.9,-127810.1,-375000,-375000,-146752.8,-121601.8,0.03,-0.02,0.89,-4,0,-2,48,0
'[13:38:03.112 20/01/2026]',-106523.4,-186947.7,-110449,-131804.4,-375000,-375000,-147617.8,-119705.6,0.03,-0.02,0.89,-4,0,-2,48,0
'[13:38:03.116 20/01/2026]',-105095.6,-185360.2,-110448.3,-131357.8,-375000,-375000,-146875.7,-118168,0.03,-0.02,0.89,-4,0,-2,48,0
'[13:38:03.120 20/01/2026]',-105926,-186822.2,-108747.4,-128371.5,-375000,-375000,-146152.7,-119399.3,0.03,-0.02,0.89,-4,0,-2,48,0
'[13:38:03.124 20/01/2026]',-107743.5,-189111,-107903.5,-127380.8,-375000,-375000,-146540.1,-121518.5,0.03,-0.02,0.89,-4,0,-2,48,0
'[13:38:03.128 20/01/2026]',-106871.8,-187421.7,-110140.3,-131361,-375000,-375000,-147597.7,-120138.1,0.03,-0.02,0.89,-4,0,-2,48,0
'[13:38:03.132 20/01/2026]',-105171,-185378.3,-110622,-131722.9,-375000,-375000,-147032.9,-118217.4,0.03,0.00,0.88,-4,0,-2,48,0
'[13:38:03.136 20/01/2026]',-105646.3,-186410.5,-109060.4,-128868.8,-375000,-375000,-146208.8,-119028.7,0.03,0.00,0.88,-4,0,-2,48,0
'[13:38:03.140 20/01/2026]',-107547.2,-188920.1,-107808.5,-127109.7,-375000,-375000,-146361.2,-121324,0.03,0.00,0.88,-4,0,-2,48,0
'[13:38:03.144 20/01/2026]',-107206.2,-187919.3,-109754.3,-130686.9,-375000,-375000,-147496.8,-120577.1,0.03,0.00,0.88,-4,0,-2,48,0
'[13:38:03.148 20/01/2026]',-105313,-185502.3,-110763.9,-132007.4,-375000,-375000,-147203.5,-118350.7,0.03,0.00,0.88,-4,0,-2,48,0
'[13:38:03.152 20/01/2026]',-105402.1,-186013.1,-109377.7,-129400.5,-375000,-375000,-146308.1,-118715.5,0.03,0.00,0.88,-4,0,-2,48,0
'[13:38:03.156 20/01/2026]',-107266.4,-188578.6,-107828.1,-127078.7,-375000,-375000,-146241.3,-121023.3,0.03,0.00,0.88,-4,0,-2,48,0
'[13:38:03.160 20/01/2026]',-107490.2,-188384.5,-109306.1,-129953,-375000,-375000,-147352,-120969.4,0.03,0.00,0.88,-4,0,-2,48,0
'[13:38:03.164 20/01/2026]',-105516.4,-185723.6,-110799.5,-132157.4,-375000,-375000,-147334.2,-118555.7,0.03,0.00,0.88,-4,0,-2,48,0
'[13:38:03.168 20/01/2026]',-105234.1,-185754.8,-109668.8,-129894.1,-375000,-375000,-146412.9,-118464.6,0.03,0.00,0.88,-4,0,-2,48,0
'[13:38:03.172 20/01/2026]',-106950.8,-188199.5,-107958,-127202.9,-375000,-375000,-146155.5,-120653.7,0.03,0.00,0.88,-4,0,-2,48,0
'[13:38:03.176 20/01/2026]',-107719.8,-188758.3,-108864.3,-129189.6,-375000,-375000,-147176,-121297.1,0.03,0.00,0.88,-4,0,-2,48,0
'[13:38:03.180 20/01/2026]',-105803.5,-186034.3,-110793.5,-132238.5,-375000,-375000,-147488.3,-118870.2,0.03,0.00,0.88,-4,0,-2,48,0
'[13:38:03.184 20/01/2026]',-105120.9,-185540.5,-109956.8,-130422.3,-375000,-375000,-146565.8,-118300.5,0.03,0.00,0.88,-4,0,-2,48,0
'[13:38:03.188 20/01/2026]',-106602.5,-187762.9,-108172,-127508.4,-375000,-375000,-146132.1,-120253.3,0.03,0.00,0.88,-4,0,-2,48,0
'[13:38:03.192 20/01/2026]',-107816.8,-189009.9,-108471.4,-128487.5,-375000,-375000,-146976.5,-121503.8,0.03,0.00,0.88,-4,0,-2,48,0
'[13:38:03.196 20/01/2026]',-106116.2,-186428,-110675.1,-132107.6,-375000,-375000,-147573,-119239.6,0.03,0.00,0.88,-4,0,-2,48,0
'[13:38:03.200 20/01/2026]',-105073.7,-185412.5,-110208.2,-130879.4,-375000,-375000,-146712,-118202.4,0.03,0.00,0.88,-4,0,-2,48,0
'[13:38:03.204 20/01/2026]',-106274.2,-187321,-108446.1,-127898.1,-375000,-375000,-146140.1,-119846.9,0.03,-0.02,0.88,-4,0,-2,48,0
'[13:38:03.208 20/01/2026]',-107848.5,-189163.1,-108134.8,-127851.1,-375000,-375000,-146753.9,-121591.7,0.03,-0.02,0.88,-4,0,-2,48,0
'[13:38:03.212 20/01/2026]',-106470.9,-186892.1,-110438.7,-131802.7,-375000,-375000,-147595.8,-119654,0.03,-0.02,0.88,-4,0,-2,48,0
'[13:38:03.216 20/01/2026]',-105090.6,-185359.8,-110436.4,-131319.2,-375000,-375000,-146868.1,-118170.9,0.03,-0.02,0.88,-4,0,-2,48,0
'[13:38:03.220 20/01/2026]',-105946.6,-186850.8,-108745.7,-128353.9,-375000,-375000,-146154.1,-119421.5,0.03,-0.02,0.88,-4,0,-2,48,0
'[13:38:03.224 20/01/2026]',-107756,-189126.5,-107930.7,-127412.2,-375000,-375000,-146559.3,-121532.1,0.03,-0.02,0.88,-4,0,-2,48,0
'[13:38:03.228 20/01/2026]',-106829.6,-187391.7,-110149.4,-131331.2,-375000,-375000,-147576.4,-120102.2,0.03,-0.02,0.88,-4,0,-2,48,0
'[13:38:03.232 20/01/2026]',-105156.1,-185384.3,-110605.7,-131662.5,-375000,-375000,-147017.6,-118213.1,0.03,-0.02,0.88,-4,0,-2,48,0
'[13:38:03.236 20/01/2026]',-105654.8,-186424.5,-109042.7,-128842.2,-375000,-375000,-146212,-119051.5,0.03,-0.02,0.88,-4,0,-2,48,0
'[13:38:03.240 20/01/2026]',-107551.3,-188928.7,-107796.1,-127119.8,-375000,-375000,-146373.9,-121340.3,0.03,-0.02,0.89,-4,0,-2,48,0
'[13:38:03.244 20/01/2026]',-107169.9,-187881,-109743,-130701,-375000,-375000,-147494.2,-120547.6,0.03,-0.02,0.89,-4,0,-2,48,0
'[13:38:03.248 20/01/2026]',-105288.6,-185473.7,-110733.5,-131959.9,-375000,-375000,-147182.5,-118340.8,0.03,-0.02,0.89,-4,0,-2,48,0
'[13:38:03.252 20/01/2026]',-105419.2,-186045.5,-109357.4,-129353.3,-375000,-375000,-146305.7,-118742.5,0.03,-0.02,0.89,-4,0,-2,48,0
'[13:38:03.256 20/01/2026]',-107292.7,-188633.1,-107830.1,-127067.7,-375000,-375000,-146258.3,-121063.1,0.03,-0.02,0.89,-4,0,-2,48,0
'[13:38:03.260 20/01/2026]',-107473,-188364.2,-109325.9,-129990.5,-375000,-375000,-147363.1,-120952.3,0.03,-0.02,0.89,-4,0,-2,48,0
'[13:38:03.264 20/01/2026]',-105505.3,-185714.5,-110799.7,-132174.7,-375000,-375000,-147342,-118550.3,0.03,-0.02,0.89,-4,0,-2,48,0
'[13:38:03.268 20/01/2026]',-105248.8,-185789.3,-109654.8,-129880.3,-375000,-375000,-146425.5,-118499.8,0.03,-0.02,0.89,-4,0,-2,48,0
'[13:38:03.272 20/01/2026]',-106973.7,-188251.4,-107950.6,-127193.1,-375000,-375000,-146174,-120700,0.03,-0.02,0.89,-4,0,-2,48,0
'[13:38:03.276 20/01/2026]',-107690.8,-188737.8,-108887.8,-129242.3,-375000,-375000,-147187.4,-121281.4,0.03,0.00,0.89,-4,0,-2,48,0
'[13:38:03.280 20/01/2026]',-105770,-185983.4,-110794.6,-132249.5,-375000,-375000,-147474.5,-118847.4,0.03,0.00,0.89,-4,0,-2,48,0
'[13:38:03.284 20/01/2026]',-105113.5,-185542.4,-109914.4,-130361.3,-375000,-375000,-146535,-118306.2,0.03,0.00,0.89,-4,0,-2,48,0
'[13:38:03.288 20/01/2026]',-106610.8,-187798.6,-108138.2,-127431.1,-375000,-375000,-146109.7,-120277.8,0.03,0.00,0.89,-4,0,-2,48,0
'[13:38:03.292 20/01/2026]',-107803.7,-189016.3,-108470.4,-128467.9,-375000,-375000,-146960.3,-121492.9,0.03,0.00,0.89,-4,0,-2,48,0
'[13:38:03.296 20/01/2026]',-106070.5,-186387.1,-110668.1,-132113.9,-375000,-375000,-147545.7,-119197.8,0.03,0.00,0.89,-4,0,-2,48,0
'[13:38:03.300 20/01/2026]',-105040,-185377.4,-110172.7,-130837.2,-375000,-375000,-146677.1,-118175.6,0.03,0.00,0.89,-4,0,-2,48,0
'[13:38:03.304 20/01/2026]',-106251.8,-187293.6,-108392.1,-127812.5,-375000,-375000,-146104.2,-119835.6,0.03,0.00,0.89,-4,0,-2,48,0
'[13:38:03.308 20/01/2026]',-107807.5,-189121.1,-108117.8,-127827,-375000,-375000,-146740.3,-121562.1,0.03,0.00,0.89,-4,0,-2,48,0
'[13:38:03.312 20/01/2026]',-106425.4,-186850.3,-110464.7,-131848.6,-375000,-375000,-147598.4,-119613.2,0.03,-0.02,0.88,-4,0,-2,48,0
'[13:38:03.316 20/01/2026]',-105071.4,-185354.8,-110427.7,-131313.1,-375000,-375000,-146864.2,-118163,0.03,-0.02,0.88,-4,0,-2,48,0
'[13:38:03.320 20/01/2026]',-105966.4,-186881.6,-108718.9,-128318.6,-375000,-375000,-146167.1,-119460.1,0.03,-0.02,0.88,-4,0,-2,48,0
'[13:38:03.324 20/01/2026]',-107774.4,-189137.7,-107931.2,-127411.2,-375000,-375000,-146583.2,-121558.9,0.03,-0.02,0.88,-4,0,-2,48,0
'[13:38:03.328 20/01/2026]',-106834.1,-187381.3,-110194.4,-131407.1,-375000,-375000,-147613.9,-120100.4,0.03,-0.02,0.88,-4,0,-2,48,0
'[13:38:03.332 20/01/2026]',-105169.8,-185390.8,-110636.5,-131699.8,-375000,-375000,-147045.4,-118226.2,0.03,-0.02,0.88,-4,0,-2,48,0
'[13:38:03.336 20/01/2026]',-105689.4,-186462.5,-109044,-128814.4,-375000,-375000,-146233.1,-119099.7,0.03,-0.02,0.88,-4,0,-2,48,0
'[13:38:03.340 20/01/2026]',-107583.3,-188960.1,-107811.4,-127116.1,-375000,-375000,-146401.5,-121382.2,0.03,-0.02,0.88,-4,0,-2,48,0
'[13:38:03.344 20/01/2026]',-107171.1,-187879.3,-109815.6,-130797.4,-375000,-375000,-147534.1,-120544.2,0.03,-0.02,0.88,-4,0,-2,48,0
'[13:38:03.348 20/01/2026]',-105298.8,-185499.6,-110760.8,-131996.5,-375000,-375000,-147195.8,-118346,0.02,-0.02,0.88,-4,0,-2,48,0
'[13:38:03.352 20/01/2026]',-105443.5,-186099.4,-109347.1,-129331.8,-375000,-375000,-146308.1,-118773.5,0.02,-0.02,0.88,-4,0,-2,48,0
'[13:38:03.356 20/01/2026]',-107309.4,-188666.8,-107828.8,-127049.6,-375000,-375000,-146262.8,-121090.6,0.02,-0.02,0.88,-4,0,-2,48,0
'[13:38:03.360 20/01/2026]',-107453.4,-188330.9,-109375.2,-130061.9,-375000,-375000,-147384.6,-120938.8,0.02,-0.02,0.88,-4,0,-2,48,0
'[13:38:03.364 20/01/2026]',-105493.4,-185696.2,-110828.9,-132209.4,-375000,-375000,-147351.4,-118548,0.02,-0.02,0.88,-4,0,-2,48,0
'[13:38:03.368 20/01/2026]',-105261.2,-185794.4,-109652.8,-129864.8,-375000,-375000,-146429.2,-118526,0.02,-0.02,0.88,-4,0,-2,48,0
'[13:38:03.372 20/01/2026]',-107007.3,-188286.8,-107955.2,-127173.9,-375000,-375000,-146192.3,-120741.8,0.02,-0.02,0.88,-4,0,-2,48,0
'[13:38:03.376 20/01/2026]',-107702.5,-188740.5,-108959.9,-129317.6,-375000,-375000,-147237.1,-121290.9,0.02,-0.02,0.88,-4,0,-2,48,0
'[13:38:03.380 20/01/2026]',-105768,-186001.1,-110842.6,-132286.3,-375000,-375000,-147505.6,-118853.3,0.02,-0.02,0.88,-4,0,-2,48,0
'[13:38:03.384 20/01/2026]',-105147.7,-185589.8,-109959.5,-130391.9,-375000,-375000,-146585,-118354.1,0.03,-0.02,0.88,-4,0,-2,48,0
'[13:38:03.388 20/01/2026]',-106682.2,-187865.7,-108189.4,-127490.1,-375000,-375000,-146192.3,-120367,0.03,-0.02,0.88,-4,0,-2,48,0
'[13:38:03.392 20/01/2026]',-107856.3,-189042.6,-108575.5,-128612,-375000,-375000,-147061.6,-121543.1,0.03,-0.02,0.88,-4,0,-2,48,0
'[13:38:03.396 20/01/2026]',-106101.7,-186407.9,-110745.2,-132194.5,-375000,-375000,-147616.1,-119231,0.03,-0.02,0.88,-4,0,-2,48,0
'[13:38:03.400 20/01/2026]',-105104.3,-185450,-110216.6,-130857.8,-375000,-375000,-146737.1,-118255.3,0.03,-0.02,0.88,-4,0,-2,48,0
'[13:38:03.404 20/01/2026]',-106328.7,-187372.3,-108427.6,-127842.4,-375000,-375000,-146160.6,-119927,0.03,-0.02,0.88,-4,0,-2,48,0
'[13:38:03.408 20/01/2026]',-107864.8,-189147,-108200.5,-127948.8,-375000,-375000,-146821.3,-121623.1,0.03,-0.02,0.88,-4,0,-2,48,0
'[13:38:03.412 20/01/2026]',-106443.1,-186842.1,-110539.9,-131912.2,-375000,-375000,-147652.3,-119640,0.03,-0.02,0.88,-4,0,-2,48,0
'[13:38:03.416 20/01/2026]',-105092.8,-185371.6,-110447.3,-131296.7,-375000,-375000,-146891.2,-118212.9,0.03,-0.02,0.88,-4,0,-2,48,0
'[13:38:03.420 20/01/2026]',-106001.7,-186913.5,-108727.6,-128311.9,-375000,-375000,-146198.9,-119529.9,0.03,0.00,0.88,-4,0,-2,48,0
'[13:38:03.424 20/01/2026]',-107788.7,-189152.9,-107978.2,-127479.4,-375000,-375000,-146635.4,-121602.4,0.03,0.00,0.88,-4,0,-2,48,0
'[13:38:03.428 20/01/2026]',-106819.5,-187361.6,-110262,-131488,-375000,-375000,-147665.7,-120108.7,0.03,0.00,0.88,-4,0,-2,48,0
'[13:38:03.432 20/01/2026]',-105181.9,-185407.9,-110657,-131708.8,-375000,-375000,-147080.4,-118267.8,0.03,0.00,0.88,-4,0,-2,48,0
'[13:38:03.436 20/01/2026]',-105723,-186514.8,-109052.1,-128827.3,-375000,-375000,-146269,-119157.5,0.03,0.00,0.88,-4,0,-2,48,0
'[13:38:03.440 20/01/2026]',-107612.9,-189003.5,-107852.3,-127178.5,-375000,-375000,-146454.4,-121432.4,0.03,0.00,0.88,-4,0,-2,48,0
'[13:38:03.444 20/01/2026]',-107171.1,-187881.9,-109859.2,-130853.9,-375000,-375000,-147579.4,-120569.1,0.03,0.00,0.88,-4,0,-2,48,0
'[13:38:03.448 20/01/2026]',-105304.1,-185514.1,-110787.2,-132015.9,-375000,-375000,-147234.6,-118385.7,0.03,0.00,0.88,-4,0,-2,48,0
'[13:38:03.452 20/01/2026]',-105471.7,-186127.7,-109368.2,-129345.1,-375000,-375000,-146352,-118833.5,0.03,0.00,0.88,-4,0,-2,48,0
'[13:38:03.456 20/01/2026]',-107342.5,-188678.2,-107855.5,-127091,-375000,-375000,-146315.1,-121151.2,0.03,-0.02,0.88,-4,0,-2,48,0
'[13:38:03.460 20/01/2026]',-107446.4,-188317.7,-109439.6,-130143.2,-375000,-375000,-147438.7,-120952.3,0.03,-0.02,0.88,-4,0,-2,48,0
'[13:38:03.464 20/01/2026]',-105489.3,-185699.3,-110859.8,-132215,-375000,-375000,-147378.4,-118568.3,0.03,-0.02,0.88,-4,0,-2,48,0
'[13:38:03.468 20/01/2026]',-105278.9,-185825.1,-109651.4,-129832.2,-375000,-375000,-146439.7,-118567.1,0.03,-0.02,0.88,-4,0,-2,48,0
'[13:38:03.472 20/01/2026]',-107030.3,-188311.9,-107956.5,-127185.2,-375000,-375000,-146214.3,-120785.6,0.03,-0.02,0.88,-4,0,-2,48,0
'[13:38:03.476 20/01/2026]',-107687.7,-188723.1,-108999.8,-129383.6,-375000,-375000,-147259.2,-121279.7,0.03,-0.02,0.88,-4,0,-2,48,0
'[13:38:03.480 20/01/2026]',-105751.4,-185993.7,-110853.8,-132283.3,-375000,-375000,-147504.3,-118837.7,0.03,-0.02,0.88,-4,0,-2,48,0
'[13:38:03.484 20/01/2026]',-105150.2,-185598,-109949.8,-130355.5,-375000,-375000,-146578.1,-118367.6,0.03,-0.02,0.88,-4,0,-2,48,0
'[13:38:03.488 20/01/2026]',-106688.3,-187878.8,-108165.4,-127456.4,-375000,-375000,-146175.9,-120376,0.03,-0.02,0.88,-4,0,-2,48,0
'[13:38:03.492 20/01/2026]',-107826.7,-189001.4,-108582.4,-128642.1,-375000,-375000,-147057.7,-121513.5,0.03,-0.02,0.88,-4,0,-2,48,0
'[13:38:03.496 20/01/2026]',-106055.9,-186347.7,-110748.5,-132196.7,-375000,-375000,-147600,-119189.4,0.03,-0.02,0.88,-4,0,-2,48,0
'[13:38:03.500 20/01/2026]',-105073,-185422.5,-110174.6,-130807.6,-375000,-375000,-146700.8,-118233.4,0.03,-0.02,0.88,-4,0,-2,48,0
'[13:38:03.504 20/01/2026]',-106334,-187390.5,-108390.9,-127805.2,-375000,-375000,-146143,-119938.1,0.03,-0.02,0.88,-4,0,-2,48,0
'[13:38:03.508 20/01/2026]',-107852.9,-189145,-108227.1,-127987.3,-375000,-375000,-146827.5,-121605.8,0.03,-0.02,0.88,-4,0,-2,48,0
'[13:38:03.512 20/01/2026]',-106401.3,-186799.6,-110555.9,-131926.6,-375000,-375000,-147640.7,-119595.1,0.03,-0.02,0.88,-4,0,-2,48,0
'[13:38:03.516 20/01/2026]',-105074,-185362.9,-110414.8,-131239.8,-375000,-375000,-146857,-118195.5,0.03,-0.02,0.88,-4,0,-2,48,0
'[13:38:03.520 20/01/2026]',-106005.5,-186931.1,-108681.9,-128242.3,-375000,-375000,-146163.9,-119528.5,0.03,-0.02,0.88,-4,0,-2,48,0
'[13:38:03.524 20/01/2026]',-107781.2,-189140,-107968.2,-127469,-375000,-375000,-146613.4,-121580.5,0.03,-0.02,0.88,-4,0,-2,48,0
'[13:38:03.528 20/01/2026]',-106765.3,-187289.1,-110241.4,-131458.2,-375000,-375000,-147614.8,-120039,0.03,-0.02,0.88,-4,0,-2,48,0
'[13:38:03.532 20/01/2026]',-105133.5,-185364.3,-110594.2,-131615.2,-375000,-375000,-147009.1,-118216.1,0.03,-0.02,0.88,-4,0,-2,48,0
'[13:38:03.536 20/01/2026]',-105706.9,-186503.6,-108994.9,-128746.2,-375000,-375000,-146223.4,-119148.3,0.03,-0.02,0.88,-4,0,-2,48,0
'[13:38:03.540 20/01/2026]',-107598,-188980.8,-107830.6,-127175.3,-375000,-375000,-146436.5,-121414.8,0.03,-0.02,0.88,-4,0,-2,48,0
'[13:38:03.544 20/01/2026]',-107107.4,-187793.6,-109867.9,-130887.3,-375000,-375000,-147558,-120487.1,0.03,-0.02,0.88,-4,0,-2,48,0
'[13:38:03.548 20/01/2026]',-105257,-185456.8,-110739.7,-131948.1,-375000,-375000,-147186.6,-118327.4,0.03,-0.02,0.88,-4,0,-2,48,0
'[13:38:03.552 20/01/2026]',-105463.5,-186123.7,-109307.9,-129269.8,-375000,-375000,-146313.8,-118816.5,0.03,-0.02,0.88,-4,0,-2,48,0
'[13:38:03.556 20/01/2026]',-107348.2,-188700,-107821.1,-127067.6,-375000,-375000,-146296.1,-121136.9,0.03,-0.02,0.88,-4,0,-2,48,0
'[13:38:03.560 20/01/2026]',-107421.2,-188262.9,-109431.3,-130167.5,-375000,-375000,-147427.4,-120897,0.03,-0.02,0.88,-4,0,-2,48,0
'[13:38:03.564 20/01/2026]',-105461.9,-185645.8,-110811.6,-132159.3,-375000,-375000,-147339.9,-118523.1,0.05,-0.02,0.89,-4,0,0,48,0
'[13:38:03.568 20/01/2026]',-105273.1,-185824,-109608.5,-129784.5,-375000,-375000,-146417.9,-118557.6,0.05,-0.02,0.89,-4,0,0,48,0
'[13:38:03.572 20/01/2026]',-107047.7,-188339.9,-107955.8,-127199.7,-375000,-375000,-146229.1,-120802.2,0.05,-0.02,0.89,-4,0,0,48,0
'[13:38:03.576 20/01/2026]',-107680.7,-188697.4,-109035.8,-129457.5,-375000,-375000,-147289.9,-121267.6,0.05,-0.02,0.89,-4,0,0,48,0
'[13:38:03.580 20/01/2026]',-105730.2,-185949.8,-110832.3,-132271.8,-375000,-375000,-147497.7,-118822.2,0.05,-0.02,0.89,-4,0,0,48,0
'[13:38:03.584 20/01/2026]',-105162.9,-185591.6,-109914.2,-130323.5,-375000,-375000,-146574.8,-118384.3,0.05,-0.02,0.89,-4,0,0,48,0
'[13:38:03.588 20/01/2026]',-106719.6,-187897.3,-108141.5,-127445.1,-375000,-375000,-146183.8,-120409.1,0.05,-0.02,0.89,-4,0,0,48,0
'[13:38:03.592 20/01/2026]',-107838,-189003,-108616.5,-128711.1,-375000,-375000,-147087.5,-121513.9,0.05,-0.02,0.89,-4,0,0,48,0
'[13:38:03.596 20/01/2026]',-106059.2,-186353.1,-110774.8,-132220.5,-375000,-375000,-147615.4,-119184.3,0.05,-0.02,0.89,-4,0,0,48,0
'[13:38:03.600 20/01/2026]',-105105.5,-185467.4,-110194.5,-130801.3,-375000,-375000,-146722.4,-118266.6,0.02,-0.02,0.89,-4,0,-2,48,0
'[13:38:03.604 20/01/2026]',-106384.2,-187449,-108416.1,-127817.7,-375000,-375000,-146176.1,-119992.7,0.02,-0.02,0.89,-4,0,-2,48,0
'[13:38:03.608 20/01/2026]',-107891.9,-189174.6,-108261,-128035.1,-375000,-375000,-146861.4,-121638.8,0.02,-0.02,0.89,-4,0,-2,48,0
'[13:38:03.612 20/01/2026]',-106418,-186808.2,-110586.7,-131962.5,-375000,-375000,-147661.1,-119607.8,0.02,-0.02,0.89,-4,0,-2,48,0
'[13:38:03.616 20/01/2026]',-105102.2,-185386.3,-110437.6,-131260.4,-375000,-375000,-146878.3,-118221.5,0.02,-0.02,0.89,-4,0,-2,48,0
'[13:38:03.620 20/01/2026]',-106057.6,-186993.2,-108708,-128266.9,-375000,-375000,-146195.4,-119579.2,0.02,-0.02,0.89,-4,0,-2,48,0
'[13:38:03.624 20/01/2026]',-107822.8,-189172.6,-108018.3,-127557.4,-375000,-375000,-146656.6,-121607.5,0.02,-0.02,0.89,-4,0,-2,48,0
'[13:38:03.628 20/01/2026]',-106774.1,-187279.6,-110290.4,-131547.6,-375000,-375000,-147644.8,-120029.6,0.02,-0.02,0.89,-4,0,-2,48,0
'[13:38:03.632 20/01/2026]',-105168.8,-185384.1,-110614.8,-131645.2,-375000,-375000,-147029,-118238.4,0.02,-0.02,0.89,-4,0,-2,48,0
'[13:38:03.636 20/01/2026]',-105781.7,-186576.4,-109027.6,-128775.1,-375000,-375000,-146260.8,-119211.1,0.03,-0.02,0.88,-4,0,-2,48,0
'[13:38:03.640 20/01/2026]',-107673.8,-189056.4,-107903.3,-127255.1,-375000,-375000,-146495.3,-121475.6,0.03,-0.02,0.88,-4,0,-2,48,0
'[13:38:03.644 20/01/2026]',-107147.3,-187816.4,-109969.5,-130993.2,-375000,-375000,-147610.1,-120500.1,0.03,-0.02,0.88,-4,0,-2,48,0
'[13:38:03.648 20/01/2026]',-105315.6,-185507.6,-110811.7,-132000.5,-375000,-375000,-147229.7,-118368.4,0.03,-0.02,0.88,-4,0,-2,48,0
