'Time and date','Fp1','Fp2','F3','Fz','F4','P3','Pz','P4','AccX','AccY','AccZ','GyroX','GyroY','GyroZ','Battery','Event'
'[hh:mm:ss.mmm dd/mm/yyyy]','uV','uV','uV','uV','uV','uV','uV','uV','G','G','G','Deg/s','Deg/s','Deg/s','%','Button'
'[12:10:00.000 21/01/2026]',-140050,-205353.6,-110450.6,-9021.343,-375000,-375000,-153495,-124394.1,0.02,0.00,0.89,-4,0,-2,19,0
'[12:10:00.004 21/01/2026]',-139943.7,-205521.1,-110502.9,-9047.404,-375000,-375000,-153478.9,-124361.8,0.02,0.00,0.89,-4,0,-2,19,0
'[12:10:00.008 21/01/2026]',-139902.1,-205445,-110485.4,-8981.422,-375000,-375000,-153449.3,-124335,0.02,0.00,0.89,-4,0,-2,19,0
'[12:10:00.012 21/01/2026]',-140034.9,-205264.2,-110435.2,-8947.761,-375000,-375000,-153460.6,-124365.4,0.02,0.00,0.89,-4,0,-2,19,0
'[12:10:00.016 21/01/2026]',-140074.9,-205309.6,-110442.9,-9007.082,-375000,-375000,-153479.7,-124386,0.02,0.00,0.89,-4,0,-2,19,0
'[12:10:00.020 21/01/2026]',-139968,-205517.7,-110508,-9046.958,-375000,-375000,-153468.3,-124353,0.02,0.00,0.89,-4,0,-2,19,0
'[12:10:00.024 21/01/2026]',-139943.3,-205490.4,-110517.9,-9002.344,-375000,-375000,-153449.8,-124328.1,0.02,0.00,0.89,-4,0,-2,19,0
'[12:10:00.028 21/01/2026]',-140036.5,-205289.5,-110452.9,-8950.175,-375000,-375000,-153460.5,-124356.3,0.02,0.00,0.89,-4,0,-2,19,0
'[12:10:00.032 21/01/2026]',-140059.7,-205273.6,-110416.8,-8991.078,-375000,-375000,-153476.2,-124388.5,0.02,0.00,0.89,-4,0,-2,19,0
'[12:10:00.036 21/01/2026]',-140050,-205353.6,-110450.6,-9021.343,-375000,-375000,-153495,-124394.1,0.02,0.00,0.89,-4,0,-2,19,0
'[12:10:00.040 21/01/2026]',-139943.7,-205521.1,-110502.9,-9047.404,-375000,-375000,-153478.9,-124361.8,0.02,0.00,0.89,-4,0,-2,19,0
'[12:10:00.044 21/01/2026]',-139902.1,-205445,-110485.4,-8981.422,-375000,-375000,-153449.3,-124335,0.02,0.00,0.89,-4,0,-2,19,0
'[12:10:00.048 21/01/2026]',-140034.9,-205264.2,-110435.2,-8947.761,-375000,-375000,-153460.6,-124365.4,0.02,0.00,0.89,-4,0,-2,19,0
'[12:10:00.052 21/01/2026]',-140074.9,-205309.6,-110442.9,-9007.082,-375000,-375000,-153479.7,-124386,0.02,0.00,0.89,-4,0,-2,19,0
'[12:10:00.056 21/01/2026]',-139968,-205517.7,-110508,-9046.958,-375000,-375000,-153468.3,-124353,0.02,0.00,0.89,-4,0,-2,19,0
'[12:10:00.060 21/01/2026]',-139943.3,-205490.4,-110517.9,-9002.344,-375000,-375000,-153449.8,-124328.1,0.02,0.00,0.89,-4,0,-2,19,0
'[12:10:00.064 21/01/2026]',-140036.5,-205289.5,-110452.9,-8950.175,-375000,-375000,-153460.5,-124356.3,0.02,0.00,0.89,-4,0,-2,19,0
'[12:10:00.068 21/01/2026]',-140059.7,-205273.6,-110416.8,-8991.078,-375000,-375000,-153476.2,-124388.5,0.02,0.00,0.89,-4,0,-2,19,0
'[12:10:00.072 21/01/2026]',-139978.5,-205456.9,-110485.6,-9047.226,-375000,-375000,-153462.1,-124345.5,0.02,0.00,0.88,-4,0,-2,19,0
'[12:10:00.076 21/01/2026]',-139938.5,-205509.2,-110522.1,-9015.531,-375000,-375000,-153439.9,-124311.9,0.02,0.00,0.88,-4,0,-2,19,0
'[12:10:00.080 21/01/2026]',-140015.4,-205308,-110443.9,-8939.893,-375000,-375000,-153442.8,-124325,0.02,0.00,0.88,-4,0,-2,19,0
'[12:10:00.084 21/01/2026]',-140038.5,-205244.1,-110414.3,-8974.046,-375000,-375000,-153485.7,-124382,0.02,0.00,0.88,-4,0,-2,19,0
'[12:10:00.088 21/01/2026]',-139989.5,-205439,-110486.2,-9057.597,-375000,-375000,-153507.1,-124392.9,0.02,0.00,0.88,-4,0,-2,19,0
'[12:10:00.092 21/01/2026]',-139968.2,-205553.4,-110550.1,-9058.357,-375000,-375000,-153475.4,-124354.6,0.02,0.00,0.88,-4,0,-2,19,0
'[12:10:00.096 21/01/2026]',-140032.3,-205390.2,-110481.2,-8986.608,-375000,-375000,-153459.3,-124354,0.02,0.00,0.88,-4,0,-2,19,0
'[12:10:00.100 21/01/2026]',-140099,-205296,-110434.2,-8998.633,-375000,-375000,-153485.6,-124386.5,0.02,0.00,0.88,-4,0,-2,19,0
'[12:10:00.104 21/01/2026]',-140059.9,-205481.8,-110498.5,-9077.356,-375000,-375000,-153500.6,-124388.3,0.02,0.00,0.88,-4,0,-2,19,0
'[12:10:00.108 21/01/2026]',-139987,-205591.9,-110550.1,-9075.702,-375000,-375000,-153466.4,-124346.5,0.03,0.00,0.88,-4,0,-2,19,0
'[12:10:00.112 21/01/2026]',-140057.4,-205447.1,-110510.3,-9009.272,-375000,-375000,-153458.4,-124350.6,0.03,0.00,0.88,-4,0,-2,19,0
'[12:10:00.116 21/01/2026]',-140120.9,-205345.4,-110466.3,-9006.635,-375000,-375000,-153482.7,-124389.9,0.03,0.00,0.88,-4,0,-2,19,0
'[12:10:00.120 21/01/2026]',-140070.5,-205490.2,-110497.5,-9079.993,-375000,-375000,-153511.7,-124408.6,0.03,0.00,0.88,-4,0,-2,19,0
'[12:10:00.124 21/01/2026]',-139997.6,-205606.6,-110540.8,-9078.876,-375000,-375000,-153474.6,-124349.9,0.03,0.00,0.88,-4,0,-2,19,0
'[12:10:00.128 21/01/2026]',-140033.9,-205474.2,-110520.8,-9013.52,-375000,-375000,-153451.3,-124336.7,0.03,0.00,0.88,-4,0,-2,19,0
'[12:10:00.132 21/01/2026]',-140120.2,-205302.6,-110445.7,-8986.116,-375000,-375000,-153475.3,-124379,0.03,0.00,0.88,-4,0,-2,19,0
'[12:10:00.136 21/01/2026]',-140090.4,-205407.8,-110461.7,-9050.668,-375000,-375000,-153506,-124399.4,0.03,0.00,0.88,-4,0,-2,19,0
'[12:10:00.140 21/01/2026]',-139987.4,-205586.4,-110536.4,-9105.206,-375000,-375000,-153489.2,-124366.3,0.03,0.00,0.88,-4,0,-2,19,0
'[12:10:00.144 21/01/2026]',-140000.1,-205489.6,-110528.1,-9041.683,-375000,-375000,-153461.8,-124337.3,0.03,0.00,0.88,-4,0,-2,19,0
'[12:10:00.148 21/01/2026]',-140096.2,-205308,-110447.3,-9001.047,-375000,-375000,-153478.1,-124377,0.03,0.00,0.88,-4,0,-2,19,0
'[12:10:00.152 21/01/2026]',-140097.3,-205369.4,-110438.3,-9058.58,-375000,-375000,-153514.2,-124425,0.03,0.00,0.88,-4,0,-2,19,0
'[12:10:00.156 21/01/2026]',-140001.4,-205559,-110527.1,-9105.206,-375000,-375000,-153504.6,-124395.9,0.03,0.00,0.88,-4,0,-2,19,0
'[12:10:00.160 21/01/2026]',-139974.6,-205515.7,-110533.4,-9051.606,-375000,-375000,-153461.3,-124339,0.03,0.00,0.88,-4,0,-2,19,0
'[12:10:00.164 21/01/2026]',-140066.2,-205307.4,-110455.9,-8994.297,-375000,-375000,-153467.1,-124361.8,0.03,0.00,0.88,-4,0,-2,19,0
'[12:10:00.168 21/01/2026]',-140082,-205334.7,-110450.1,-9057.687,-375000,-375000,-153510.1,-124412.9,0.03,0.00,0.88,-4,0,-2,19,0
'[12:10:00.172 21/01/2026]',-140008.1,-205528.6,-110516.7,-9116.338,-375000,-375000,-153510,-124399.8,0.03,0.00,0.88,-4,0,-2,19,0
'[12:10:00.176 21/01/2026]',-139983.3,-205519.4,-110533.9,-9071.769,-375000,-375000,-153475.3,-124354,0.03,0.00,0.88,-4,0,-2,19,0
'[12:10:00.180 21/01/2026]',-140054.8,-205300.5,-110456.1,-8994.789,-375000,-375000,-153458.4,-124354.2,0.02,0.02,0.86,-4,0,-2,19,0
'[12:10:00.184 21/01/2026]',-140085.3,-205256,-110417,-9024.74,-375000,-375000,-153483,-124393.1,0.02,0.02,0.86,-4,0,-2,19,0
'[12:10:00.188 21/01/2026]',-140011,-205467.5,-110495.7,-9103.061,-375000,-375000,-153508.9,-124401.6,0.02,0.02,0.86,-4,0,-2,19,0
'[12:10:00.192 21/01/2026]',-139959.1,-205525.2,-110545.7,-9084.24,-375000,-375000,-153484.5,-124365.6,0.02,0.02,0.86,-4,0,-2,19,0
'[12:10:00.196 21/01/2026]',-140029.3,-205322.8,-110480.5,-9000.958,-375000,-375000,-153470.3,-124370.3,0.02,0.02,0.86,-4,0,-2,19,0
'[12:10:00.200 21/01/2026]',-140100.5,-205242.3,-110439,-9012.536,-375000,-375000,-153503.5,-124417,0.02,0.02,0.86,-4,0,-2,19,0
'[12:10:00.204 21/01/2026]',-140048.6,-205415,-110483.4,-9091.616,-375000,-375000,-153522.5,-124419.2,0.02,0.02,0.86,-4,0,-2,19,0
'[12:10:00.208 21/01/2026]',-139960.7,-205505.6,-110538.1,-9086.878,-375000,-375000,-153483.8,-124358.7,0.02,0.02,0.86,-4,0,-2,19,0
'[12:10:00.212 21/01/2026]',-140015.5,-205341.4,-110504.6,-9013.52,-375000,-375000,-153464.8,-124354.3,0.02,0.02,0.86,-4,0,-2,19,0
'[12:10:00.216 21/01/2026]',-140094.5,-205226.5,-110445.4,-9003.237,-375000,-375000,-153489.7,-124398.9,0.03,0.00,0.88,-4,0,-2,19,0
'[12:10:00.220 21/01/2026]',-140047.6,-205373.4,-110472.8,-9077.267,-375000,-375000,-153511.1,-124414.6,0.03,0.00,0.88,-4,0,-2,19,0
'[12:10:00.224 21/01/2026]',-139969.7,-205498.9,-110531.9,-9092.108,-375000,-375000,-153480.8,-124365.3,0.03,0.00,0.88,-4,0,-2,19,0
'[12:10:00.228 21/01/2026]',-140000.1,-205369.3,-110511.3,-9015.308,-375000,-375000,-153463.7,-124354.6,0.03,0.00,0.88,-4,0,-2,19,0
'[12:10:00.232 21/01/2026]',-140088.4,-205227.2,-110445.7,-8989.782,-375000,-375000,-153481.3,-124395.7,0.03,0.00,0.88,-4,0,-2,19,0
'[12:10:00.236 21/01/2026]',-140069.6,-205334.1,-110463.6,-9054.11,-375000,-375000,-153496.9,-124401,0.03,0.00,0.88,-4,0,-2,19,0
'[12:10:00.240 21/01/2026]',-139968.1,-205492.3,-110523.3,-9084.956,-375000,-375000,-153477.6,-124364,0.03,0.00,0.88,-4,0,-2,19,0
'[12:10:00.244 21/01/2026]',-139984.1,-205409.7,-110523.8,-9024.919,-375000,-375000,-153464.2,-124354.2,0.03,0.00,0.88,-4,0,-2,19,0
'[12:10:00.248 21/01/2026]',-140083.3,-205252,-110448.8,-8979.59,-375000,-375000,-153483.3,-124394.3,0.03,0.00,0.88,-4,0,-2,19,0
'[12:10:00.252 21/01/2026]',-140072.4,-205307.2,-110422.4,-9020.448,-375000,-375000,-153496.1,-124404.9,0.03,0.02,0.88,-4,0,-2,19,0
'[12:10:00.256 21/01/2026]',-139978.9,-205471.2,-110501.3,-9060.771,-375000,-375000,-153482.6,-124365.2,0.03,0.02,0.88,-4,0,-2,19,0
'[12:10:00.260 21/01/2026]',-139965.8,-205437.5,-110525.6,-9021.61,-375000,-375000,-153463,-124344.9,0.03,0.02,0.88,-4,0,-2,19,0
'[12:10:00.264 21/01/2026]',-140062.3,-205270.6,-110453.4,-8966,-375000,-375000,-153473.4,-124375.3,0.03,0.02,0.88,-4,0,-2,19,0
'[12:10:00.268 21/01/2026]',-140086.8,-205300.6,-110443.1,-9013.072,-375000,-375000,-153502.7,-124411,0.03,0.02,0.88,-4,0,-2,19,0
'[12:10:00.272 21/01/2026]',-139988.1,-205475.5,-110503.6,-9074.54,-375000,-375000,-153500.4,-124390.5,0.03,0.02,0.88,-4,0,-2,19,0
'[12:10:00.276 21/01/2026]',-139960.5,-205474.7,-110530.1,-9042.219,-375000,-375000,-153472.6,-124352.8,0.03,0.02,0.88,-4,0,-2,19,0
'[12:10:00.280 21/01/2026]',-140055.6,-205309.1,-110462.8,-8975.834,-375000,-375000,-153484.5,-124387.9,0.03,0.02,0.88,-4,0,-2,19,0
'[12:10:00.284 21/01/2026]',-140088.5,-205290.1,-110420.7,-9004.355,-375000,-375000,-153504.8,-124420,0.03,0.02,0.88,-4,0,-2,19,0
'[12:10:00.288 21/01/2026]',-140014,-205453.9,-110481.8,-9068.862,-375000,-375000,-153493.2,-124387.2,0.02,0.02,0.88,-4,0,-2,19,0
'[12:10:00.292 21/01/2026]',-139946.3,-205490.7,-110533.3,-9052.59,-375000,-375000,-153461.3,-124336.4,0.02,0.02,0.88,-4,0,-2,19,0
'[12:10:00.296 21/01/2026]',-140000.8,-205324.2,-110472.6,-8974.314,-375000,-375000,-153458,-124353.1,0.02,0.02,0.88,-4,0,-2,19,0
'[12:10:00.300 21/01/2026]',-140072.8,-205267.5,-110430,-8984.954,-375000,-375000,-153478.6,-124390,0.02,0.02,0.88,-4,0,-2,19,0
'[12:10:00.304 21/01/2026]',-140028.2,-205427.2,-110477.4,-9065.375,-375000,-375000,-153497.6,-124402.7,0.02,0.02,0.88,-4,0,-2,19,0
'[12:10:00.308 21/01/2026]',-139949.9,-205496.3,-110534.2,-9078.429,-375000,-375000,-153483.4,-124375.6,0.02,0.02,0.88,-4,0,-2,19,0
'[12:10:00.312 21/01/2026]',-140008.4,-205340.8,-110493.9,-8993.269,-375000,-375000,-153451.2,-124339,0.02,0.02,0.88,-4,0,-2,19,0
'[12:10:00.316 21/01/2026]',-140088.6,-205262.7,-110429.3,-8985.938,-375000,-375000,-153460.2,-124361.8,0.02,0.02,0.88,-4,0,-2,19,0
'[12:10:00.320 21/01/2026]',-140045.2,-205393.3,-110458.8,-9051.204,-375000,-375000,-153498.7,-124394.6,0.02,0.02,0.88,-4,0,-2,19,0
'[12:10:00.324 21/01/2026]',-139949.9,-205510.7,-110538.1,-9078.116,-375000,-375000,-153472.9,-124351.6,0.02,0.00,0.89,-4,0,-2,19,0
'[12:10:00.328 21/01/2026]',-139989.3,-205379.6,-110506.3,-8995.057,-375000,-375000,-153440.3,-124321.4,0.02,0.00,0.89,-4,0,-2,19,0
'[12:10:00.332 21/01/2026]',-140079.6,-205243.2,-110433,-8956.254,-375000,-375000,-153462,-124359,0.02,0.00,0.89,-4,0,-2,19,0
'[12:10:00.336 21/01/2026]',-140055.2,-205362,-110464.6,-9042.04,-375000,-375000,-153506.5,-124403.5,0.02,0.00,0.89,-4,0,-2,19,0
'[12:10:00.340 21/01/2026]',-139960.8,-205506.7,-110519.1,-9075.434,-375000,-375000,-153482.8,-124361.3,0.02,0.00,0.89,-4,0,-2,19,0
'[12:10:00.344 21/01/2026]',-139974.8,-205411.6,-110504.5,-9011.15,-375000,-375000,-153455.1,-124330.2,0.02,0.00,0.89,-4,0,-2,19,0
'[12:10:00.348 21/01/2026]',-140068.4,-205264,-110467.1,-8984.016,-375000,-375000,-153485.3,-124376.9,0.02,0.00,0.89,-4,0,-2,19,0
'[12:10:00.352 21/01/2026]',-140067.3,-205333.7,-110462.4,-9037.123,-375000,-375000,-153504.3,-124395.5,0.02,0.00,0.89,-4,0,-2,19,0
'[12:10:00.356 21/01/2026]',-139982.4,-205498.6,-110514.8,-9073.198,-375000,-375000,-153491.2,-124364.4,0.02,0.00,0.89,-4,0,-2,19,0
'[12:10:00.360 21/01/2026]',-139969.8,-205448.9,-110521.3,-9014.101,-375000,-375000,-153461.1,-124330.1,0.02,0.00,0.88,-4,0,-2,19,0
'[12:10:00.364 21/01/2026]',-140059.7,-205270.3,-110441.8,-8949.325,-375000,-375000,-153471.3,-124358.6,0.02,0.00,0.88,-4,0,-2,19,0
'[12:10:00.368 21/01/2026]',-140087.3,-205296.5,-110429.3,-9001.226,-375000,-375000,-153506,-124405.2,0.02,0.00,0.88,-4,0,-2,19,0
'[12:10:00.372 21/01/2026]',-140000.1,-205497.7,-110516.7,-9071.366,-375000,-375000,-153514.2,-124388.4,0.02,0.00,0.88,-4,0,-2,19,0
'[12:10:00.376 21/01/2026]',-139955,-205486.1,-110539.2,-9027.064,-375000,-375000,-153473.1,-124336.5,0.02,0.00,0.88,-4,0,-2,19,0
'[12:10:00.380 21/01/2026]',-140031.1,-205296.4,-110461.4,-8944.363,-375000,-375000,-153452.5,-124337.9,0.02,0.00,0.88,-4,0,-2,19,0
'[12:10:00.384 21/01/2026]',-140061.7,-205296.7,-110447.9,-8988.933,-375000,-375000,-153485.8,-124378.8,0.02,0.00,0.88,-4,0,-2,19,0
'[12:10:00.388 21/01/2026]',-139975.8,-205487.5,-110524.1,-9060.548,-375000,-375000,-153495.7,-124373.6,0.02,0.00,0.88,-4,0,-2,19,0
'[12:10:00.392 21/01/2026]',-139906.6,-205532.1,-110550.3,-9026.841,-375000,-375000,-153462,-124324.5,0.02,0.00,0.88,-4,0,-2,19,0
'[12:10:00.396 21/01/2026]',-140004.1,-205339.5,-110479.8,-8948.789,-375000,-375000,-153461.4,-124348.1,0.02,0.00,0.89,-4,0,-2,19,0
'[12:10:00.400 21/01/2026]',-140091.1,-205278.9,-110444.4,-8979.009,-375000,-375000,-153502.4,-124397.1,0.02,0.00,0.89,-4,0,-2,19,0
'[12:10:00.404 21/01/2026]',-140012.4,-205462.9,-110494.2,-9044.007,-375000,-375000,-153490.9,-124372.9,0.02,0.00,0.89,-4,0,-2,19,0
'[12:10:00.408 21/01/2026]',-139948.6,-205572.7,-110554.3,-9047.271,-375000,-375000,-153460.6,-124336,0.02,0.00,0.89,-4,0,-2,19,0
'[12:10:00.412 21/01/2026]',-140019.4,-205424,-110506.4,-8973.688,-375000,-375000,-153454.9,-124346.6,0.02,0.00,0.89,-4,0,-2,19,0
'[12:10:00.416 21/01/2026]',-140092.5,-205322.5,-110457.9,-8983.836,-375000,-375000,-153492.7,-124405.1,0.02,0.00,0.89,-4,0,-2,19,0
'[12:10:00.420 21/01/2026]',-140036.1,-205452,-110480,-9041.459,-375000,-375000,-153514.1,-124410,0.02,0.00,0.89,-4,0,-2,19,0
'[12:10:00.424 21/01/2026]',-139959.3,-205587.6,-110550.9,-9056.792,-375000,-375000,-153487.9,-124365.4,0.02,0.00,0.89,-4,0,-2,19,0
'[12:10:00.428 21/01/2026]',-139999.3,-205439.4,-110520.7,-8981.154,-375000,-375000,-153463.2,-124347.5,0.02,0.00,0.89,-4,0,-2,19,0
'[12:10:00.432 21/01/2026]',-140099.1,-205285.2,-110452.9,-8967.475,-375000,-375000,-153492.8,-124395.1,0.03,0.00,0.88,-4,0,-2,19,0
'[12:10:00.436 21/01/2026]',-140065.6,-205399.7,-110469.4,-9029.166,-375000,-375000,-153515.8,-124413.4,0.03,0.00,0.88,-4,0,-2,19,0
'[12:10:00.440 21/01/2026]',-139975.7,-205555.7,-110532.5,-9043.918,-375000,-375000,-153485.7,-124358.9,0.03,0.00,0.88,-4,0,-2,19,0
'[12:10:00.444 21/01/2026]',-139983.3,-205444.8,-110493.9,-8976.818,-375000,-375000,-153458.4,-124342.1,0.03,0.00,0.88,-4,0,-2,19,0
'[12:10:00.448 21/01/2026]',-140075.5,-205277.6,-110444.6,-8946.375,-375000,-375000,-153472.8,-124379.7,0.03,0.00,0.88,-4,0,-2,19,0
'[12:10:00.452 21/01/2026]',-140072.2,-205348,-110456,-8996.801,-375000,-375000,-153490,-124394,0.03,0.00,0.88,-4,0,-2,19,0
'[12:10:00.456 21/01/2026]',-139971.1,-205531.1,-110523.7,-9034.262,-375000,-375000,-153471.5,-124354.5,0.03,0.00,0.88,-4,0,-2,19,0
'[12:10:00.460 21/01/2026]',-139940,-205476.2,-110521.3,-8975.388,-375000,-375000,-153442.1,-124319,0.03,0.00,0.88,-4,0,-2,19,0
'[12:10:00.464 21/01/2026]',-140058.9,-205292,-110446.3,-8936.183,-375000,-375000,-153464.5,-124361.8,0.03,0.00,0.88,-4,0,-2,19,0
'[12:10:00.468 21/01/2026]',-140089.9,-205325.7,-110450.4,-8998.32,-375000,-375000,-153499.2,-124409,0.03,0.00,0.88,-4,0,-2,19,0
'[12:10:00.472 21/01/2026]',-139988.5,-205521.9,-110516.5,-9049.64,-375000,-375000,-153496.1,-124380.4,0.03,0.00,0.88,-4,0,-2,19,0
'[12:10:00.476 21/01/2026]',-139958.3,-205519.2,-110547.9,-9014.771,-375000,-375000,-153463.4,-124347.6,0.03,0.00,0.88,-4,0,-2,19,0
'[12:10:00.480 21/01/2026]',-140046.1,-205309.1,-110472,-8939.401,-375000,-375000,-153457.3,-124356.6,0.03,0.00,0.88,-4,0,-2,19,0
'[12:10:00.484 21/01/2026]',-140090.8,-205283.5,-110439,-8976.326,-375000,-375000,-153496.3,-124396.9,0.03,0.00,0.88,-4,0,-2,19,0
'[12:10:00.488 21/01/2026]',-140005.4,-205483.9,-110505.5,-9056.301,-375000,-375000,-153515.8,-124394.8,0.03,0.00,0.88,-4,0,-2,19,0
'[12:10:00.492 21/01/2026]',-139962.6,-205540.9,-110555.5,-9026.617,-375000,-375000,-153466.8,-124337.5,0.03,0.00,0.88,-4,0,-2,19,0
'[12:10:00.496 21/01/2026]',-140043,-205348.9,-110476,-8944.006,-375000,-375000,-153448,-124344.7,0.03,0.00,0.88,-4,0,-2,19,0
'[12:10:00.500 21/01/2026]',-140112.8,-205282.9,-110433.2,-8966.402,-375000,-375000,-153486.6,-124395.5,0.03,0.00,0.88,-4,0,-2,19,0
'[12:10:00.504 21/01/2026]',-140045.6,-205463.8,-110498,-9050.579,-375000,-375000,-153508.7,-124400.4,0.03,0.02,0.88,-4,0,-2,19,0
'[12:10:00.508 21/01/2026]',-139961.8,-205560.8,-110554.2,-9045.393,-375000,-375000,-153474.8,-124352.2,0.03,0.02,0.88,-4,0,-2,19,0
'[12:10:00.512 21/01/2026]',-140010.1,-205383.1,-110488.7,-8964.569,-375000,-375000,-153456.1,-124355.3,0.03,0.02,0.88,-4,0,-2,19,0
'[12:10:00.516 21/01/2026]',-140079.4,-205268.7,-110429.1,-8971.722,-375000,-375000,-153491.8,-124411.9,0.03,0.02,0.88,-4,0,-2,19,0
'[12:10:00.520 21/01/2026]',-140043,-205430.9,-110465.8,-9045.885,-375000,-375000,-153514.6,-124411.2,0.03,0.02,0.88,-4,0,-2,19,0
'[12:10:00.524 21/01/2026]',-139943,-205567.8,-110533.8,-9049.372,-375000,-375000,-153472.4,-124353.1,0.03,0.02,0.88,-4,0,-2,19,0
'[12:10:00.528 21/01/2026]',-139974.3,-205412.1,-110503.8,-8970.022,-375000,-375000,-153440.4,-124326.5,0.03,0.02,0.88,-4,0,-2,19,0
'[12:10:00.532 21/01/2026]',-140101.3,-205265.3,-110436.1,-8951.739,-375000,-375000,-153469.6,-124375.8,0.03,0.02,0.88,-4,0,-2,19,0
'[12:10:00.536 21/01/2026]',-140083.6,-205387.4,-110457.8,-9014.682,-375000,-375000,-153496.6,-124397.2,0.03,0.02,0.88,-4,0,-2,19,0
'[12:10:00.540 21/01/2026]',-139976.9,-205545.3,-110518,-9048.701,-375000,-375000,-153469.3,-124354.5,0.03,0.00,0.88,-4,0,-2,21,0
'[12:10:00.544 21/01/2026]',-139979.2,-205437.4,-110492,-8977.354,-375000,-375000,-153439.9,-124328.8,0.03,0.00,0.88,-4,0,-2,21,0
'[12:10:00.548 21/01/2026]',-140083.3,-205268,-110442.6,-8948.252,-375000,-375000,-153470.3,-124381.6,0.03,0.00,0.88,-4,0,-2,21,0
'[12:10:00.552 21/01/2026]',-140064.3,-205346.6,-110445,-9000.153,-375000,-375000,-153494.2,-124399.6,0.03,0.00,0.88,-4,0,-2,21,0
'[12:10:00.556 21/01/2026]',-139959.3,-205536.3,-110511,-9043.604,-375000,-375000,-153475.3,-124356.1,0.03,0.00,0.88,-4,0,-2,21,0
'[12:10:00.560 21/01/2026]',-139954.4,-205474.3,-110511.2,-8986.295,-375000,-375000,-153443,-124325.1,0.03,0.00,0.88,-4,0,-2,21,0
'[12:10:00.564 21/01/2026]',-140060,-205274.4,-110425.8,-8924.246,-375000,-375000,-153458,-124361.6,0.03,0.00,0.88,-4,0,-2,21,0
'[12:10:00.568 21/01/2026]',-140091.7,-205300.5,-110420.4,-8977.891,-375000,-375000,-153488.8,-124405.1,0.03,0.00,0.88,-4,0,-2,21,0
'[12:10:00.572 21/01/2026]',-139982.4,-205476.2,-110503.8,-9033.993,-375000,-375000,-153480.4,-124370.1,0.03,0.00,0.88,-4,0,-2,21,0
'[12:10:00.576 21/01/2026]',-139940.4,-205461.6,-110526.3,-8993.761,-375000,-375000,-153453.9,-124333.2,0.03,0.00,0.88,-4,0,-2,21,0
'[12:10:00.580 21/01/2026]',-140041.3,-205260.9,-110452.1,-8930.371,-375000,-375000,-153461.3,-124362,0.03,0.00,0.88,-4,0,-2,21,0
'[12:10:00.584 21/01/2026]',-140083.3,-205234.6,-110427.4,-8968.414,-375000,-375000,-153487.9,-124395.7,0.03,0.00,0.88,-4,0,-2,21,0
'[12:10:00.588 21/01/2026]',-139993.5,-205416.4,-110482.1,-9029.031,-375000,-375000,-153480.5,-124375.4,0.03,0.00,0.88,-4,0,-2,21,0
'[12:10:00.592 21/01/2026]',-139936.2,-205452.4,-110520.6,-9004.132,-375000,-375000,-153449.3,-124335.6,0.03,0.00,0.88,-4,0,-2,21,0
'[12:10:00.596 21/01/2026]',-140018.7,-205270.9,-110458.6,-8931.667,-375000,-375000,-153445.3,-124343.7,0.03,0.00,0.88,-4,0,-2,21,0
'[12:10:00.600 21/01/2026]',-140065.2,-205207,-110424.2,-8939.848,-375000,-375000,-153469,-124382.6,0.03,0.00,0.88,-4,0,-2,21,0
'[12:10:00.604 21/01/2026]',-140029.5,-205393.2,-110489.7,-9027.422,-375000,-375000,-153500.5,-124398,0.03,0.00,0.88,-4,0,-2,21,0
'[12:10:00.608 21/01/2026]',-139959.3,-205463.1,-110524.4,-9022.505,-375000,-375000,-153464.3,-124338.8,0.03,0.00,0.88,-4,0,-2,21,0
'[12:10:00.612 21/01/2026]',-140016.2,-205285.6,-110468.2,-8939.133,-375000,-375000,-153427.8,-124317.5,0.02,0.00,0.88,-4,0,-2,21,0
'[12:10:00.616 21/01/2026]',-140097,-205210,-110424.6,-8938.954,-375000,-375000,-153459.8,-124366.9,0.02,0.00,0.88,-4,0,-2,21,0
'[12:10:00.620 21/01/2026]',-140043.1,-205367.8,-110468.4,-9020.314,-375000,-375000,-153486.8,-124384.8,0.02,0.00,0.88,-4,0,-2,21,0
'[12:10:00.624 21/01/2026]',-139942.3,-205467.8,-110521.1,-9024.472,-375000,-375000,-153449.6,-124329.7,0.02,0.00,0.88,-4,0,-2,21,0
'[12:10:00.628 21/01/2026]',-139996.2,-205332.9,-110471.4,-8933.857,-375000,-375000,-153425.3,-124322,0.02,0.00,0.88,-4,0,-2,21,0
'[12:10:00.632 21/01/2026]',-140082.9,-205215.1,-110412.7,-8912.132,-375000,-375000,-153454,-124375.7,0.02,0.00,0.88,-4,0,-2,21,0
'[12:10:00.636 21/01/2026]',-140039.3,-205319.9,-110440.8,-8985.267,-375000,-375000,-153472.3,-124379.4,0.02,0.00,0.88,-4,0,-2,21,0
'[12:10:00.640 21/01/2026]',-139934.3,-205454,-110500,-9022.595,-375000,-375000,-153439.6,-124324.4,0.02,0.00,0.88,-4,0,-2,21,0
'[12:10:00.644 21/01/2026]',-139965.8,-205366.1,-110497,-8959.607,-375000,-375000,-153427.6,-124316.2,0.02,0.00,0.88,-4,0,-2,21,0
'[12:10:00.648 21/01/2026]',-140080.9,-205226.6,-110429.5,-8924.426,-375000,-375000,-153457.3,-124367.4,0.03,0.00,0.88,-4,0,-2,21,0
'[12:10:00.652 21/01/2026]',-140074.8,-205309.2,-110435.2,-8990.452,-375000,-375000,-153479.1,-124387.5,0.03,0.00,0.88,-4,0,-2,21,0
'[12:10:00.656 21/01/2026]',-139970.1,-205462.5,-110498.8,-9031.312,-375000,-375000,-153447.3,-124337,0.03,0.00,0.88,-4,0,-2,21,0
'[12:10:00.660 21/01/2026]',-139962.5,-205399.5,-110505.1,-8972.214,-375000,-375000,-153424.4,-124309.9,0.03,0.00,0.88,-4,0,-2,21,0
'[12:10:00.664 21/01/2026]',-140067.1,-205231.4,-110450.6,-8929.074,-375000,-375000,-153454.4,-124359.8,0.03,0.00,0.88,-4,0,-2,21,0
'[12:10:00.668 21/01/2026]',-140072.4,-205278.8,-110435.7,-8976.862,-375000,-375000,-153464.9,-124375.7,0.03,0.00,0.88,-4,0,-2,21,0
'[12:10:00.672 21/01/2026]',-139957.2,-205479.4,-110511.3,-9040.163,-375000,-375000,-153469.3,-124361.1,0.03,0.00,0.88,-4,0,-2,21,0
'[12:10:00.676 21/01/2026]',-139928.4,-205442.2,-110526.2,-8996.085,-375000,-375000,-153435.2,-124322.7,0.03,0.00,0.88,-4,0,-2,21,0
'[12:10:00.680 21/01/2026]',-140051.6,-205276.3,-110448.1,-8920.491,-375000,-375000,-153429.8,-124323.1,0.03,0.00,0.88,-4,0,-2,21,0
'[12:10:00.684 21/01/2026]',-140097.3,-205286.1,-110423.4,-8949.683,-375000,-375000,-153462.9,-124366.8,0.02,0.00,0.88,-4,0,-2,21,0
'[12:10:00.688 21/01/2026]',-140010.7,-205451.5,-110496.2,-9025.366,-375000,-375000,-153474.9,-124368.5,0.02,0.00,0.88,-4,0,-2,21,0
'[12:10:00.692 21/01/2026]',-139951.8,-205474.3,-110526,-8999.125,-375000,-375000,-153428.4,-124312.8,0.02,0.00,0.88,-4,0,-2,21,0
'[12:10:00.696 21/01/2026]',-140016.3,-205300.5,-110458.3,-8923.531,-375000,-375000,-153417.7,-124319,0.02,0.00,0.88,-4,0,-2,21,0
'[12:10:00.700 21/01/2026]',-140081.5,-205264.5,-110435.2,-8945.704,-375000,-375000,-153458.3,-124364.3,0.02,0.00,0.88,-4,0,-2,21,0
'[12:10:00.704 21/01/2026]',-140024.8,-205426.7,-110488.9,-9019.733,-375000,-375000,-153476.9,-124368.3,0.02,0.00,0.88,-4,0,-2,21,0
'[12:10:00.708 21/01/2026]',-139936.4,-205486.1,-110535.5,-9013.296,-375000,-375000,-153438.5,-124313.6,0.02,0.00,0.88,-4,0,-2,21,0
'[12:10:00.712 21/01/2026]',-139985.3,-205324,-110489.4,-8932.65,-375000,-375000,-153434.3,-124320.2,0.02,0.00,0.88,-4,0,-2,21,0
'[12:10:00.716 21/01/2026]',-140086.1,-205250.1,-110442.8,-8934.707,-375000,-375000,-153462.3,-124376.2,0.02,0.00,0.88,-4,0,-2,21,0
'[12:10:00.720 21/01/2026]',-140051.9,-205401.2,-110471.3,-9007.798,-375000,-375000,-153472.1,-124377.4,0.03,0.00,0.88,-4,0,-2,21,0
'[12:10:00.724 21/01/2026]',-139967.2,-205491.5,-110514.9,-9020.538,-375000,-375000,-153446.9,-124330.8,0.03,0.00,0.88,-4,0,-2,21,0
'[12:10:00.728 21/01/2026]',-140006.5,-205363.2,-110494.1,-8945.749,-375000,-375000,-153431.1,-124318.9,0.03,0.00,0.88,-4,0,-2,21,0
'[12:10:00.732 21/01/2026]',-140089.9,-205251.5,-110457.9,-8929.119,-375000,-375000,-153460.9,-124363.5,0.03,0.00,0.88,-4,0,-2,21,0
'[12:10:00.736 21/01/2026]',-140053.5,-205364.1,-110474.2,-8998.097,-375000,-375000,-153487.1,-124387,0.03,0.00,0.88,-4,0,-2,21,0
'[12:10:00.740 21/01/2026]',-139948.6,-205488.1,-110529.4,-9023.31,-375000,-375000,-153454.2,-124335.2,0.03,0.00,0.88,-4,0,-2,21,0
'[12:10:00.744 21/01/2026]',-139935.8,-205375.9,-110514.6,-8946.24,-375000,-375000,-153419.7,-124301.7,0.03,0.00,0.88,-4,0,-2,21,0
'[12:10:00.748 21/01/2026]',-140064,-205232.7,-110435.5,-8912.892,-375000,-375000,-153445.1,-124350.8,0.03,0.00,0.88,-4,0,-2,21,0
'[12:10:00.752 21/01/2026]',-140058.6,-205315,-110464,-8983.031,-375000,-375000,-153476.9,-124388.5,0.03,0.00,0.88,-4,0,-2,21,0
'[12:10:00.756 21/01/2026]',-139951.3,-205474.4,-110545,-9028.808,-375000,-375000,-153461.8,-124350.3,0.02,0.02,0.88,-4,0,-2,21,0
'[12:10:00.760 21/01/2026]',-139979.8,-205416.5,-110544.4,-8974.717,-375000,-375000,-153444.1,-124334.7,0.02,0.02,0.88,-4,0,-2,21,0
'[12:10:00.764 21/01/2026]',-140077.1,-205249.7,-110468.6,-8925.007,-375000,-375000,-153456.8,-124370.3,0.02,0.02,0.88,-4,0,-2,21,0
'[12:10:00.768 21/01/2026]',-140080.3,-205288.8,-110457.2,-8972.839,-375000,-375000,-153473.9,-124379.4,0.02,0.02,0.88,-4,0,-2,21,0
'[12:10:00.772 21/01/2026]',-139969.2,-205457.5,-110520,-9028.048,-375000,-375000,-153450.6,-124326.8,0.02,0.02,0.88,-4,0,-2,21,0
'[12:10:00.776 21/01/2026]',-139941.3,-205449.2,-110558.5,-8993.626,-375000,-375000,-153429.6,-124301.6,0.02,0.02,0.88,-4,0,-2,21,0
'[12:10:00.780 21/01/2026]',-140033,-205274.9,-110504.4,-8936.495,-375000,-375000,-153432.9,-124328.2,0.02,0.02,0.88,-4,0,-2,21,0
'[12:10:00.784 21/01/2026]',-140060.8,-205271.8,-110472.3,-8966.805,-375000,-375000,-153454.2,-124357.8,0.02,0.02,0.88,-4,0,-2,21,0
'[12:10:00.788 21/01/2026]',-139961.6,-205449,-110532,-9021.834,-375000,-375000,-153457.6,-124350.5,0.02,0.02,0.88,-4,0,-2,21,0
'[12:10:00.792 21/01/2026]',-139911.4,-205482,-110574.9,-9002.656,-375000,-375000,-153428.6,-124314,0.03,0.00,0.89,-4,0,-2,21,0
'[12:10:00.796 21/01/2026]',-140009.3,-205308.1,-110508.9,-8941.547,-375000,-375000,-153444.4,-124341.8,0.03,0.00,0.89,-4,0,-2,21,0
'[12:10:00.800 21/01/2026]',-140080.3,-205251.6,-110453.5,-8950.532,-375000,-375000,-153465.2,-124384.8,0.03,0.00,0.89,-4,0,-2,21,0
'[12:10:00.804 21/01/2026]',-140009.5,-205422.9,-110517.1,-9008.155,-375000,-375000,-153464.9,-124373.4,0.03,0.00,0.89,-4,0,-2,21,0
'[12:10:00.808 21/01/2026]',-139935.1,-205497.5,-110564.3,-8997.337,-375000,-375000,-153435.1,-124323.9,0.03,0.00,0.89,-4,0,-2,21,0
'[12:10:00.812 21/01/2026]',-140003.8,-205324.5,-110519.8,-8920.626,-375000,-375000,-153433.9,-124331.8,0.03,0.00,0.89,-4,0,-2,21,0
'[12:10:00.816 21/01/2026]',-140081.2,-205232.2,-110464.8,-8925.543,-375000,-375000,-153456.6,-124368.9,0.03,0.00,0.89,-4,0,-2,21,0
'[12:10:00.820 21/01/2026]',-140013.5,-205396.2,-110501.3,-8999.394,-375000,-375000,-153457.2,-124359.9,0.03,0.00,0.89,-4,0,-2,21,0
'[12:10:00.824 21/01/2026]',-139925.8,-205513.2,-110557.7,-9012.983,-375000,-375000,-153430,-124313.8,0.03,0.00,0.89,-4,0,-2,21,0
'[12:10:00.828 21/01/2026]',-139984.2,-205374.7,-110530.6,-8941.189,-375000,-375000,-153419.8,-124317.1,0.02,0.00,0.88,-4,0,-2,21,0
'[12:10:00.832 21/01/2026]',-140089.3,-205250.8,-110470.5,-8925.274,-375000,-375000,-153454.7,-124369.3,0.02,0.00,0.88,-4,0,-2,21,0
'[12:10:00.836 21/01/2026]',-140059,-205386.1,-110507.9,-9006.367,-375000,-375000,-153487.5,-124395.3,0.02,0.00,0.88,-4,0,-2,21,0
'[12:10:00.840 21/01/2026]',-139960.4,-205537.3,-110572.5,-9025.769,-375000,-375000,-153453.3,-124338.4,0.02,0.00,0.88,-4,0,-2,21,0
'[12:10:00.844 21/01/2026]',-139963.7,-205418.3,-110525.6,-8944.542,-375000,-375000,-153405.2,-124293.4,0.02,0.00,0.88,-4,0,-2,21,0
'[12:10:00.848 21/01/2026]',-140050.6,-205250.3,-110453.2,-8912.624,-375000,-375000,-153435,-124350.5,0.02,0.00,0.88,-4,0,-2,21,0
'[12:10:00.852 21/01/2026]',-140050.8,-205347.5,-110469.3,-8974.717,-375000,-375000,-153463.1,-124373.5,0.02,0.00,0.88,-4,0,-2,21,0
'[12:10:00.856 21/01/2026]',-139971.6,-205537.4,-110550,-9017.141,-375000,-375000,-153443.5,-124326.8,0.02,0.00,0.88,-4,0,-2,21,0
'[12:10:00.860 21/01/2026]',-139951.5,-205459.2,-110541.6,-8951.829,-375000,-375000,-153415.2,-124301.9,0.02,0.00,0.88,-4,0,-2,21,0
'[12:10:00.864 21/01/2026]',-140044,-205263.7,-110464.1,-8915.977,-375000,-375000,-153446.6,-124358.6,0.03,0.00,0.88,-4,0,-2,21,0
'[12:10:00.868 21/01/2026]',-140075,-205325.2,-110475.9,-8977.399,-375000,-375000,-153475.8,-124384.1,0.03,0.00,0.88,-4,0,-2,21,0
'[12:10:00.872 21/01/2026]',-139974.5,-205524.2,-110535,-9021.7,-375000,-375000,-153451.9,-124342.3,0.03,0.00,0.88,-4,0,-2,21,0
'[12:10:00.876 21/01/2026]',-139946.6,-205500.2,-110540.7,-8973.957,-375000,-375000,-153426.6,-124315.8,0.03,0.00,0.88,-4,0,-2,21,0
'[12:10:00.880 21/01/2026]',-140036.4,-205296.1,-110474.6,-8916.87,-375000,-375000,-153431.4,-124339.7,0.03,0.00,0.88,-4,0,-2,21,0
'[12:10:00.884 21/01/2026]',-140060.5,-205278.7,-110456.9,-8944.05,-375000,-375000,-153459.5,-124363.9,0.03,0.00,0.88,-4,0,-2,21,0
'[12:10:00.888 21/01/2026]',-139992,-205468.7,-110512.4,-9012.536,-375000,-375000,-153470.5,-124358,0.03,0.00,0.88,-4,0,-2,21,0
'[12:10:00.892 21/01/2026]',-139950,-205510.7,-110549.8,-8988.307,-375000,-375000,-153422.5,-124306.9,0.03,0.00,0.88,-4,0,-2,21,0
'[12:10:00.896 21/01/2026]',-140026.6,-205322.2,-110486.3,-8922.86,-375000,-375000,-153428.8,-124333.7,0.03,0.00,0.88,-4,0,-2,21,0
'[12:10:00.900 21/01/2026]',-140082.5,-205281.1,-110448.8,-8956.21,-375000,-375000,-153477.2,-124393.7,0.03,0.00,0.88,-4,0,-2,21,0
'[12:10:00.904 21/01/2026]',-140016.1,-205471.8,-110508.7,-9017.99,-375000,-375000,-153479.4,-124380,0.03,0.00,0.88,-4,0,-2,21,0
'[12:10:00.908 21/01/2026]',-139931.2,-205544.4,-110565.8,-9002.165,-375000,-375000,-153436,-124322.6,0.03,0.00,0.88,-4,0,-2,21,0
'[12:10:00.912 21/01/2026]',-139987.7,-205351.3,-110504.2,-8925.453,-375000,-375000,-153425.5,-124325.4,0.03,0.00,0.88,-4,0,-2,21,0
'[12:10:00.916 21/01/2026]',-140082.1,-205255.1,-110448.8,-8937.837,-375000,-375000,-153465.2,-124376.4,0.03,0.00,0.88,-4,0,-2,21,0
'[12:10:00.920 21/01/2026]',-140036.1,-205425,-110488.5,-9016.336,-375000,-375000,-153489.2,-124384.5,0.03,0.00,0.88,-4,0,-2,21,0
'[12:10:00.924 21/01/2026]',-139950.6,-205540.9,-110553.6,-9020.046,-375000,-375000,-153450.9,-124337.5,0.03,0.00,0.88,-4,0,-2,21,0
'[12:10:00.928 21/01/2026]',-140000.2,-205374.2,-110516.7,-8932.65,-375000,-375000,-153425.8,-124319.1,0.03,0.00,0.88,-4,0,-2,21,0
'[12:10:00.932 21/01/2026]',-140094.1,-205241.4,-110461.7,-8932.472,-375000,-375000,-153475.4,-124390.5,0.03,0.00,0.88,-4,0,-2,21,0
'[12:10:00.936 21/01/2026]',-140051.3,-205380.5,-110484.9,-9013.608,-375000,-375000,-153503.5,-124408.7,0.03,0.00,0.88,-4,0,-2,21,0
'[12:10:00.940 21/01/2026]',-139950,-205516.5,-110558.8,-9025.053,-375000,-375000,-153462.5,-124339,0.03,0.00,0.88,-4,0,-2,21,0
'[12:10:00.944 21/01/2026]',-139965.5,-205397.7,-110536.8,-8944.14,-375000,-375000,-153430.1,-124314.2,0.03,0.00,0.88,-4,0,-2,21,0
'[12:10:00.948 21/01/2026]',-140065.4,-205236.4,-110439.3,-8907.572,-375000,-375000,-153449.2,-124361,0.03,0.00,0.88,-4,0,-2,21,0
'[12:10:00.952 21/01/2026]',-140066.8,-205329,-110463.5,-8977.757,-375000,-375000,-153485.3,-124392.5,0.03,0.00,0.88,-4,0,-2,21,0
'[12:10:00.956 21/01/2026]',-139955.8,-205484.9,-110542.7,-9020.538,-375000,-375000,-153466.9,-124359.2,0.03,0.00,0.88,-4,0,-2,21,0
'[12:10:00.960 21/01/2026]',-139940.6,-205408.2,-110535.4,-8960.501,-375000,-375000,-153434.3,-124337.3,0.03,0.00,0.88,-4,0,-2,21,0
'[12:10:00.964 21/01/2026]',-140036,-205238.5,-110451.9,-8914.367,-375000,-375000,-153447.2,-124375.5,0.03,0.00,0.88,-4,0,-2,21,0
'[12:10:00.968 21/01/2026]',-140046.7,-205285.5,-110443.1,-8958.713,-375000,-375000,-153466.9,-124379.9,0.03,0.00,0.88,-4,0,-2,21,0
'[12:10:00.972 21/01/2026]',-139932.8,-205462.7,-110521.1,-9006.591,-375000,-375000,-153449.2,-124334.2,0.02,0.00,0.88,-4,0,-2,21,0
'[12:10:00.976 21/01/2026]',-139958.8,-205451.5,-110546,-8973.6,-375000,-375000,-153437.2,-124317.9,0.02,0.00,0.88,-4,0,-2,21,0
'[12:10:00.980 21/01/2026]',-140053.2,-205258,-110470.6,-8910.746,-375000,-375000,-153449.3,-124357.8,0.02,0.00,0.88,-4,0,-2,21,0
'[12:10:00.984 21/01/2026]',-140093.8,-205279.9,-110457.3,-8961.172,-375000,-375000,-153486.7,-124406.9,0.02,0.00,0.88,-4,0,-2,21,0
'[12:10:00.988 21/01/2026]',-139994.5,-205475.9,-110523.3,-9023.086,-375000,-375000,-153481.1,-124383.5,0.02,0.00,0.88,-4,0,-2,21,0
'[12:10:00.992 21/01/2026]',-139938.3,-205487.9,-110548.9,-8991.436,-375000,-375000,-153443.6,-124342.3,0.02,0.00,0.88,-4,0,-2,21,0
'[12:10:00.996 21/01/2026]',-140029.8,-205306.1,-110476.7,-8928.583,-375000,-375000,-153453.1,-124375.5,0.02,0.00,0.88,-4,0,-2,21,0
'[12:10:01.000 21/01/2026]',-140081.9,-205265.7,-110429.5,-8946.822,-375000,-375000,-153480.6,-124404.4,0.02,0.00,0.88,-4,0,-2,21,0
'[12:10:01.004 21/01/2026]',-139991.5,-205429.8,-110496.6,-9005.786,-375000,-375000,-153471.8,-124376.5,0.02,0.00,0.88,-4,0,-2,21,0
'[12:10:01.008 21/01/2026]',-139918.7,-205485,-110539.6,-8994.565,-375000,-375000,-153434.6,-124322.7,0.02,0.00,0.88,-4,0,-2,21,0
'[12:10:01.012 21/01/2026]',-139988.3,-205317,-110486.3,-8919.643,-375000,-375000,-153433.1,-124336.1,0.02,0.00,0.88,-4,0,-2,21,0
'[12:10:01.016 21/01/2026]',-140056.5,-205226.8,-110433,-8913.473,-375000,-375000,-153458.9,-124379.5,0.02,0.00,0.88,-4,0,-2,21,0
'[12:10:01.020 21/01/2026]',-140016.8,-205382.3,-110477.9,-8985.178,-375000,-375000,-153474.5,-124378.4,0.02,0.00,0.88,-4,0,-2,21,0
'[12:10:01.024 21/01/2026]',-139939.2,-205488.3,-110536.7,-8994.297,-375000,-375000,-153440.3,-124331.2,0.02,0.00,0.88,-4,0,-2,21,0
'[12:10:01.028 21/01/2026]',-139987,-205359.6,-110498.6,-8934.931,-375000,-375000,-153432.2,-124338.4,0.02,0.00,0.88,-4,0,-2,21,0
'[12:10:01.032 21/01/2026]',-140071.3,-205246.3,-110441.9,-8917.586,-375000,-375000,-153452.6,-124376.1,0.02,0.00,0.88,-4,0,-2,21,0
'[12:10:01.036 21/01/2026]',-140034.5,-205375.7,-110484.9,-8988.262,-375000,-375000,-153469.8,-124383.9,0.02,0.00,0.88,-4,0,-2,21,0
'[12:10:01.040 21/01/2026]',-139952.2,-205506.1,-110546.3,-9014.503,-375000,-375000,-153440.1,-124334.8,0.02,0.00,0.88,-4,0,-2,21,0
'[12:10:01.044 21/01/2026]',-139978.6,-205397.4,-110523.2,-8942.575,-375000,-375000,-153430.8,-124331.7,0.02,0.00,0.88,-4,0,-2,21,0
'[12:10:01.048 21/01/2026]',-140073.6,-205257.6,-110451.8,-8912.713,-375000,-375000,-153454.2,-124366.8,0.02,0.00,0.88,-4,0,-2,21,0
'[12:10:01.052 21/01/2026]',-140046.7,-205342.1,-110460.4,-8971.99,-375000,-375000,-153467.6,-124375.3,0.02,0.00,0.88,-4,0,-2,21,0
'[12:10:01.056 21/01/2026]',-139942.8,-205493.6,-110517.8,-9005.606,-375000,-375000,-153453.2,-124341.1,0.02,0.00,0.88,-4,0,-2,21,0
'[12:10:01.060 21/01/2026]',-139921.6,-205410,-110499.1,-8932.606,-375000,-375000,-153398.7,-124291.8,0.02,0.00,0.88,-4,0,-2,21,0
'[12:10:01.064 21/01/2026]',-140041.7,-205254.5,-110436,-8888.573,-375000,-375000,-153422.3,-124335,0.02,0.00,0.88,-4,0,-2,21,0
'[12:10:01.068 21/01/2026]',-140072.9,-205318.6,-110454.8,-8950.979,-375000,-375000,-153464.6,-124378.6,0.02,0.00,0.88,-4,0,-2,21,0
'[12:10:01.072 21/01/2026]',-139968.8,-205488.8,-110519.1,-9011.463,-375000,-375000,-153457.5,-124355.8,0.02,0.00,0.88,-4,0,-2,21,0
'[12:10:01.076 21/01/2026]',-139953.8,-205451.6,-110511.1,-8965.687,-375000,-375000,-153433.3,-124332.6,0.02,0.00,0.88,-4,0,-2,21,0
'[12:10:01.080 21/01/2026]',-140043.7,-205274.5,-110461.6,-8898.632,-375000,-375000,-153433,-124340.3,0.02,0.00,0.88,-4,0,-2,21,0
'[12:10:01.084 21/01/2026]',-140071.6,-205282.6,-110453.7,-8940.206,-375000,-375000,-153456.8,-124371.1,0.02,0.00,0.88,-4,0,-2,21,0
'[12:10:01.088 21/01/2026]',-139987,-205456.3,-110521.1,-9008.021,-375000,-375000,-153455,-124353.2,0.02,0.00,0.88,-4,0,-2,21,0
'[12:10:01.092 21/01/2026]',-139918,-205454.6,-110526.5,-8958.758,-375000,-375000,-153410.7,-124304.7,0.02,0.00,0.88,-4,0,-2,21,0
'[12:10:01.096 21/01/2026]',-140005.6,-205284.9,-110467.9,-8890.719,-375000,-375000,-153425.5,-124339.9,0.02,0.00,0.88,-4,0,-2,21,0
'[12:10:01.100 21/01/2026]',-140066.6,-205260.6,-110446.1,-8926.84,-375000,-375000,-153460.9,-124384.3,0.02,0.00,0.88,-4,0,-2,21,0
'[12:10:01.104 21/01/2026]',-139984.4,-205428.3,-110492.4,-8988.173,-375000,-375000,-153447.8,-124353.9,0.02,0.00,0.88,-4,0,-2,21,0
'[12:10:01.108 21/01/2026]',-139907,-205482.1,-110535.6,-8981.69,-375000,-375000,-153413.8,-124313.8,0.02,0.00,0.88,-4,0,-2,21,0
'[12:10:01.112 21/01/2026]',-140000.2,-205304.1,-110484.1,-8902.744,-375000,-375000,-153418.5,-124336.4,0.02,0.00,0.88,-4,0,-2,21,0
'[12:10:01.116 21/01/2026]',-140065.7,-205239,-110426.4,-8899.659,-375000,-375000,-153440.7,-124363.8,0.02,-0.02,0.88,-4,0,-2,21,0
'[12:10:01.120 21/01/2026]',-140017,-205414.5,-110485.7,-8984.06,-375000,-375000,-153444.5,-124360.4,0.02,-0.02,0.88,-4,0,-2,21,0
'[12:10:01.124 21/01/2026]',-139929.9,-205509.3,-110556.5,-9007.574,-375000,-375000,-153430.1,-124332.7,0.02,-0.02,0.88,-4,0,-2,21,0
'[12:10:01.128 21/01/2026]',-139969.7,-205348.3,-110491.3,-8907.036,-375000,-375000,-153406.4,-124316.4,0.02,-0.02,0.88,-4,0,-2,21,0
'[12:10:01.132 21/01/2026]',-140058.7,-205225.9,-110428.9,-8893.044,-375000,-375000,-153430.2,-124353.5,0.02,-0.02,0.88,-4,0,-2,21,0
'[12:10:01.136 21/01/2026]',-140032.2,-205360.4,-110472.8,-8976.505,-375000,-375000,-153464.5,-124374.4,0.02,-0.02,0.88,-4,0,-2,21,0
'[12:10:01.140 21/01/2026]',-139933,-205494.2,-110545.3,-9007.172,-375000,-375000,-153441.6,-124339.4,0.02,-0.02,0.88,-4,0,-2,21,0
'[12:10:01.144 21/01/2026]',-139953.8,-205382,-110523.7,-8931.131,-375000,-375000,-153419.6,-124328.6,0.02,-0.02,0.88,-4,0,-2,21,0
'[12:10:01.148 21/01/2026]',-140059.7,-205247.6,-110457.1,-8900.375,-375000,-375000,-153450.9,-124382,0.02,-0.02,0.88,-4,0,-2,21,0
'[12:10:01.152 21/01/2026]',-140052.6,-205350.7,-110478.4,-8976.55,-375000,-375000,-153471.2,-124398.5,0.03,0.00,0.88,-4,0,-2,21,0
'[12:10:01.156 21/01/2026]',-139938.2,-205487,-110534.3,-8994.565,-375000,-375000,-153423.3,-124319.6,0.03,0.00,0.88,-4,0,-2,21,0
'[12:10:01.160 21/01/2026]',-139932.8,-205397.9,-110515.6,-8920.536,-375000,-375000,-153394.4,-124289,0.03,0.00,0.88,-4,0,-2,21,0
'[12:10:01.164 21/01/2026]',-140055.4,-205236.5,-110438,-8882.672,-375000,-375000,-153424.2,-124343.6,0.03,0.00,0.88,-4,0,-2,21,0
'[12:10:01.168 21/01/2026]',-140051.1,-205293.5,-110443.9,-8946.777,-375000,-375000,-153453.7,-124375,0.03,0.00,0.88,-4,0,-2,21,0
'[12:10:01.172 21/01/2026]',-139946.4,-205468.8,-110540.6,-9006.635,-375000,-375000,-153441.1,-124340.6,0.03,0.00,0.88,-4,0,-2,21,0
'[12:10:01.176 21/01/2026]',-139926.6,-205427,-110543.5,-8944.899,-375000,-375000,-153395,-124300.2,0.03,0.00,0.88,-4,0,-2,21,0
'[12:10:01.180 21/01/2026]',-140027.1,-205247.5,-110465,-8881.555,-375000,-375000,-153407.6,-124327.2,0.03,0.00,0.88,-4,0,-2,21,0
'[12:10:01.184 21/01/2026]',-140061.1,-205274.4,-110447.7,-8933.679,-375000,-375000,-153454,-124382.1,0.03,0.00,0.88,-4,0,-2,21,0
'[12:10:01.188 21/01/2026]',-139965.2,-205460.9,-110529.3,-9022.996,-375000,-375000,-153466.4,-124378.2,0.03,0.00,0.88,-4,0,-2,21,0
'[12:10:01.192 21/01/2026]',-139922.7,-205462.1,-110561.2,-8979.321,-375000,-375000,-153419.8,-124324.2,0.03,0.00,0.88,-4,0,-2,21,0
'[12:10:01.196 21/01/2026]',-139990.5,-205276.6,-110482.2,-8895.056,-375000,-375000,-153401.3,-124320.3,0.03,0.00,0.88,-4,0,-2,21,0
'[12:10:01.200 21/01/2026]',-140066.6,-205261.3,-110454.8,-8926.884,-375000,-375000,-153440.8,-124373,0.03,0.00,0.88,-4,0,-2,21,0
'[12:10:01.204 21/01/2026]',-139996.7,-205436.1,-110500.6,-8987.457,-375000,-375000,-153442.4,-124352.1,0.03,0.00,0.88,-4,0,-2,21,0
'[12:10:01.208 21/01/2026]',-139923.5,-205474.3,-110529.4,-8960.501,-375000,-375000,-153400.3,-124296.4,0.03,0.00,0.88,-4,0,-2,21,0
'[12:10:01.212 21/01/2026]',-139991.7,-205295.1,-110475.2,-8890.138,-375000,-375000,-153396,-124314,0.03,0.00,0.88,-4,0,-2,21,0
'[12:10:01.216 21/01/2026]',-140060.3,-205227,-110444.7,-8916.424,-375000,-375000,-153441.1,-124370.2,0.03,0.00,0.88,-4,0,-2,21,0
'[12:10:01.220 21/01/2026]',-140004.1,-205389.5,-110497.5,-8989.826,-375000,-375000,-153456.5,-124372.2,0.03,0.00,0.88,-4,0,-2,21,0
'[12:10:01.224 21/01/2026]',-139927.3,-205477.3,-110548,-8984.73,-375000,-375000,-153418.4,-124313.3,0.02,0.00,0.88,-4,0,-2,21,0
'[12:10:01.228 21/01/2026]',-139974.5,-205317,-110489.3,-8904.264,-375000,-375000,-153398.5,-124305.2,0.02,0.00,0.88,-4,0,-2,21,0
'[12:10:01.232 21/01/2026]',-140051.8,-205199.5,-110423.2,-8893.088,-375000,-375000,-153424.2,-124346,0.02,0.00,0.88,-4,0,-2,21,0
'[12:10:01.236 21/01/2026]',-140015.8,-205335,-110461.6,-8963.675,-375000,-375000,-153440.1,-124356.9,0.02,0.00,0.88,-4,0,-2,21,0
'[12:10:01.240 21/01/2026]',-139919.8,-205468.9,-110512.8,-8983.479,-375000,-375000,-153403,-124308,0.02,0.00,0.88,-4,0,-2,21,0
'[12:10:01.244 21/01/2026]',-139954.2,-205349.6,-110483.6,-8912.848,-375000,-375000,-153386.3,-124299.7,0.02,0.00,0.88,-4,0,-2,21,0
'[12:10:01.248 21/01/2026]',-140065.2,-205218.6,-110426.6,-8893.893,-375000,-375000,-153411.5,-124344.9,0.02,0.00,0.88,-4,0,-2,21,0
'[12:10:01.252 21/01/2026]',-140046.1,-205324.9,-110456.7,-8974.448,-375000,-375000,-153454.7,-124370.5,0.02,0.00,0.88,-4,0,-2,21,0
'[12:10:01.256 21/01/2026]',-139935.6,-205474.1,-110524.5,-9006.188,-375000,-375000,-153438.6,-124333.1,0.02,0.00,0.88,-4,0,-2,21,0
'[12:10:01.260 21/01/2026]',-139937.5,-205376.6,-110499.1,-8927.376,-375000,-375000,-153388.3,-124293.6,0.02,0.00,0.88,-4,0,-2,21,0
'[12:10:01.264 21/01/2026]',-140038.8,-205215.6,-110429.3,-8888.707,-375000,-375000,-153404.2,-124335.7,0.02,0.00,0.88,-4,0,-2,21,0
'[12:10:01.268 21/01/2026]',-140038,-205280.3,-110429.4,-8941.592,-375000,-375000,-153442.8,-124367.9,0.02,0.00,0.88,-4,0,-2,21,0
'[12:10:01.272 21/01/2026]',-139940.3,-205456.5,-110515.5,-8998.454,-375000,-375000,-153440.3,-124342.3,0.02,0.00,0.88,-4,0,-2,21,0
'[12:10:01.276 21/01/2026]',-139921.3,-205407.1,-110526.8,-8946.375,-375000,-375000,-153393.8,-124298.1,0.02,0.00,0.88,-4,0,-2,21,0
'[12:10:01.280 21/01/2026]',-140022,-205223.5,-110450.6,-8883.835,-375000,-375000,-153402,-124326.4,0.02,0.00,0.88,-4,0,-2,21,0
'[12:10:01.284 21/01/2026]',-140055.4,-205255.4,-110434.4,-8935.512,-375000,-375000,-153448.3,-124379.4,0.02,0.00,0.88,-4,0,-2,21,0
'[12:10:01.288 21/01/2026]',-139938.6,-205419.2,-110497.4,-8983.345,-375000,-375000,-153430.4,-124339,0.02,0.00,0.88,-4,0,-2,21,0
'[12:10:01.292 21/01/2026]',-139922,-205421.1,-110519.2,-8953.84,-375000,-375000,-153397.1,-124298.3,0.02,0.00,0.88,-4,0,-2,21,0
'[12:10:01.296 21/01/2026]',-140022.4,-205245.7,-110434.1,-8887.679,-375000,-375000,-153410.8,-124331.5,0.02,0.00,0.88,-4,0,-2,21,0
'[12:10:01.300 21/01/2026]',-140052.4,-205212.2,-110407.3,-8913.965,-375000,-375000,-153437.1,-124371.7,0.02,0.00,0.88,-4,0,-2,21,0
'[12:10:01.304 21/01/2026]',-139957.1,-205393,-110475.1,-8958.981,-375000,-375000,-153440.4,-124358.1,0.02,0.00,0.88,-4,0,-2,21,0
'[12:10:01.308 21/01/2026]',-139898.8,-205435.9,-110518.8,-8947.984,-375000,-375000,-153410.4,-124308.2,0.02,0.00,0.88,-4,0,-2,21,0
'[12:10:01.312 21/01/2026]',-139986.8,-205264.7,-110465.5,-8888.216,-375000,-375000,-153407.5,-124323.8,0.02,0.00,0.88,-4,0,-2,21,0
'[12:10:01.316 21/01/2026]',-140054.9,-205191.6,-110405.8,-8896.307,-375000,-375000,-153419.5,-124354,0.02,0.00,0.88,-4,0,-2,21,0
'[12:10:01.320 21/01/2026]',-139993.9,-205367.2,-110463.6,-8975.074,-375000,-375000,-153437.8,-124355,0.02,0.00,0.88,-4,0,-2,21,0
'[12:10:01.324 21/01/2026]',-139911.1,-205457.2,-110522.2,-8977.891,-375000,-375000,-153408.6,-124310.7,0.02,0.00,0.88,-4,0,-2,21,0
'[12:10:01.328 21/01/2026]',-139955.3,-205295,-110478.7,-8895.413,-375000,-375000,-153393.7,-124310.2,0.02,0.00,0.88,-4,0,-2,21,0
'[12:10:01.332 21/01/2026]',-140045.6,-205191.1,-110424.1,-8881.912,-375000,-375000,-153423.9,-124357.7,0.02,0.02,0.88,-4,0,-2,21,0
'[12:10:01.336 21/01/2026]',-140001.5,-205327.1,-110462.7,-8967.922,-375000,-375000,-153443.6,-124363.4,0.02,0.02,0.88,-4,0,-2,21,0
'[12:10:01.340 21/01/2026]',-139914.5,-205438.8,-110518.6,-8980.438,-375000,-375000,-153400.2,-124301,0.02,0.02,0.88,-4,0,-2,21,0
'[12:10:01.344 21/01/2026]',-139937.7,-205314,-110478,-8890.004,-375000,-375000,-153370.1,-124280,0.02,0.02,0.88,-4,0,-2,21,0
'[12:10:01.348 21/01/2026]',-140040.2,-205189.9,-110421.7,-8870.691,-375000,-375000,-153411.9,-124342,0.02,0.02,0.88,-4,0,-2,21,0
'[12:10:01.352 21/01/2026]',-140026,-205296.6,-110449.4,-8944.989,-375000,-375000,-153447.8,-124374.5,0.02,0.02,0.88,-4,0,-2,21,0
'[12:10:01.356 21/01/2026]',-139906.3,-205436,-110515.6,-8987.055,-375000,-375000,-153418,-124326.1,0.02,0.02,0.88,-4,0,-2,21,0
'[12:10:01.360 21/01/2026]',-139931.2,-205343.2,-110498.6,-8913.16,-375000,-375000,-153380.8,-124295.5,0.02,0.02,0.88,-4,0,-2,21,0
'[12:10:01.364 21/01/2026]',-140035.3,-205199.3,-110423,-8868.948,-375000,-375000,-153395.3,-124325.9,0.02,0.02,0.88,-4,0,-2,21,0
'[12:10:01.368 21/01/2026]',-140033.8,-205268.8,-110431.6,-8936.048,-375000,-375000,-153434.6,-124365.7,0.03,0.00,0.88,-4,0,-2,21,0
'[12:10:01.372 21/01/2026]',-139932.4,-205430.5,-110503.3,-8990.854,-375000,-375000,-153430,-124347.2,0.03,0.00,0.88,-4,0,-2,21,0
'[12:10:01.376 21/01/2026]',-139912.8,-205378.2,-110503.4,-8934.26,-375000,-375000,-153384.5,-124296.1,0.03,0.00,0.88,-4,0,-2,21,0
'[12:10:01.380 21/01/2026]',-140013.7,-205199,-110454.4,-8881.063,-375000,-375000,-153396.9,-124322,0.03,0.00,0.88,-4,0,-2,21,0
'[12:10:01.384 21/01/2026]',-140027,-205227.9,-110435.9,-8926.393,-375000,-375000,-153424,-124356.4,0.03,0.00,0.88,-4,0,-2,21,0
'[12:10:01.388 21/01/2026]',-139926.1,-205412.3,-110508.4,-8981.869,-375000,-375000,-153405.9,-124323,0.03,0.00,0.88,-4,0,-2,21,0
'[12:10:01.392 21/01/2026]',-139908.5,-205402.8,-110529.9,-8947.045,-375000,-375000,-153379.2,-124292,0.03,0.00,0.88,-4,0,-2,21,0
'[12:10:01.396 21/01/2026]',-139993.7,-205225.3,-110467.1,-8884.907,-375000,-375000,-153402.6,-124325.7,0.03,0.00,0.88,-4,0,-2,21,0
'[12:10:01.400 21/01/2026]',-140036,-205212.5,-110438.9,-8919.105,-375000,-375000,-153433.9,-124363.4,0.03,0.00,0.88,-4,0,-2,21,0
'[12:10:01.404 21/01/2026]',-139961.4,-205360.7,-110485.7,-8970.067,-375000,-375000,-153405.6,-124318.4,0.02,0.00,0.88,-4,0,-2,21,0
'[12:10:01.408 21/01/2026]',-139895.6,-205393.7,-110513.8,-8945.123,-375000,-375000,-153364.8,-124266.8,0.02,0.00,0.88,-4,0,-2,21,0
'[12:10:01.412 21/01/2026]',-139960.9,-205231.6,-110441.5,-8862.243,-375000,-375000,-153358.1,-124277,0.02,0.00,0.88,-4,0,-2,21,0
'[12:10:01.416 21/01/2026]',-140051.4,-205193.5,-110400.4,-8893.714,-375000,-375000,-153413,-124343.1,0.02,0.00,0.88,-4,0,-2,21,0
'[12:10:01.420 21/01/2026]',-139998.2,-205348.6,-110467.4,-8986.295,-375000,-375000,-153435.1,-124355.1,0.02,0.00,0.88,-4,0,-2,21,0
'[12:10:01.424 21/01/2026]',-139904.9,-205403.1,-110526.6,-8989.021,-375000,-375000,-153410.5,-124320.8,0.02,0.00,0.88,-4,0,-2,21,0
'[12:10:01.428 21/01/2026]',-139957.5,-205247.6,-110484.4,-8902.699,-375000,-375000,-153407.8,-124331.8,0.02,0.00,0.88,-4,0,-2,21,0
'[12:10:01.432 21/01/2026]',-140047.4,-205182.5,-110430.4,-8893.58,-375000,-375000,-153423.8,-124360.8,0.02,0.00,0.88,-4,0,-2,21,0
'[12:10:01.436 21/01/2026]',-140012.2,-205339.4,-110469.7,-8974.807,-375000,-375000,-153435.5,-124358.1,0.02,0.00,0.88,-4,0,-2,21,0
'[12:10:01.440 21/01/2026]',-139908.2,-205448.5,-110532.6,-8993.895,-375000,-375000,-153413.3,-124318.4,0.02,0.00,0.88,-4,0,-2,21,0
'[12:10:01.444 21/01/2026]',-139961.8,-205329.9,-110500.8,-8918.077,-375000,-375000,-153404.6,-124317.2,0.02,0.00,0.88,-4,0,-2,21,0
'[12:10:01.448 21/01/2026]',-140064,-205208.9,-110433.4,-8887.232,-375000,-375000,-153424.3,-124347.9,0.02,0.00,0.88,-4,0,-2,21,0
'[12:10:01.452 21/01/2026]',-140047.3,-205309.1,-110454.2,-8958.534,-375000,-375000,-153443,-124366.5,0.02,0.00,0.88,-4,0,-2,21,0
'[12:10:01.456 21/01/2026]',-139939.1,-205436.1,-110512.9,-9000.913,-375000,-375000,-153413.7,-124319.2,0.02,0.00,0.88,-4,0,-2,21,0
'[12:10:01.460 21/01/2026]',-139937.3,-205344.9,-110502.7,-8923.665,-375000,-375000,-153384.4,-124294.2,0.02,0.00,0.88,-4,0,-2,21,0
'[12:10:01.464 21/01/2026]',-140030.9,-205188.1,-110425.4,-8865.417,-375000,-375000,-153409.2,-124340.9,0.02,0.00,0.88,-4,0,-2,21,0
'[12:10:01.468 21/01/2026]',-140040.1,-205274.9,-110436.4,-8933.992,-375000,-375000,-153451.3,-124377.3,0.02,0.00,0.88,-4,0,-2,21,0
'[12:10:01.472 21/01/2026]',-139937.9,-205427.1,-110498.3,-8976.773,-375000,-375000,-153421.4,-124328.9,0.02,0.00,0.88,-4,0,-2,21,0
'[12:10:01.476 21/01/2026]',-139899.2,-205371,-110505.4,-8930.237,-375000,-375000,-153373.5,-124280.6,0.03,0.00,0.88,-4,0,-2,21,0
'[12:10:01.480 21/01/2026]',-140019.5,-205215.4,-110447.3,-8877.04,-375000,-375000,-153403,-124326.1,0.03,0.00,0.88,-4,0,-2,21,0
'[12:10:01.484 21/01/2026]',-140054.9,-205233.5,-110429.6,-8914.68,-375000,-375000,-153436.8,-124361.5,0.03,0.00,0.88,-4,0,-2,21,0
'[12:10:01.488 21/01/2026]',-139949.7,-205393.9,-110469,-8965.15,-375000,-375000,-153416.3,-124326.9,0.03,0.00,0.88,-4,0,-2,21,0
'[12:10:01.492 21/01/2026]',-139909.4,-205391.8,-110499.5,-8932.785,-375000,-375000,-153389.6,-124283.3,0.03,0.00,0.88,-4,0,-2,21,0
'[12:10:01.496 21/01/2026]',-140006.1,-205232.8,-110440.9,-8856.432,-375000,-375000,-153375.7,-124291.2,0.03,0.00,0.88,-4,0,-2,21,0
'[12:10:01.500 21/01/2026]',-140050.4,-205216.9,-110406.2,-8881.555,-375000,-375000,-153409.4,-124344.8,0.03,0.00,0.88,-4,0,-2,21,0
'[12:10:01.504 21/01/2026]',-139967.6,-205388.4,-110479,-8974.404,-375000,-375000,-153429.8,-124349.8,0.03,0.00,0.88,-4,0,-2,21,0
'[12:10:01.508 21/01/2026]',-139912.1,-205418.9,-110516.9,-8954.645,-375000,-375000,-153395.3,-124290.2,0.03,0.00,0.88,-4,0,-2,21,0
'[12:10:01.512 21/01/2026]',-139988.4,-205259.1,-110450.4,-8873.955,-375000,-375000,-153389.2,-124304.4,0.02,0.00,0.88,-4,0,-2,21,0
'[12:10:01.516 21/01/2026]',-140049.3,-205199.9,-110403.8,-8880.974,-375000,-375000,-153422.1,-124348.4,0.02,0.00,0.88,-4,0,-2,21,0
'[12:10:01.520 21/01/2026]',-139976.7,-205353.1,-110463.8,-8959.607,-375000,-375000,-153430.9,-124339.2,0.02,0.00,0.88,-4,0,-2,21,0
'[12:10:01.524 21/01/2026]',-139916.2,-205432.1,-110518.5,-8954.734,-375000,-375000,-153390.9,-124286.3,0.02,0.00,0.88,-4,0,-2,21,0
'[12:10:01.528 21/01/2026]',-139992.4,-205288.6,-110483.6,-8882.852,-375000,-375000,-153385.7,-124300.5,0.02,0.00,0.88,-4,0,-2,21,0
'[12:10:01.532 21/01/2026]',-140069.3,-205196.1,-110419.9,-8876.146,-375000,-375000,-153420.5,-124359,0.02,0.00,0.88,-4,0,-2,21,0
'[12:10:01.536 21/01/2026]',-140020,-205328.1,-110460.4,-8955.047,-375000,-375000,-153443.5,-124369,0.02,0.00,0.88,-4,0,-2,21,0
'[12:10:01.540 21/01/2026]',-139926.3,-205433.3,-110507.2,-8966.894,-375000,-375000,-153412.2,-124324.7,0.02,0.00,0.88,-4,0,-2,21,0
'[12:10:01.544 21/01/2026]',-139973.3,-205306.1,-110458.7,-8886.964,-375000,-375000,-153404.7,-124325.6,0.02,0.00,0.88,-4,0,-2,21,0
'[12:10:01.548 21/01/2026]',-140066.9,-205200.2,-110409.5,-8879.812,-375000,-375000,-153428.5,-124365.6,0.03,0.00,0.89,-4,0,-2,21,0
'[12:10:01.552 21/01/2026]',-140027.5,-205303,-110440.1,-8949.235,-375000,-375000,-153429.6,-124358.8,0.03,0.00,0.89,-4,0,-2,21,0
'[12:10:01.556 21/01/2026]',-139929,-205429.1,-110503.2,-8982.138,-375000,-375000,-153403.8,-124311.1,0.03,0.00,0.89,-4,0,-2,21,0
'[12:10:01.560 21/01/2026]',-139941.1,-205342.2,-110504.6,-8926.348,-375000,-375000,-153377.3,-124286.5,0.03,0.00,0.89,-4,0,-2,21,0
'[12:10:01.564 21/01/2026]',-140035,-205189,-110434.9,-8882.404,-375000,-375000,-153408.2,-124332.9,0.03,0.00,0.89,-4,0,-2,21,0
'[12:10:01.568 21/01/2026]',-140041.1,-205266.2,-110444,-8944.095,-375000,-375000,-153443.7,-124366.2,0.03,0.00,0.89,-4,0,-2,21,0
'[12:10:01.572 21/01/2026]',-139937.7,-205421.5,-110510.9,-8979.679,-375000,-375000,-153405.2,-124316.9,0.03,0.00,0.89,-4,0,-2,21,0
'[12:10:01.576 21/01/2026]',-139946.1,-205366.3,-110513.9,-8926.079,-375000,-375000,-153374.5,-124285.6,0.03,0.00,0.89,-4,0,-2,21,0
'[12:10:01.580 21/01/2026]',-140042,-205211.3,-110440.7,-8874.089,-375000,-375000,-153396.3,-124325,0.03,0.00,0.89,-4,0,-2,21,0
'[12:10:01.584 21/01/2026]',-140044.4,-205235.4,-110423.1,-8912.489,-375000,-375000,-153414.9,-124342.3,0.03,0.00,0.88,-4,0,-2,21,0
'[12:10:01.588 21/01/2026]',-139949.9,-205396.8,-110492.6,-8968.279,-375000,-375000,-153407.6,-124311.5,0.03,0.00,0.88,-4,0,-2,21,0
'[12:10:01.592 21/01/2026]',-139922,-205377.8,-110515.7,-8934.841,-375000,-375000,-153380.1,-124281.5,0.03,0.00,0.88,-4,0,-2,21,0
'[12:10:01.596 21/01/2026]',-140006.9,-205203.7,-110428,-8864.076,-375000,-375000,-153386.8,-124304.4,0.03,0.00,0.88,-4,0,-2,21,0
'[12:10:01.600 21/01/2026]',-140049,-205198.5,-110410.6,-8898.185,-375000,-375000,-153423.2,-124344.9,0.03,0.00,0.88,-4,0,-2,21,0
'[12:10:01.604 21/01/2026]',-139965.8,-205376.4,-110478.3,-8964.256,-375000,-375000,-153423.4,-124326.2,0.03,0.00,0.88,-4,0,-2,21,0
'[12:10:01.608 21/01/2026]',-139894.8,-205413.8,-110515,-8936.585,-375000,-375000,-153377.3,-124276.4,0.03,0.00,0.88,-4,0,-2,21,0
'[12:10:01.612 21/01/2026]',-139985.6,-205252.4,-110460.3,-8866.222,-375000,-375000,-153374.2,-124296,0.03,0.00,0.88,-4,0,-2,21,0
'[12:10:01.616 21/01/2026]',-140052.8,-205195.4,-110414.8,-8887.59,-375000,-375000,-153410.7,-124346.6,0.03,0.00,0.88,-4,0,-2,21,0
'[12:10:01.620 21/01/2026]',-139986.7,-205361.8,-110469.8,-8971.677,-375000,-375000,-153425.6,-124344.7,0.03,0.00,0.88,-4,0,-2,21,0
'[12:10:01.624 21/01/2026]',-139906.4,-205429.3,-110529,-8954.868,-375000,-375000,-153384.5,-124282.8,0.03,0.00,0.88,-4,0,-2,21,0
'[12:10:01.628 21/01/2026]',-139945.7,-205258.6,-110469.2,-8853.839,-375000,-375000,-153365.7,-124275.8,0.03,0.00,0.88,-4,0,-2,21,0
'[12:10:01.632 21/01/2026]',-140040.1,-205188.2,-110436.4,-8877.889,-375000,-375000,-153425.1,-124352.2,0.03,0.00,0.88,-4,0,-2,21,0
'[12:10:01.636 21/01/2026]',-140010.5,-205329.9,-110475.4,-8960.412,-375000,-375000,-153441.5,-124358.7,0.03,0.00,0.88,-4,0,-2,21,0
'[12:10:01.640 21/01/2026]',-139921.4,-205442.5,-110526.6,-8972.124,-375000,-375000,-153402.8,-124303.1,0.03,0.00,0.88,-4,0,-2,21,0
'[12:10:01.644 21/01/2026]',-139958.6,-205303.3,-110487.7,-8890.183,-375000,-375000,-153378.9,-124293.8,0.03,0.00,0.88,-4,0,-2,21,0
'[12:10:01.648 21/01/2026]',-140054.3,-205186.9,-110424.2,-8877.174,-375000,-375000,-153410.3,-124340.1,0.03,0.00,0.88,-4,0,-2,21,0
'[12:10:01.652 21/01/2026]',-140029.8,-205315.4,-110461.4,-8956.567,-375000,-375000,-153440.7,-124369.7,0.03,0.00,0.88,-4,0,-2,21,0
'[12:10:01.656 21/01/2026]',-139927.9,-205452,-110528.7,-8988.44,-375000,-375000,-153413.4,-124316.5,0.02,0.00,0.86,-4,0,-2,21,0
'[12:10:01.660 21/01/2026]',-139948.6,-205362.6,-110494.1,-8922.235,-375000,-375000,-153405,-124306.9,0.02,0.00,0.86,-4,0,-2,21,0
'[12:10:01.664 21/01/2026]',-140041.9,-205213.9,-110435.8,-8875.162,-375000,-375000,-153427.8,-124351.9,0.02,0.00,0.86,-4,0,-2,21,0
'[12:10:01.668 21/01/2026]',-140041.6,-205284,-110453.8,-8922.458,-375000,-375000,-153425.8,-124350.8,0.02,0.00,0.86,-4,0,-2,21,0
'[12:10:01.672 21/01/2026]',-139945.1,-205449.5,-110509.6,-8972.974,-375000,-375000,-153396.7,-124306.9,0.02,0.00,0.86,-4,0,-2,21,0
'[12:10:01.676 21/01/2026]',-139933.3,-205385.3,-110507,-8919.553,-375000,-375000,-153379.2,-124289.4,0.02,0.00,0.86,-4,0,-2,21,0
'[12:10:01.680 21/01/2026]',-140026.6,-205212.8,-110441.7,-8866.445,-375000,-375000,-153403.1,-124332.8,0.02,0.00,0.86,-4,0,-2,21,0
'[12:10:01.684 21/01/2026]',-140040.3,-205244.7,-110431,-8911.461,-375000,-375000,-153432.1,-124360.5,0.02,0.00,0.86,-4,0,-2,21,0
'[12:10:01.688 21/01/2026]',-139941.3,-205415.7,-110502,-8971.945,-375000,-375000,-153427.2,-124330.5,0.02,0.00,0.86,-4,0,-2,21,0
'[12:10:01.692 21/01/2026]',-139900.5,-205398.8,-110518,-8934.081,-375000,-375000,-153392.6,-124300.3,0.02,-0.02,0.88,-4,0,-2,21,0
'[12:10:01.696 21/01/2026]',-140007.3,-205235.2,-110460.5,-8880.84,-375000,-375000,-153399.2,-124330.8,0.02,-0.02,0.88,-4,0,-2,21,0
'[12:10:01.700 21/01/2026]',-140040.5,-205227.3,-110425.5,-8894.832,-375000,-375000,-153414.5,-124347.3,0.02,-0.02,0.88,-4,0,-2,21,0
'[12:10:01.704 21/01/2026]',-139959.4,-205408.3,-110484,-8956.075,-375000,-375000,-153422.2,-124335.9,0.02,-0.02,0.88,-4,0,-2,21,0
'[12:10:01.708 21/01/2026]',-139920,-205434.2,-110523.5,-8945.034,-375000,-375000,-153398.5,-124305.3,0.02,-0.02,0.88,-4,0,-2,21,0
'[12:10:01.712 21/01/2026]',-139990.9,-205252.8,-110452.6,-8862.511,-375000,-375000,-153384.6,-124300.3,0.02,-0.02,0.88,-4,0,-2,21,0
'[12:10:01.716 21/01/2026]',-140044.1,-205205.7,-110411.9,-8877.666,-375000,-375000,-153411.1,-124332.3,0.02,-0.02,0.88,-4,0,-2,21,0
'[12:10:01.720 21/01/2026]',-139981.9,-205362.2,-110462.6,-8956.299,-375000,-375000,-153420,-124332.2,0.02,-0.02,0.88,-4,0,-2,21,0
'[12:10:01.724 21/01/2026]',-139910.4,-205430.8,-110516.3,-8950.487,-375000,-375000,-153389.4,-124291.5,0.02,-0.02,0.88,-4,0,-2,21,0
'[12:10:01.728 21/01/2026]',-139974,-205272.7,-110472.8,-8870.245,-375000,-375000,-153390.3,-124299.4,0.03,-0.02,0.88,-4,0,-2,21,0
'[12:10:01.732 21/01/2026]',-140052.3,-205199.8,-110422.1,-8876.503,-375000,-375000,-153435.8,-124358.7,0.03,-0.02,0.88,-4,0,-2,21,0
'[12:10:01.736 21/01/2026]',-140009.8,-205349.5,-110461.3,-8945.347,-375000,-375000,-153441,-124354.1,0.03,-0.02,0.88,-4,0,-2,21,0
'[12:10:01.740 21/01/2026]',-139914.3,-205447.5,-110522.4,-8953.215,-375000,-375000,-153397.3,-124301.4,0.03,-0.02,0.88,-4,0,-2,21,0
'[12:10:01.744 21/01/2026]',-139956.8,-205315,-110492.8,-8883.611,-375000,-375000,-153389.2,-124299.5,0.03,-0.02,0.88,-4,0,-2,21,0
'[12:10:01.748 21/01/2026]',-140060.5,-205206.2,-110436.3,-8873.105,-375000,-375000,-153421.8,-124350.5,0.03,-0.02,0.88,-4,0,-2,21,0
'[12:10:01.752 21/01/2026]',-140030.6,-205327.5,-110468.2,-8954.422,-375000,-375000,-153450.1,-124366.8,0.03,-0.02,0.88,-4,0,-2,21,0
'[12:10:01.756 21/01/2026]',-139909,-205444.6,-110529.6,-8981.243,-375000,-375000,-153422.3,-124318.8,0.03,-0.02,0.88,-4,0,-2,21,0
'[12:10:01.760 21/01/2026]',-139933.5,-205349.8,-110514.8,-8917.184,-375000,-375000,-153400.2,-124306.4,0.03,-0.02,0.88,-4,0,-2,21,0
'[12:10:01.764 21/01/2026]',-140049.6,-205207.6,-110438.1,-8867.339,-375000,-375000,-153411.5,-124337.5,0.02,0.00,0.86,-4,0,-2,21,0
'[12:10:01.768 21/01/2026]',-140036.9,-205286.2,-110442.9,-8928.762,-375000,-375000,-153438.5,-124359.7,0.02,0.00,0.86,-4,0,-2,21,0
'[12:10:01.772 21/01/2026]',-139926.4,-205434.9,-110515.2,-8979.857,-375000,-375000,-153419.8,-124321.6,0.02,0.00,0.86,-4,0,-2,21,0
'[12:10:01.776 21/01/2026]',-139926.8,-205374.8,-110516.6,-8921.788,-375000,-375000,-153397.3,-124297.6,0.02,0.00,0.86,-4,0,-2,21,0
'[12:10:01.780 21/01/2026]',-140032.6,-205214.9,-110437.2,-8866.043,-375000,-375000,-153413.3,-124335.7,0.02,0.00,0.86,-4,0,-2,21,0
'[12:10:01.784 21/01/2026]',-140044,-205261.8,-110420.8,-8920.983,-375000,-375000,-153442.2,-124373.2,0.02,0.00,0.86,-4,0,-2,21,0
'[12:10:01.788 21/01/2026]',-139937.7,-205409.9,-110490,-8976.639,-375000,-375000,-153425.1,-124334.7,0.02,0.00,0.86,-4,0,-2,21,0
'[12:10:01.792 21/01/2026]',-139907.6,-205378.8,-110523.6,-8927.465,-375000,-375000,-153386.7,-124283.6,0.02,0.00,0.86,-4,0,-2,21,0
'[12:10:01.796 21/01/2026]',-140003.2,-205210.8,-110443.3,-8849.592,-375000,-375000,-153391.4,-124308.5,0.02,0.00,0.86,-4,0,-2,21,0
'[12:10:01.800 21/01/2026]',-140040.9,-205218.9,-110414.2,-8901.895,-375000,-375000,-153426,-124351.2,0.03,0.00,0.88,-4,0,-2,21,0
'[12:10:01.804 21/01/2026]',-139949.5,-205392.9,-110502.4,-8971.186,-375000,-375000,-153428.8,-124337.3,0.03,0.00,0.88,-4,0,-2,21,0
'[12:10:01.808 21/01/2026]',-139893,-205404.9,-110543.1,-8944.185,-375000,-375000,-153395,-124291.7,0.03,0.00,0.88,-4,0,-2,21,0
'[12:10:01.812 21/01/2026]',-139985.4,-205229.3,-110473.1,-8865.998,-375000,-375000,-153396.3,-124309.1,0.03,0.00,0.88,-4,0,-2,21,0
'[12:10:01.816 21/01/2026]',-140051.4,-205193.9,-110431,-8884.281,-375000,-375000,-153426.5,-124351.7,0.03,0.00,0.88,-4,0,-2,21,0
'[12:10:01.820 21/01/2026]',-139973.1,-205353.1,-110485.7,-8958.803,-375000,-375000,-153436,-124345.5,0.03,0.00,0.88,-4,0,-2,21,0
'[12:10:01.824 21/01/2026]',-139898,-205403.9,-110520.7,-8949.013,-375000,-375000,-153395.7,-124293.8,0.03,0.00,0.88,-4,0,-2,21,0
'[12:10:01.828 21/01/2026]',-139965.8,-205255.9,-110470,-8879.23,-375000,-375000,-153391.2,-124305.4,0.03,0.00,0.88,-4,0,-2,21,0
'[12:10:01.832 21/01/2026]',-140033.6,-205182.5,-110421.2,-8889.69,-375000,-375000,-153426,-124355.8,0.03,0.00,0.88,-4,0,-2,21,0
'[12:10:01.836 21/01/2026]',-139983.2,-205310.6,-110458.4,-8963.362,-375000,-375000,-153444.8,-124357.8,0.02,0.02,0.89,-4,0,-2,21,0
'[12:10:01.840 21/01/2026]',-139913.6,-205411.5,-110522.8,-8972.616,-375000,-375000,-153412.7,-124310.9,0.02,0.02,0.89,-4,0,-2,21,0
'[12:10:01.844 21/01/2026]',-139961.1,-205300.5,-110497.7,-8894.563,-375000,-375000,-153387,-124300,0.02,0.02,0.89,-4,0,-2,21,0
'[12:10:01.848 21/01/2026]',-140048,-205185.8,-110435.3,-8873.553,-375000,-375000,-153414.6,-124342.3,0.02,0.02,0.89,-4,0,-2,21,0
'[12:10:01.852 21/01/2026]',-139997.4,-205289.5,-110452,-8944.363,-375000,-375000,-153433.5,-124352,0.02,0.02,0.89,-4,0,-2,21,0
'[12:10:01.856 21/01/2026]',-139914.4,-205422.7,-110521.9,-8977.086,-375000,-375000,-153414.3,-124307,0.02,0.02,0.89,-4,0,-2,21,0
'[12:10:01.860 21/01/2026]',-139930.5,-205314.4,-110509.5,-8915.619,-375000,-375000,-153393.5,-124300.1,0.02,0.02,0.89,-4,0,-2,21,0
'[12:10:01.864 21/01/2026]',-140043.9,-205171.4,-110441.4,-8871.631,-375000,-375000,-153414.4,-124336.8,0.02,0.02,0.89,-4,0,-2,21,0
'[12:10:01.868 21/01/2026]',-140034.2,-205257.5,-110446.9,-8924.426,-375000,-375000,-153438.6,-124351.5,0.02,0.02,0.89,-4,0,-2,21,0
'[12:10:01.872 21/01/2026]',-139929.3,-205405.7,-110504.2,-8970.202,-375000,-375000,-153417,-124313.6,0.02,0.00,0.88,-4,0,-2,21,0
'[12:10:01.876 21/01/2026]',-139923.2,-205328,-110497.7,-8909.315,-375000,-375000,-153388.8,-124280.2,0.02,0.00,0.88,-4,0,-2,21,0
'[12:10:01.880 21/01/2026]',-140022.5,-205170.3,-110444,-8862.689,-375000,-375000,-153418.7,-124325.3,0.02,0.00,0.88,-4,0,-2,21,0
'[12:10:01.884 21/01/2026]',-140030.3,-205202.9,-110447.3,-8912.848,-375000,-375000,-153470,-124366.6,0.02,0.00,0.88,-4,0,-2,21,0
'[12:10:01.888 21/01/2026]',-139925.4,-205352.4,-110505.9,-8963.586,-375000,-375000,-153437.2,-124318,0.02,0.00,0.88,-4,0,-2,21,0
'[12:10:01.892 21/01/2026]',-139898.2,-205316.5,-110515.9,-8922.905,-375000,-375000,-153395.9,-124274.2,0.02,0.00,0.88,-4,0,-2,21,0
'[12:10:01.896 21/01/2026]',-140008.4,-205172.9,-110446.1,-8855.851,-375000,-375000,-153415.8,-124315.1,0.02,0.00,0.88,-4,0,-2,21,0
'[12:10:01.900 21/01/2026]',-140054.3,-205201.1,-110434.1,-8898.095,-375000,-375000,-153454.2,-124358.9,0.02,0.00,0.88,-4,0,-2,21,0
'[12:10:01.904 21/01/2026]',-139967.3,-205372.9,-110500,-8970.693,-375000,-375000,-153454.5,-124341.3,0.02,0.00,0.88,-4,0,-2,21,0
'[12:10:01.908 21/01/2026]',-139910,-205380.3,-110530.9,-8940.876,-375000,-375000,-153420.8,-124293.5,0.02,0.00,0.88,-4,0,-2,21,0
'[12:10:01.912 21/01/2026]',-140000.3,-205212,-110453.1,-8843.959,-375000,-375000,-153429.8,-124310.8,0.02,0.00,0.88,-4,0,-2,21,0
'[12:10:01.916 21/01/2026]',-140067.4,-205195.3,-110427.9,-8869.127,-375000,-375000,-153475.7,-124368.1,0.02,0.00,0.88,-4,0,-2,21,0
'[12:10:01.920 21/01/2026]',-139999.8,-205352.8,-110490.8,-8944.542,-375000,-375000,-153491.4,-124364.5,0.02,0.00,0.88,-4,0,-2,21,0
'[12:10:01.924 21/01/2026]',-139925.5,-205405.5,-110533.4,-8934.081,-375000,-375000,-153456.9,-124307.2,0.02,0.00,0.88,-4,0,-2,21,0
'[12:10:01.928 21/01/2026]',-140000.8,-205253.7,-110477.6,-8847.804,-375000,-375000,-153448.8,-124311.5,0.02,0.00,0.88,-4,0,-2,21,0
'[12:10:01.932 21/01/2026]',-140080.9,-205182.2,-110425.4,-8843.468,-375000,-375000,-153483.3,-124355.9,0.02,0.00,0.88,-4,0,-2,21,0
'[12:10:01.936 21/01/2026]',-140040.8,-205332.1,-110466.5,-8908.689,-375000,-375000,-153507.8,-124360.1,0.02,0.00,0.88,-4,0,-2,21,0
'[12:10:01.940 21/01/2026]',-139992.7,-205451.4,-110540.6,-8934.26,-375000,-375000,-153515.4,-124349.4,0.02,0.00,0.88,-4,0,-2,21,0
'[12:10:01.944 21/01/2026]',-140060.9,-205348.6,-110507.3,-8871.81,-375000,-375000,-153510.3,-124349.6,0.03,0.00,0.88,-4,0,-2,21,0
'[12:10:01.948 21/01/2026]',-140166.6,-205273.8,-110450.5,-8851.335,-375000,-375000,-153519.4,-124367.2,0.03,0.00,0.88,-4,0,-2,21,0
'[12:10:01.952 21/01/2026]',-140133.2,-205389.5,-110467.5,-8890.674,-375000,-375000,-153504.1,-124345.2,0.03,0.00,0.88,-4,0,-2,21,0
'[12:10:01.956 21/01/2026]',-140047.6,-205530.1,-110523.4,-8898.006,-375000,-375000,-153476.3,-124299.7,0.03,0.00,0.88,-4,0,-2,21,0
'[12:10:01.960 21/01/2026]',-140100.1,-205451.3,-110515.4,-8834.438,-375000,-375000,-153470,-124294.5,0.03,0.00,0.88,-4,0,-2,21,0
'[12:10:01.964 21/01/2026]',-140218,-205331,-110448.1,-8802.563,-375000,-375000,-153509.9,-124350.9,0.03,0.00,0.88,-4,0,-2,21,0
'[12:10:01.968 21/01/2026]',-140219.7,-205440.7,-110460.9,-8887.679,-375000,-375000,-153547,-124379.6,0.03,0.00,0.88,-4,0,-2,21,0
'[12:10:01.972 21/01/2026]',-140159.3,-205652.3,-110538.4,-8953.84,-375000,-375000,-153517.8,-124326.7,0.03,0.00,0.88,-4,0,-2,21,0
'[12:10:01.976 21/01/2026]',-140186,-205629.9,-110532.5,-8896.664,-375000,-375000,-153476.9,-124289.3,0.03,0.00,0.88,-4,0,-2,21,0
'[12:10:01.980 21/01/2026]',-140300.2,-205510.6,-110468.3,-8881.152,-375000,-375000,-153512.4,-124346.3,0.03,0.02,0.88,-4,0,-2,21,0
'[12:10:01.984 21/01/2026]',-140327.9,-205589.9,-110461.7,-8955.137,-375000,-375000,-153545.6,-124379.9,0.03,0.02,0.88,-4,0,-2,21,0
'[12:10:01.988 21/01/2026]',-140234.3,-205784.2,-110515.9,-9028.138,-375000,-375000,-153528.1,-124337,0.03,0.02,0.88,-4,0,-2,21,0
'[12:10:01.992 21/01/2026]',-140208,-205776.7,-110513.9,-8998.097,-375000,-375000,-153504.6,-124307.5,0.03,0.02,0.88,-4,0,-2,21,0
'[12:10:01.996 21/01/2026]',-140292.8,-205615.2,-110466.5,-8941.278,-375000,-375000,-153521.3,-124339.2,0.03,0.02,0.88,-4,0,-2,21,0
'[12:10:02.000 21/01/2026]',-140316,-205631.5,-110590.6,-8977.98,-375000,-375000,-153559.5,-124373.5,0.03,0.02,0.88,-4,0,-2,21,0
'[12:10:02.004 21/01/2026]',-140202.1,-205778.8,-110796.1,-9014.011,-375000,-375000,-153551.2,-124330.6,0.03,0.02,0.88,-4,0,-2,21,0
'[12:10:02.008 21/01/2026]',-140139.2,-205779.7,-110980.3,-8972.526,-375000,-375000,-153525.9,-124288.6,0.03,0.02,0.88,-4,0,-2,21,0
'[12:10:02.012 21/01/2026]',-140232.7,-205627.2,-111025.3,-8919.419,-375000,-375000,-153538,-124343.7,0.03,0.02,0.88,-4,0,-2,21,0
'[12:10:02.016 21/01/2026]',-140272.3,-205588.3,-111055.6,-9017.051,-375000,-375000,-153548.1,-124400.3,0.03,0.00,0.89,-4,0,-2,21,0
'[12:10:02.020 21/01/2026]',-140188.7,-205710.7,-111167.8,-9225.95,-375000,-375000,-153530,-124394.3,0.03,0.00,0.89,-4,0,-2,21,0
'[12:10:02.024 21/01/2026]',-140109.7,-205734.4,-111271.1,-9335.697,-375000,-375000,-153462.5,-124354.6,0.03,0.00,0.89,-4,0,-2,21,0
'[12:10:02.028 21/01/2026]',-140139.7,-205524,-111370,-9248.57,-375000,-375000,-153398,-124323.8,0.03,0.00,0.89,-4,0,-2,21,0
'[12:10:02.032 21/01/2026]',-140197.5,-205467.9,-111569.1,-9185.271,-375000,-375000,-153481.6,-124373.2,0.03,0.00,0.89,-4,0,-2,21,0
'[12:10:02.036 21/01/2026]',-140129.4,-205670.8,-111829.4,-9206.906,-375000,-375000,-153569.4,-124396.1,0.03,0.00,0.89,-4,0,-2,21,0
'[12:10:02.040 21/01/2026]',-140004,-205788.2,-112069.4,-9134.979,-375000,-375000,-153565.3,-124305.1,0.03,0.00,0.89,-4,0,-2,21,0
'[12:10:02.044 21/01/2026]',-140050,-205669.9,-112309.3,-9001.449,-375000,-375000,-153622.4,-124318.7,0.03,0.00,0.89,-4,0,-2,21,0
'[12:10:02.048 21/01/2026]',-140139.9,-205558,-112594.3,-8941.592,-375000,-375000,-153721.3,-124380.5,0.03,0.00,0.89,-4,0,-2,21,0
'[12:10:02.052 21/01/2026]',-140097.3,-205656.2,-112899.3,-8988.53,-375000,-375000,-153764.8,-124382.9,0.03,0.00,0.88,-4,0,-2,21,0
'[12:10:02.056 21/01/2026]',-140017.4,-205769,-113175.2,-9027.959,-375000,-375000,-153775.8,-124390.1,0.03,0.00,0.88,-4,0,-2,21,0
'[12:10:02.060 21/01/2026]',-140066.5,-205642.8,-113341.8,-8955.092,-375000,-375000,-153780,-124423.8,0.03,0.00,0.88,-4,0,-2,21,0
'[12:10:02.064 21/01/2026]',-140179.5,-205484.2,-113365.3,-8891.792,-375000,-375000,-153813.3,-124489.2,0.03,0.00,0.88,-4,0,-2,21,0
'[12:10:02.068 21/01/2026]',-140170.6,-205567.2,-113382.9,-8865.462,-375000,-375000,-153827.2,-124474.4,0.03,0.00,0.88,-4,0,-2,21,0
'[12:10:02.072 21/01/2026]',-140072.4,-205681.1,-113404.6,-9084.151,-375000,-375000,-153806.7,-124427.4,0.03,0.00,0.88,-4,0,-2,21,0
'[12:10:02.076 21/01/2026]',-140068,-205529.5,-113307.3,-9252.594,-375000,-375000,-153735.7,-124398,0.03,0.00,0.88,-4,0,-2,21,0
'[12:10:02.080 21/01/2026]',-140174.3,-205386.1,-113044.9,-8967.967,-375000,-375000,-153721.8,-124454.3,0.03,0.00,0.88,-4,0,-2,21,0
'[12:10:02.084 21/01/2026]',-140177.6,-205449.1,-112771.3,-8770.601,-375000,-375000,-153745.9,-124500.8,0.03,0.00,0.88,-4,0,-2,21,0
'[12:10:02.088 21/01/2026]',-140056.2,-205603,-112503.7,-8772.389,-375000,-375000,-153743,-124480.8,0.03,0.00,0.88,-4,0,-2,21,0
'[12:10:02.092 21/01/2026]',-140003.1,-205557.8,-112242.2,-8693.309,-375000,-375000,-153696,-124400.8,0.03,0.00,0.88,-4,0,-2,21,0
'[12:10:02.096 21/01/2026]',-140062.8,-205365.5,-112007.8,-8537.74,-375000,-375000,-153668.6,-124361.6,0.03,0.00,0.88,-4,0,-2,21,0
'[12:10:02.100 21/01/2026]',-140079.4,-205370.4,-111931.6,-8584.679,-375000,-375000,-153673.2,-124351.4,0.03,0.00,0.88,-4,0,-2,21,0
'[12:10:02.104 21/01/2026]',-139984.6,-205555.8,-112038.3,-8842.797,-375000,-375000,-153666.4,-124335.1,0.03,0.00,0.88,-4,0,-2,21,0
'[12:10:02.108 21/01/2026]',-139936.1,-205574.2,-112104.3,-8983.702,-375000,-375000,-153610.9,-124286.5,0.03,0.00,0.88,-4,0,-2,21,0
'[12:10:02.112 21/01/2026]',-140027,-205400.1,-112066.5,-9043.918,-375000,-375000,-153594.3,-124304,0.03,0.00,0.88,-4,0,-2,21,0
'[12:10:02.116 21/01/2026]',-140074,-205382.1,-111962.6,-9189.875,-375000,-375000,-153590,-124360.7,0.03,0.00,0.88,-4,0,-2,21,0
'[12:10:02.120 21/01/2026]',-139961.8,-205528.9,-111900.5,-9307.892,-375000,-375000,-153546.4,-124347.8,0.03,0.00,0.88,-4,0,-2,21,0
'[12:10:02.124 21/01/2026]',-139856.4,-205551.2,-111856.6,-9299.22,-375000,-375000,-153490.5,-124304.2,0.02,0.00,0.88,-4,0,-2,21,0
'[12:10:02.128 21/01/2026]',-139922.3,-205371,-111656.4,-9205.118,-375000,-375000,-153485.6,-124316.9,0.02,0.00,0.88,-4,0,-2,21,0
'[12:10:02.132 21/01/2026]',-140014.6,-205295.3,-111464.8,-9233.685,-375000,-375000,-153531,-124362.9,0.02,0.00,0.88,-4,0,-2,21,0
'[12:10:02.136 21/01/2026]',-139959.1,-205434.2,-111407.8,-9333.06,-375000,-375000,-153519.5,-124340.7,0.02,0.00,0.88,-4,0,-2,21,0
'[12:10:02.140 21/01/2026]',-139863.8,-205508.4,-111378.3,-9359.837,-375000,-375000,-153488.7,-124297.6,0.02,0.00,0.88,-4,0,-2,21,0
'[12:10:02.144 21/01/2026]',-139917.2,-205362.7,-111257.7,-9273.471,-375000,-375000,-153495.3,-124309.9,0.02,0.00,0.88,-4,0,-2,21,0
'[12:10:02.148 21/01/2026]',-140015,-205283.3,-111144.1,-9263.725,-375000,-375000,-153549.6,-124376.1,0.02,0.00,0.88,-4,0,-2,21,0
'[12:10:02.152 21/01/2026]',-139993.8,-205438.5,-111141.2,-9365.47,-375000,-375000,-153609.9,-124425.4,0.02,0.00,0.88,-4,0,-2,21,0
'[12:10:02.156 21/01/2026]',-139907.1,-205565.7,-111179.5,-9399.355,-375000,-375000,-153606.7,-124392.9,0.02,0.00,0.88,-4,0,-2,21,0
'[12:10:02.160 21/01/2026]',-139943.5,-205491.6,-111118.7,-9446.92,-375000,-375000,-153618.1,-124425.2,0.03,-0.02,0.88,-4,0,-2,21,0
'[12:10:02.164 21/01/2026]',-140053,-205390.9,-111010.6,-9505.258,-375000,-375000,-153682,-124507,0.03,-0.02,0.88,-4,0,-2,21,0
'[12:10:02.168 21/01/2026]',-140053.7,-205500,-111006.5,-9628.64,-375000,-375000,-153735.1,-124554.1,0.03,-0.02,0.88,-4,0,-2,21,0
'[12:10:02.172 21/01/2026]',-139976.5,-205639.5,-111074.8,-9787.784,-375000,-375000,-153749.9,-124563.7,0.03,-0.02,0.88,-4,0,-2,21,0
'[12:10:02.176 21/01/2026]',-139998,-205549.9,-111072.3,-9866.373,-375000,-375000,-153751.5,-124567.2,0.03,-0.02,0.88,-4,0,-2,21,0
'[12:10:02.180 21/01/2026]',-140105.6,-205390.4,-111007.4,-9912.462,-375000,-375000,-153788.1,-124607.2,0.03,-0.02,0.88,-4,0,-2,21,0
'[12:10:02.184 21/01/2026]',-140124,-205459,-111042.2,-10099.86,-375000,-375000,-153825.2,-124654.8,0.03,-0.02,0.88,-4,0,-2,21,0
'[12:10:02.188 21/01/2026]',-140044.9,-205623,-111155,-10467.99,-375000,-375000,-153798,-124644.2,0.03,-0.02,0.88,-4,0,-2,21,0
'[12:10:02.192 21/01/2026]',-140030.7,-205576.4,-111179.3,-10725.66,-375000,-375000,-153739.8,-124628.4,0.03,-0.02,0.88,-4,0,-2,21,0
'[12:10:02.196 21/01/2026]',-140137.6,-205423.9,-111115.9,-10695.58,-375000,-375000,-153759.6,-124694.7,0.03,0.00,0.88,-4,0,-2,21,0
'[12:10:02.200 21/01/2026]',-140175.9,-205448.5,-111132.5,-10673.58,-375000,-375000,-153805.2,-124743.1,0.03,0.00,0.88,-4,0,-2,21,0
'[12:10:02.204 21/01/2026]',-140063.3,-205579.4,-111198,-10618.82,-375000,-375000,-153786.3,-124731.5,0.03,0.00,0.88,-4,0,-2,21,0
'[12:10:02.208 21/01/2026]',-139970.5,-205511.3,-111172.8,-10454.76,-375000,-375000,-153680.4,-124690.4,0.03,0.00,0.88,-4,0,-2,21,0
'[12:10:02.212 21/01/2026]',-140009.1,-205286.6,-111050.9,-10267.36,-375000,-375000,-153594.3,-124655.3,0.03,0.00,0.88,-4,0,-2,21,0
'[12:10:02.216 21/01/2026]',-140019.9,-205234.3,-110982.8,-10162.44,-375000,-375000,-153588.2,-124647.9,0.03,0.00,0.88,-4,0,-2,21,0
'[12:10:02.220 21/01/2026]',-139902.1,-205358.1,-111026.3,-10064.59,-375000,-375000,-153572.4,-124591.4,0.03,0.00,0.88,-4,0,-2,21,0
'[12:10:02.224 21/01/2026]',-139806.6,-205389.1,-111065,-9964.631,-375000,-375000,-153498.5,-124506.7,0.03,0.00,0.88,-4,0,-2,21,0
'[12:10:02.228 21/01/2026]',-139861.2,-205279,-111017.8,-9801.284,-375000,-375000,-153448.8,-124461.6,0.03,0.00,0.88,-4,0,-2,21,0
'[12:10:02.232 21/01/2026]',-139896.8,-205249.3,-110980.3,-9673.879,-375000,-375000,-153463.2,-124423.4,0.02,0.00,0.89,-4,0,-2,21,0
'[12:10:02.236 21/01/2026]',-139809.4,-205405.2,-111031.9,-9527.073,-375000,-375000,-153498.5,-124403.3,0.02,0.00,0.89,-4,0,-2,21,0
'[12:10:02.240 21/01/2026]',-139685.8,-205471,-111073.9,-9241.507,-375000,-375000,-153417.7,-124336.9,0.02,0.00,0.89,-4,0,-2,21,0
'[12:10:02.244 21/01/2026]',-139681.7,-205334.8,-111040.2,-9145.976,-375000,-375000,-153300.9,-124192.4,0.02,0.00,0.89,-4,0,-2,21,0
'[12:10:02.248 21/01/2026]',-139740.5,-205227.3,-111109.9,-9373.517,-375000,-375000,-153288.3,-124201.5,0.02,0.00,0.89,-4,0,-2,21,0
'[12:10:02.252 21/01/2026]',-139681.7,-205331.5,-111276.8,-9568.2,-375000,-375000,-153258.3,-124293.9,0.02,0.00,0.89,-4,0,-2,21,0
'[12:10:02.256 21/01/2026]',-139597.9,-205472.7,-111439,-9573.073,-375000,-375000,-153196.6,-124296.7,0.02,0.00,0.89,-4,0,-2,21,0
'[12:10:02.260 21/01/2026]',-139619.3,-205372.1,-111489.1,-9314.598,-375000,-375000,-153163.1,-124291.5,0.02,0.00,0.89,-4,0,-2,21,0
'[12:10:02.264 21/01/2026]',-139694.9,-205263.3,-111421.3,-9195.016,-375000,-375000,-153225.5,-124287.9,0.02,0.00,0.89,-4,0,-2,21,0
'[12:10:02.268 21/01/2026]',-139673.9,-205383.3,-111358.6,-9407.179,-375000,-375000,-153253.5,-124245.7,0.03,0.00,0.88,-4,0,-2,21,0
'[12:10:02.272 21/01/2026]',-139568.4,-205496.2,-111344.6,-9356.708,-375000,-375000,-153221.4,-124245.8,0.03,0.00,0.88,-4,0,-2,21,0
'[12:10:02.276 21/01/2026]',-139559.5,-205369.9,-111315.8,-9148.211,-375000,-375000,-153206.6,-124254.1,0.03,0.00,0.88,-4,0,-2,21,0
'[12:10:02.280 21/01/2026]',-139638.1,-205228.4,-111274,-8944.363,-375000,-375000,-153232,-124302.3,0.03,0.00,0.88,-4,0,-2,21,0
'[12:10:02.284 21/01/2026]',-139631.2,-205266.8,-111252.3,-8893.401,-375000,-375000,-153269,-124239.8,0.03,0.00,0.88,-4,0,-2,21,0
'[12:10:02.288 21/01/2026]',-139529.7,-205379.9,-111244,-9031.088,-375000,-375000,-153241.4,-124164.1,0.03,0.00,0.88,-4,0,-2,21,0
'[12:10:02.292 21/01/2026]',-139491.9,-205306.8,-111191.2,-8848.295,-375000,-375000,-153177.3,-124168.3,0.03,0.00,0.88,-4,0,-2,21,0
'[12:10:02.296 21/01/2026]',-139569.4,-205143.3,-111081.6,-8571.402,-375000,-375000,-153202.2,-124258.5,0.03,0.00,0.88,-4,0,-2,21,0
'[12:10:02.300 21/01/2026]',-139606.1,-205173.6,-111058.1,-8383.245,-375000,-375000,-153269.2,-124362.2,0.03,0.00,0.88,-4,0,-2,21,0
'[12:10:02.304 21/01/2026]',-139523.3,-205293.2,-111066.6,-8292.765,-375000,-375000,-153278.9,-124357,0.02,0.00,0.88,-4,0,-2,21,0
'[12:10:02.308 21/01/2026]',-139479.1,-205279.4,-111020.2,-8307.562,-375000,-375000,-153243.7,-124321.2,0.02,0.00,0.88,-4,0,-2,21,0
'[12:10:02.312 21/01/2026]',-139560.5,-205162,-110912.4,-8347.706,-375000,-375000,-153239.6,-124361.5,0.02,0.00,0.88,-4,0,-2,21,0
'[12:10:02.316 21/01/2026]',-139602.5,-205163.2,-110882.8,-8452.133,-375000,-375000,-153234.2,-124400.7,0.02,0.00,0.88,-4,0,-2,21,0
'[12:10:02.320 21/01/2026]',-139510,-205253.3,-110927.5,-8520.887,-375000,-375000,-153178.8,-124399.6,0.02,0.00,0.88,-4,0,-2,21,0
'[12:10:02.324 21/01/2026]',-139448.2,-205245.5,-110944.2,-8592.502,-375000,-375000,-153090.1,-124343.9,0.02,0.00,0.88,-4,0,-2,21,0
'[12:10:02.328 21/01/2026]',-139531,-205148.6,-110919.2,-8725.182,-375000,-375000,-153089.6,-124317.1,0.02,0.00,0.88,-4,0,-2,21,0
'[12:10:02.332 21/01/2026]',-139603.9,-205134.2,-110917.1,-8829.743,-375000,-375000,-153140,-124346.5,0.02,0.00,0.88,-4,0,-2,21,0
'[12:10:02.336 21/01/2026]',-139560.9,-205212.7,-111012.7,-8894.608,-375000,-375000,-153165,-124340.7,0.02,0.00,0.88,-4,0,-2,21,0
'[12:10:02.340 21/01/2026]',-139511.4,-205243.1,-111147.2,-8903.236,-375000,-375000,-153152.1,-124313.6,0.02,0.00,0.88,-4,0,-2,21,0
'[12:10:02.344 21/01/2026]',-139564.3,-205143,-111172.1,-8845.837,-375000,-375000,-153163.4,-124283.8,0.02,0.00,0.88,-4,0,-2,21,0
'[12:10:02.348 21/01/2026]',-139641.4,-205095.4,-111135.4,-8773.06,-375000,-375000,-153223,-124289.7,0.02,0.00,0.88,-4,0,-2,21,0
'[12:10:02.352 21/01/2026]',-139602.5,-205156.7,-111155,-8860.097,-375000,-375000,-153252.9,-124302.3,0.02,0.00,0.88,-4,0,-2,21,0
'[12:10:02.356 21/01/2026]',-139534.2,-205201,-111211.8,-8963.541,-375000,-375000,-153233.7,-124279.9,0.02,0.00,0.88,-4,0,-2,21,0
'[12:10:02.360 21/01/2026]',-139559.4,-205123.5,-111204.2,-8890.138,-375000,-375000,-153221.4,-124231.9,0.02,0.00,0.88,-4,0,-2,21,0
'[12:10:02.364 21/01/2026]',-139665.8,-205101.2,-111218.1,-8841.5,-375000,-375000,-153265,-124238.5,0.02,0.00,0.88,-4,0,-2,21,0
'[12:10:02.368 21/01/2026]',-139674.2,-205195.6,-111283.9,-8917.317,-375000,-375000,-153315.7,-124295.4,0.02,0.00,0.88,-4,0,-2,21,0
'[12:10:02.372 21/01/2026]',-139582.7,-205253.1,-111287.5,-8991.123,-375000,-375000,-153304,-124294.4,0.02,0.00,0.88,-4,0,-2,21,0
'[12:10:02.376 21/01/2026]',-139599.2,-205206.5,-111257.5,-8900.285,-375000,-375000,-153281.2,-124256.3,0.03,0.00,0.89,-4,0,-2,21,0
'[12:10:02.380 21/01/2026]',-139688.4,-205160.6,-111193.7,-8783.833,-375000,-375000,-153298.8,-124263.9,0.03,0.00,0.89,-4,0,-2,21,0
'[12:10:02.384 21/01/2026]',-139700.1,-205204.1,-111145.5,-8856.297,-375000,-375000,-153323.3,-124304.5,0.03,0.00,0.89,-4,0,-2,21,0
'[12:10:02.388 21/01/2026]',-139620.3,-205290.3,-111095.4,-8957.461,-375000,-375000,-153294.9,-124308.4,0.03,0.00,0.89,-4,0,-2,21,0
'[12:10:02.392 21/01/2026]',-139603.7,-205268.4,-111002.2,-8891.121,-375000,-375000,-153261.7,-124270.2,0.03,0.00,0.89,-4,0,-2,21,0
'[12:10:02.396 21/01/2026]',-139687.5,-205196.4,-110932.9,-8750.261,-375000,-375000,-153285.2,-124289.4,0.03,0.00,0.89,-4,0,-2,21,0
'[12:10:02.400 21/01/2026]',-139707,-205219.1,-110915.3,-8813.472,-375000,-375000,-153286.9,-124320.9,0.03,0.00,0.89,-4,0,-2,21,0
'[12:10:02.404 21/01/2026]',-139624,-205278.8,-110920.2,-9001.628,-375000,-375000,-153276.8,-124342,0.03,0.00,0.89,-4,0,-2,21,0
'[12:10:02.408 21/01/2026]',-139586.9,-205215.2,-110887.5,-8935.512,-375000,-375000,-153239,-124302.6,0.03,0.00,0.89,-4,0,-2,21,0
'[12:10:02.412 21/01/2026]',-139685.1,-205133.3,-110792.3,-8762.196,-375000,-375000,-153262.2,-124283.5,0.03,0.00,0.88,-4,0,-2,21,0
'[12:10:02.416 21/01/2026]',-139738.5,-205149.8,-110745,-8760.677,-375000,-375000,-153334.3,-124328.6,0.03,0.00,0.88,-4,0,-2,21,0
'[12:10:02.420 21/01/2026]',-139673.9,-205198.5,-110735.7,-8875.475,-375000,-375000,-153340.8,-124337,0.03,0.00,0.88,-4,0,-2,21,0
'[12:10:02.424 21/01/2026]',-139595.1,-205136.7,-110687.8,-8848.116,-375000,-375000,-153277,-124249.4,0.03,0.00,0.88,-4,0,-2,21,0
'[12:10:02.428 21/01/2026]',-139632.5,-204983.1,-110595.4,-8670.51,-375000,-375000,-153284.8,-124204.7,0.03,0.00,0.88,-4,0,-2,21,0
'[12:10:02.432 21/01/2026]',-139699.2,-204930.3,-110565.8,-8655.668,-375000,-375000,-153374.8,-124258.1,0.03,0.00,0.88,-4,0,-2,21,0
'[12:10:02.436 21/01/2026]',-139607,-204923.3,-110579.8,-8775.071,-375000,-375000,-153341.9,-124224.4,0.03,0.00,0.88,-4,0,-2,21,0
'[12:10:02.440 21/01/2026]',-139527.4,-204923.1,-110594.1,-8793.668,-375000,-375000,-153284.9,-124157.9,0.03,0.00,0.88,-4,0,-2,21,0
'[12:10:02.444 21/01/2026]',-139605.6,-204895,-110528.4,-8640.021,-375000,-375000,-153279.9,-124117.5,0.03,0.00,0.88,-4,0,-2,21,0
'[12:10:02.448 21/01/2026]',-139700.7,-204881.5,-110495.6,-8582.354,-375000,-375000,-153338.3,-124171.2,0.03,-0.02,0.88,-4,0,-2,21,0
'[12:10:02.452 21/01/2026]',-139683.8,-204916.8,-110518.8,-8704.618,-375000,-375000,-153372.6,-124223.8,0.03,-0.02,0.88,-4,0,-2,21,0
'[12:10:02.456 21/01/2026]',-139606,-204913,-110532.5,-8765.996,-375000,-375000,-153327.8,-124185.8,0.03,-0.02,0.88,-4,0,-2,21,0
'[12:10:02.460 21/01/2026]',-139595.5,-204786.8,-110491.6,-8629.427,-375000,-375000,-153320.9,-124153.8,0.03,-0.02,0.88,-4,0,-2,21,0
'[12:10:02.464 21/01/2026]',-139708.9,-204693.5,-110452.9,-8558.349,-375000,-375000,-153389.5,-124206.2,0.03,-0.02,0.88,-4,0,-2,21,0
'[12:10:02.468 21/01/2026]',-139711.3,-204741.9,-110463.9,-8688.749,-375000,-375000,-153412.6,-124235.3,0.03,-0.02,0.88,-4,0,-2,21,0
'[12:10:02.472 21/01/2026]',-139581,-204708.2,-110488.3,-8811.906,-375000,-375000,-153370.7,-124185,0.03,-0.02,0.88,-4,0,-2,21,0
'[12:10:02.476 21/01/2026]',-139595.3,-204597.1,-110448.3,-8688.793,-375000,-375000,-153314.8,-124109,0.03,-0.02,0.88,-4,0,-2,21,0
'[12:10:02.480 21/01/2026]',-139746.3,-204577.6,-110419.3,-8590.848,-375000,-375000,-153359.3,-124146.8,0.03,-0.02,0.88,-4,0,-2,21,0
'[12:10:02.484 21/01/2026]',-139777.8,-204635.3,-110458.3,-8713.693,-375000,-375000,-153388.5,-124194.1,0.03,0.00,0.88,-4,0,-2,21,0
'[12:10:02.488 21/01/2026]',-139644.5,-204673.8,-110449.5,-8867.786,-375000,-375000,-153330.6,-124145.9,0.03,0.00,0.88,-4,0,-2,21,0
'[12:10:02.492 21/01/2026]',-139652.9,-204592.6,-110405,-8817.227,-375000,-375000,-153287,-124076.4,0.03,0.00,0.88,-4,0,-2,21,0
'[12:10:02.496 21/01/2026]',-139731.6,-204472.7,-110331.1,-8694.426,-375000,-375000,-153309.1,-124078.1,0.03,0.00,0.88,-4,0,-2,21,0
'[12:10:02.500 21/01/2026]',-139709.8,-204456.3,-110340.1,-8781.464,-375000,-375000,-153335.3,-124109.6,0.03,0.00,0.88,-4,0,-2,21,0
'[12:10:02.504 21/01/2026]',-139796.6,-204582.6,-110456.2,-8908.422,-375000,-375000,-153298,-124077.9,0.03,0.00,0.88,-4,0,-2,21,0
'[12:10:02.508 21/01/2026]',-139765.9,-204443.9,-110433.3,-8928.717,-375000,-375000,-153241.4,-124032.5,0.03,0.00,0.88,-4,0,-2,21,0
'[12:10:02.512 21/01/2026]',-139897.3,-204327.4,-110408.9,-8884.729,-375000,-375000,-153248.8,-124027.9,0.03,0.00,0.88,-4,0,-2,21,0
'[12:10:02.516 21/01/2026]',-140053.2,-204411.7,-110411.2,-8905.694,-375000,-375000,-153246.9,-124046.8,0.03,0.00,0.88,-4,0,-2,21,0
'[12:10:02.520 21/01/2026]',-139982.4,-204543.6,-110443,-9065.51,-375000,-375000,-153252.6,-124080.2,0.03,0.00,0.89,-4,0,-2,21,0
'[12:10:02.524 21/01/2026]',-139887.7,-204495.3,-110421.6,-9070.605,-375000,-375000,-153233.9,-124059.5,0.03,0.00,0.89,-4,0,-2,21,0
'[12:10:02.528 21/01/2026]',-139879.1,-204311,-110386.6,-8897.29,-375000,-375000,-153253,-124061.2,0.03,0.00,0.89,-4,0,-2,21,0
'[12:10:02.532 21/01/2026]',-139916.1,-204342.1,-110335.2,-8893.714,-375000,-375000,-153292.9,-124110.8,0.03,0.00,0.89,-4,0,-2,21,0
'[12:10:02.536 21/01/2026]',-139905,-204464.4,-110486.5,-9057.553,-375000,-375000,-153287.9,-124153.5,0.03,0.00,0.89,-4,0,-2,21,0
'[12:10:02.540 21/01/2026]',-139903.1,-204516.1,-110515.8,-9132.654,-375000,-375000,-153234.1,-124129.8,0.03,0.00,0.89,-4,0,-2,21,0
'[12:10:02.544 21/01/2026]',-140001.4,-204460.3,-110411.3,-9034.396,-375000,-375000,-153228.3,-124128.4,0.03,0.00,0.89,-4,0,-2,21,0
'[12:10:02.548 21/01/2026]',-140110.5,-204477.4,-110394.2,-8997.784,-375000,-375000,-153272,-124181,0.03,0.00,0.89,-4,0,-2,21,0
'[12:10:02.552 21/01/2026]',-140060.1,-204591.7,-110429.1,-9178.252,-375000,-375000,-153279,-124217.4,0.03,0.00,0.89,-4,0,-2,21,0
'[12:10:02.556 21/01/2026]',-139927.3,-204646,-110457.2,-9266.541,-375000,-375000,-153264.1,-124214.9,0.03,0.00,0.88,-4,0,-2,21,0
'[12:10:02.560 21/01/2026]',-139950.5,-204567.8,-110404.9,-9085,-375000,-375000,-153247.4,-124196.9,0.03,0.00,0.88,-4,0,-2,21,0
'[12:10:02.564 21/01/2026]',-140014.3,-204501.3,-110314.6,-8900.464,-375000,-375000,-153243.3,-124206.9,0.03,0.00,0.88,-4,0,-2,21,0
'[12:10:02.568 21/01/2026]',-139970.9,-204651,-110289.4,-9010.703,-375000,-375000,-153223.7,-124222.2,0.03,0.00,0.88,-4,0,-2,21,0
'[12:10:02.572 21/01/2026]',-139900.6,-204810.1,-110282.7,-9147.54,-375000,-375000,-153185.8,-124205.5,0.03,0.00,0.88,-4,0,-2,21,0
'[12:10:02.576 21/01/2026]',-139901.8,-204789.1,-110236.7,-9000.287,-375000,-375000,-153176.4,-124180.7,0.03,0.00,0.88,-4,0,-2,21,0
'[12:10:02.580 21/01/2026]',-139975.9,-204707.9,-110212.2,-8795.143,-375000,-375000,-153221.8,-124191.9,0.03,0.00,0.88,-4,0,-2,21,0
'[12:10:02.584 21/01/2026]',-139951.3,-204775.9,-110281.1,-8830.012,-375000,-375000,-153276.4,-124233,0.03,0.00,0.88,-4,0,-2,21,0
'[12:10:02.588 21/01/2026]',-139875.9,-204933.5,-110373.4,-9040.207,-375000,-375000,-153296,-124245.8,0.03,0.00,0.88,-4,0,-2,21,0
'[12:10:02.592 21/01/2026]',-139852.2,-204949.3,-110388.5,-9115.891,-375000,-375000,-153296.5,-124218.9,0.02,0.00,0.88,-4,0,-2,21,0
'[12:10:02.596 21/01/2026]',-139928.5,-204901,-110365.4,-9008.603,-375000,-375000,-153339.3,-124225.5,0.02,0.00,0.88,-4,0,-2,21,0
'[12:10:02.600 21/01/2026]',-139949.9,-204990.8,-110398.3,-9098.009,-375000,-375000,-153403.1,-124265.5,0.02,0.00,0.88,-4,0,-2,21,0
'[12:10:02.604 21/01/2026]',-139884.4,-205158.9,-110453.1,-9318.174,-375000,-375000,-153402.7,-124261.2,0.02,0.00,0.88,-4,0,-2,21,0
'[12:10:02.608 21/01/2026]',-139855.8,-205165.5,-110449.1,-9256.885,-375000,-375000,-153371.1,-124209.1,0.02,0.00,0.88,-4,0,-2,21,0
'[12:10:02.612 21/01/2026]',-139923.8,-205055.4,-110398.6,-8971.632,-375000,-375000,-153389.8,-124192.2,0.02,0.00,0.88,-4,0,-2,21,0
'[12:10:02.616 21/01/2026]',-139953.5,-205081.5,-110402.7,-8912.624,-375000,-375000,-153446.1,-124233.8,0.02,0.00,0.88,-4,0,-2,21,0
'[12:10:02.620 21/01/2026]',-139886.8,-205239.3,-110444.5,-9122.015,-375000,-375000,-153480.6,-124252.6,0.02,0.00,0.88,-4,0,-2,21,0
'[12:10:02.624 21/01/2026]',-139852.6,-205285.2,-110480.8,-9141.461,-375000,-375000,-153470.6,-124225.1,0.02,0.00,0.88,-4,0,-2,21,0
'[12:10:02.628 21/01/2026]',-139913.2,-205152.3,-110431.6,-8879.186,-375000,-375000,-153448.9,-124178.7,0.02,0.00,0.88,-4,0,-2,21,0
'[12:10:02.632 21/01/2026]',-139964.4,-205135.3,-110404.4,-8827.866,-375000,-375000,-153484.9,-124213.2,0.02,0.00,0.88,-4,0,-2,21,0
'[12:10:02.636 21/01/2026]',-139917.2,-205308.5,-110465.8,-9082.005,-375000,-375000,-153512.1,-124261.3,0.02,0.00,0.88,-4,0,-2,21,0
'[12:10:02.640 21/01/2026]',-139855.3,-205406,-110498.6,-9218.888,-375000,-375000,-153494.7,-124235.6,0.02,0.00,0.88,-4,0,-2,21,0
'[12:10:02.644 21/01/2026]',-139887.2,-205295,-110478.1,-9043.337,-375000,-375000,-153493.8,-124214.3,0.02,0.00,0.88,-4,0,-2,21,0
'[12:10:02.648 21/01/2026]',-139954.1,-205217.1,-110455.7,-8910.701,-375000,-375000,-153524.8,-124250.8,0.02,0.00,0.88,-4,0,-2,21,0
'[12:10:02.652 21/01/2026]',-139888.4,-205332.5,-110452.8,-9064.839,-375000,-375000,-153535.5,-124275.3,0.02,0.00,0.88,-4,0,-2,21,0
'[12:10:02.656 21/01/2026]',-139831.8,-205448.1,-110438,-9192.959,-375000,-375000,-153482.8,-124231.8,0.02,0.00,0.88,-4,0,-2,21,0
'[12:10:02.660 21/01/2026]',-139879.5,-205374.2,-110416.7,-9025.5,-375000,-375000,-153459.2,-124207.1,0.02,0.00,0.88,-4,0,-2,21,0
'[12:10:02.664 21/01/2026]',-139963.8,-205303.4,-110422.6,-8898.989,-375000,-375000,-153490.6,-124237.3,0.02,0.00,0.88,-4,0,-2,21,0
'[12:10:02.668 21/01/2026]',-139941.6,-205422.7,-110447.1,-9047.047,-375000,-375000,-153508.1,-124265.3,0.02,0.00,0.88,-4,0,-2,21,0
'[12:10:02.672 21/01/2026]',-139827.2,-205550.2,-110471.5,-9217.412,-375000,-375000,-153483.1,-124240.8,0.02,0.00,0.88,-4,0,-2,21,0
'[12:10:02.676 21/01/2026]',-139875.2,-205500.9,-110459.1,-9116.024,-375000,-375000,-153469.6,-124220.2,0.02,0.00,0.88,-4,0,-2,21,0
'[12:10:02.680 21/01/2026]',-139975.4,-205403.9,-110428.4,-8961.574,-375000,-375000,-153486.3,-124228.6,0.02,0.00,0.88,-4,0,-2,21,0
'[12:10:02.684 21/01/2026]',-139950.7,-205473.3,-110418.5,-9034.352,-375000,-375000,-153502.6,-124251,0.02,0.00,0.88,-4,0,-2,21,0
'[12:10:02.688 21/01/2026]',-139867.3,-205630.9,-110461.6,-9207.309,-375000,-375000,-153495.2,-124246.7,0.02,0.00,0.88,-4,0,-2,21,0
'[12:10:02.692 21/01/2026]',-139876.3,-205600.2,-110446,-9139.538,-375000,-375000,-153473.9,-124225,0.02,0.00,0.88,-4,0,-2,21,0
'[12:10:02.696 21/01/2026]',-139965.6,-205473.5,-110400.7,-8992.196,-375000,-375000,-153496.7,-124255,0.02,0.00,0.88,-4,0,-2,21,0
'[12:10:02.700 21/01/2026]',-139977.7,-205532.9,-110391.3,-9059.653,-375000,-375000,-153520.7,-124292.8,0.02,0.00,0.88,-4,0,-2,21,0
'[12:10:02.704 21/01/2026]',-139898.8,-205713.1,-110408.4,-9209.679,-375000,-375000,-153528.9,-124314,0.02,0.00,0.88,-4,0,-2,21,0
'[12:10:02.708 21/01/2026]',-139859.2,-205700.2,-110410.5,-9161.488,-375000,-375000,-153495.1,-124282.7,0.02,0.00,0.88,-4,0,-2,21,0
'[12:10:02.712 21/01/2026]',-139912.8,-205554.1,-110361.2,-8997.963,-375000,-375000,-153469.8,-124264.5,0.02,0.00,0.88,-4,0,-2,21,0
'[12:10:02.716 21/01/2026]',-139948.8,-205558.5,-110381,-9030.462,-375000,-375000,-153496.9,-124299.8,0.02,0.00,0.88,-4,0,-2,21,0
'[12:10:02.720 21/01/2026]',-139881.5,-205705.9,-110426.4,-9162.739,-375000,-375000,-153492.8,-124298.4,0.02,0.00,0.88,-4,0,-2,21,0
'[12:10:02.724 21/01/2026]',-139862.9,-205735.5,-110453.9,-9152.771,-375000,-375000,-153457.1,-124266.5,0.02,0.00,0.88,-4,0,-2,21,0
'[12:10:02.728 21/01/2026]',-139938,-205600.6,-110422.6,-9008.915,-375000,-375000,-153471,-124277.6,0.02,0.00,0.88,-4,0,-2,21,0
'[12:10:02.732 21/01/2026]',-139981,-205568.4,-110409.8,-8997.739,-375000,-375000,-153512.5,-124313.2,0.02,0.00,0.88,-4,0,-2,21,0
'[12:10:02.736 21/01/2026]',-139912.8,-205721.1,-110462.4,-9100.736,-375000,-375000,-153509.4,-124319.2,0.02,0.00,0.88,-4,0,-2,21,0
'[12:10:02.740 21/01/2026]',-139835.4,-205778.9,-110471.4,-9103.82,-375000,-375000,-153471.5,-124275.3,0.02,0.00,0.88,-4,0,-2,21,0
'[12:10:02.744 21/01/2026]',-139909,-205634,-110440.9,-8957.774,-375000,-375000,-153452.8,-124251.8,0.02,0.00,0.88,-4,0,-2,21,0
'[12:10:02.748 21/01/2026]',-139983.2,-205561.6,-110400.9,-8900.062,-375000,-375000,-153476.4,-124284.2,0.02,0.00,0.88,-4,0,-2,21,0
'[12:10:02.752 21/01/2026]',-139911.8,-205711.7,-110408.9,-8993.403,-375000,-375000,-153497,-124304.8,0.02,0.00,0.88,-4,0,-2,21,0
'[12:10:02.756 21/01/2026]',-139858,-205797.2,-110466.5,-9033.1,-375000,-375000,-153479,-124287.6,0.02,0.00,0.88,-4,0,-2,21,0
'[12:10:02.760 21/01/2026]',-139909.4,-205672,-110448.6,-8941.145,-375000,-375000,-153478.3,-124302.9,0.02,0.00,0.88,-4,0,-2,21,0
'[12:10:02.764 21/01/2026]',-139995.3,-205565.2,-110390.8,-8881.733,-375000,-375000,-153482.3,-124313.3,0.02,0.00,0.88,-4,0,-2,21,0
'[12:10:02.768 21/01/2026]',-139965.5,-205699.3,-110426.7,-8986.966,-375000,-375000,-153500.5,-124324.3,0.02,0.00,0.88,-4,0,-2,21,0
'[12:10:02.772 21/01/2026]',-139854.8,-205832.8,-110483.8,-9052.099,-375000,-375000,-153482.4,-124298,0.02,0.00,0.88,-4,0,-2,21,0
'[12:10:02.776 21/01/2026]',-139846.5,-205716.1,-110451.9,-8941.368,-375000,-375000,-153442.7,-124257.4,0.02,0.00,0.88,-4,0,-2,21,0
'[12:10:02.780 21/01/2026]',-139982.6,-205593.3,-110416.5,-8880.169,-375000,-375000,-153473.7,-124305.3,0.02,0.00,0.88,-4,0,-2,21,0
'[12:10:02.784 21/01/2026]',-139974.5,-205675,-110421.7,-8973.912,-375000,-375000,-153506.3,-124337.4,0.02,0.00,0.88,-4,0,-2,21,0
'[12:10:02.788 21/01/2026]',-139855,-205812.4,-110482.1,-9069.354,-375000,-375000,-153488,-124303.7,0.02,0.00,0.88,-4,0,-2,21,0
'[12:10:02.792 21/01/2026]',-139869.4,-205730.4,-110473.3,-8995.459,-375000,-375000,-153438.5,-124247.1,0.02,0.00,0.88,-4,0,-2,21,0
'[12:10:02.796 21/01/2026]',-139970.8,-205566.4,-110389.4,-8890.585,-375000,-375000,-153453.8,-124277.9,0.02,0.00,0.88,-4,0,-2,21,0
'[12:10:02.800 21/01/2026]',-139991.3,-205617.7,-110390.5,-8952.723,-375000,-375000,-153503,-124328.8,0.02,0.00,0.88,-4,0,-2,21,0
'[12:10:02.804 21/01/2026]',-139883.7,-205784.4,-110448.4,-9058.268,-375000,-375000,-153491.1,-124302,0.02,0.00,0.88,-4,0,-2,21,0
'[12:10:02.808 21/01/2026]',-139843.9,-205747.8,-110478.9,-8992.599,-375000,-375000,-153446.5,-124254.1,0.03,0.00,0.86,-4,0,-2,21,0
'[12:10:02.812 21/01/2026]',-139953.9,-205571,-110407.2,-8880.169,-375000,-375000,-153447.5,-124267.7,0.03,0.00,0.86,-4,0,-2,21,0
'[12:10:02.816 21/01/2026]',-140012.2,-205583.2,-110398.3,-8934.931,-375000,-375000,-153502.9,-124339.5,0.03,0.00,0.86,-4,0,-2,21,0
'[12:10:02.820 21/01/2026]',-139921.5,-205767.3,-110453.1,-9051.563,-375000,-375000,-153489.7,-124317.2,0.03,0.00,0.86,-4,0,-2,21,0
'[12:10:02.824 21/01/2026]',-139848.4,-205791,-110466,-9027.288,-375000,-375000,-153437.8,-124245.9,0.03,0.00,0.86,-4,0,-2,21,0
'[12:10:02.828 21/01/2026]',-139929.2,-205589.4,-110389.1,-8897.871,-375000,-375000,-153444.5,-124258.2,0.03,0.00,0.86,-4,0,-2,21,0
'[12:10:02.832 21/01/2026]',-139980.8,-205518,-110346.3,-8903.906,-375000,-375000,-153478.3,-124302.9,0.03,0.00,0.86,-4,0,-2,21,0
'[12:10:02.836 21/01/2026]',-139917.8,-205729.4,-110405.9,-9022.415,-375000,-375000,-153482,-124294,0.03,0.00,0.86,-4,0,-2,21,0
'[12:10:02.840 21/01/2026]',-139844.5,-205830.2,-110435.4,-9010.479,-375000,-375000,-153447.7,-124239.8,0.03,0.00,0.86,-4,0,-2,21,0
'[12:10:02.844 21/01/2026]',-139913.2,-205643.5,-110378.8,-8890.495,-375000,-375000,-153444.8,-124243.1,0.03,0.00,0.88,-4,0,-2,21,0
'[12:10:02.848 21/01/2026]',-139999.3,-205525.5,-110339,-8876.503,-375000,-375000,-153486.1,-124303,0.03,0.00,0.88,-4,0,-2,21,0
'[12:10:02.852 21/01/2026]',-139940.5,-205680.2,-110386.1,-8972.705,-375000,-375000,-153495.7,-124309,0.03,0.00,0.88,-4,0,-2,21,0
'[12:10:02.856 21/01/2026]',-139852.9,-205804.2,-110451.6,-9000.019,-375000,-375000,-153463.7,-124251.7,0.03,0.00,0.88,-4,0,-2,21,0
'[12:10:02.860 21/01/2026]',-139900.2,-205634.3,-110394.2,-8884.326,-375000,-375000,-153433.8,-124223.9,0.03,0.00,0.88,-4,0,-2,21,0
'[12:10:02.864 21/01/2026]',-139995.2,-205481.5,-110344.2,-8857.728,-375000,-375000,-153465.2,-124284.6,0.03,0.00,0.88,-4,0,-2,21,0
'[12:10:02.868 21/01/2026]',-139948,-205636.1,-110401.2,-8989.692,-375000,-375000,-153519.5,-124338.8,0.03,0.00,0.88,-4,0,-2,21,0
'[12:10:02.872 21/01/2026]',-139848.6,-205808.7,-110467,-9053.618,-375000,-375000,-153516.4,-124313.9,0.03,0.00,0.88,-4,0,-2,21,0
'[12:10:02.876 21/01/2026]',-139877.2,-205671.2,-110413.5,-8945.436,-375000,-375000,-153434,-124233.9,0.03,0.00,0.88,-4,0,-2,21,0
'[12:10:02.880 21/01/2026]',-140011,-205476.1,-110348,-8888.707,-375000,-375000,-153451.3,-124271.2,0.03,0.02,0.88,-4,0,-2,21,0
'[12:10:02.884 21/01/2026]',-139997.1,-205554.8,-110360.3,-8969.174,-375000,-375000,-153480.8,-124303,0.03,0.02,0.88,-4,0,-2,21,0
'[12:10:02.888 21/01/2026]',-139863,-205753.8,-110402.8,-9028.987,-375000,-375000,-153458.8,-124262.2,0.03,0.02,0.88,-4,0,-2,21,0
'[12:10:02.892 21/01/2026]',-139880.9,-205701.3,-110419.6,-8963.541,-375000,-375000,-153440,-124245.9,0.03,0.02,0.88,-4,0,-2,21,0
'[12:10:02.896 21/01/2026]',-140002.8,-205491.9,-110355,-8870.334,-375000,-375000,-153447.1,-124279.2,0.03,0.02,0.88,-4,0,-2,21,0
'[12:10:02.900 21/01/2026]',-140028.1,-205542.1,-110350.6,-8940.787,-375000,-375000,-153496.8,-124329.4,0.03,0.02,0.88,-4,0,-2,21,0
'[12:10:02.904 21/01/2026]',-139915.7,-205755.9,-110430.4,-9035.514,-375000,-375000,-153485.6,-124300.5,0.03,0.02,0.88,-4,0,-2,21,0
'[12:10:02.908 21/01/2026]',-139866.7,-205719.6,-110435.9,-8967.922,-375000,-375000,-153433,-124239.7,0.03,0.02,0.88,-4,0,-2,21,0
'[12:10:02.912 21/01/2026]',-139978.5,-205506.8,-110390.2,-8891.658,-375000,-375000,-153466,-124291.4,0.03,0.02,0.88,-4,0,-2,21,0
'[12:10:02.916 21/01/2026]',-140016.7,-205504.3,-110375.2,-8932.159,-375000,-375000,-153504.1,-124344.3,0.02,0.00,0.88,-4,0,-2,21,0
'[12:10:02.920 21/01/2026]',-139921.6,-205721.1,-110423.2,-9011.955,-375000,-375000,-153480.8,-124311.1,0.02,0.00,0.88,-4,0,-2,21,0
'[12:10:02.924 21/01/2026]',-139863.7,-205753.3,-110446.5,-8984.507,-375000,-375000,-153449.4,-124264,0.02,0.00,0.88,-4,0,-2,21,0
'[12:10:02.928 21/01/2026]',-139939.6,-205547.4,-110416.4,-8904.309,-375000,-375000,-153476.9,-124299.9,0.02,0.00,0.88,-4,0,-2,21,0
'[12:10:02.932 21/01/2026]',-140018.9,-205498.8,-110398.6,-8945.57,-375000,-375000,-153518.7,-124352.1,0.02,0.00,0.88,-4,0,-2,21,0
'[12:10:02.936 21/01/2026]',-139957.7,-205698.3,-110448.3,-9026.036,-375000,-375000,-153500.1,-124323.9,0.02,0.00,0.88,-4,0,-2,21,0
'[12:10:02.940 21/01/2026]',-139891.4,-205795.4,-110494.7,-9020.896,-375000,-375000,-153458.8,-124267.8,0.02,0.00,0.88,-4,0,-2,21,0
'[12:10:02.944 21/01/2026]',-139934.4,-205592.4,-110432,-8918.569,-375000,-375000,-153456.8,-124281.9,0.02,0.00,0.88,-4,0,-2,21,0
'[12:10:02.948 21/01/2026]',-140011.4,-205471.3,-110386.4,-8896.888,-375000,-375000,-153490,-124331.3,0.02,0.00,0.88,-4,0,-2,21,0
'[12:10:02.952 21/01/2026]',-139956.6,-205661.3,-110447.6,-9016.291,-375000,-375000,-153515.8,-124348.8,0.02,0.00,0.88,-4,0,-2,21,0
'[12:10:02.956 21/01/2026]',-139848.9,-205798.7,-110518.1,-9053.306,-375000,-375000,-153484.2,-124300,0.02,0.00,0.88,-4,0,-2,21,0
'[12:10:02.960 21/01/2026]',-139907.6,-205629.2,-110481.1,-8932.562,-375000,-375000,-153450.8,-124273.9,0.02,0.00,0.88,-4,0,-2,21,0
'[12:10:02.964 21/01/2026]',-140004.8,-205473.2,-110409.5,-8878.738,-375000,-375000,-153467.6,-124306,0.02,0.00,0.88,-4,0,-2,21,0
'[12:10:02.968 21/01/2026]',-139964.4,-205619.5,-110444,-8982.674,-375000,-375000,-153500,-124330.5,0.02,0.00,0.88,-4,0,-2,21,0
'[12:10:02.972 21/01/2026]',-139851.7,-205776.7,-110497.6,-9027.869,-375000,-375000,-153465,-124280,0.02,0.00,0.88,-4,0,-2,21,0
'[12:10:02.976 21/01/2026]',-139876.1,-205655,-110470.9,-8927.688,-375000,-375000,-153432.7,-124255.8,0.02,0.00,0.88,-4,0,-2,21,0
'[12:10:02.980 21/01/2026]',-139987.5,-205477.5,-110405.8,-8858.398,-375000,-375000,-153464.6,-124312,0.02,0.00,0.88,-4,0,-2,21,0
'[12:10:02.984 21/01/2026]',-139975.4,-205580.2,-110423.6,-8941.234,-375000,-375000,-153499.5,-124338.8,0.02,0.00,0.88,-4,0,-2,21,0
'[12:10:02.988 21/01/2026]',-139847,-205770.1,-110492.3,-9028.405,-375000,-375000,-153466.7,-124295.4,0.03,0.00,0.88,-4,0,-2,21,0
'[12:10:02.992 21/01/2026]',-139839.8,-205694.9,-110458.2,-8939.088,-375000,-375000,-153419.1,-124250.6,0.03,0.00,0.88,-4,0,-2,21,0
'[12:10:02.996 21/01/2026]',-139971.5,-205502.7,-110392,-8848.563,-375000,-375000,-153445.3,-124291.2,0.03,0.00,0.88,-4,0,-2,21,0
'[12:10:03.000 21/01/2026]',-140000,-205545.8,-110408.7,-8919.061,-375000,-375000,-153489.5,-124338.3,0.03,0.00,0.88,-4,0,-2,21,0
'[12:10:03.004 21/01/2026]',-139877.8,-205735.2,-110464.5,-9022.595,-375000,-375000,-153477.8,-124307.2,0.03,0.00,0.88,-4,0,-2,21,0
'[12:10:03.008 21/01/2026]',-139867.9,-205736.1,-110500.5,-8984.909,-375000,-375000,-153447,-124266.8,0.03,0.00,0.88,-4,0,-2,21,0
'[12:10:03.012 21/01/2026]',-139988.9,-205553.6,-110437.1,-8879.856,-375000,-375000,-153460.1,-124294.3,0.03,0.00,0.88,-4,0,-2,21,0
'[12:10:03.016 21/01/2026]',-140006,-205545.7,-110423.2,-8922.324,-375000,-375000,-153483.3,-124328.3,0.03,0.00,0.88,-4,0,-2,21,0
'[12:10:03.020 21/01/2026]',-139908.3,-205748.5,-110467.5,-9029.881,-375000,-375000,-153485.6,-124321.5,0.03,0.00,0.88,-4,0,-2,21,0
'[12:10:03.024 21/01/2026]',-139888.3,-205784.3,-110497.7,-9009.854,-375000,-375000,-153462.8,-124298,0.03,0.02,0.89,-4,0,-2,21,0
'[12:10:03.028 21/01/2026]',-139984.9,-205576.5,-110467.4,-8902.878,-375000,-375000,-153482.2,-124332.1,0.03,0.02,0.89,-4,0,-2,21,0
'[12:10:03.032 21/01/2026]',-140021.3,-205514.3,-110435.6,-8899.123,-375000,-375000,-153500.8,-124356.4,0.03,0.02,0.89,-4,0,-2,21,0
'[12:10:03.036 21/01/2026]',-139918.5,-205693.8,-110480.7,-9001.986,-375000,-375000,-153483.4,-124327.7,0.03,0.02,0.89,-4,0,-2,21,0
'[12:10:03.040 21/01/2026]',-139846.7,-205761.1,-110501.6,-9012.938,-375000,-375000,-153442,-124278.9,0.03,0.02,0.89,-4,0,-2,21,0
'[12:10:03.044 21/01/2026]',-139927.2,-205561,-110419.8,-8878.068,-375000,-375000,-153432.5,-124276.5,0.03,0.02,0.89,-4,0,-2,21,0
'[12:10:03.048 21/01/2026]',-139997.9,-205458.4,-110399.9,-8842.305,-375000,-375000,-153472.6,-124329.6,0.03,0.02,0.89,-4,0,-2,21,0
'[12:10:03.052 21/01/2026]',-139964.2,-205658.7,-110484,-8972.616,-375000,-375000,-153505.8,-124361.4,0.03,0.02,0.89,-4,0,-2,21,0
'[12:10:03.056 21/01/2026]',-139888.8,-205780.5,-110517,-9011.731,-375000,-375000,-153475.6,-124316.1,0.03,0.02,0.89,-4,0,-2,21,0
'[12:10:03.060 21/01/2026]',-139920.8,-205589.7,-110464.1,-8874.85,-375000,-375000,-153429,-124266.9,0.02,0.00,0.88,-4,0,-2,21,0
'[12:10:03.064 21/01/2026]',-139997.8,-205430.6,-110398.9,-8800.865,-375000,-375000,-153444.6,-124292.8,0.02,0.00,0.88,-4,0,-2,21,0
'[12:10:03.068 21/01/2026]',-139967.6,-205578.5,-110436,-8914.725,-375000,-375000,-153479.8,-124320.7,0.02,0.00,0.88,-4,0,-2,21,0
'[12:10:03.072 21/01/2026]',-139875.9,-205737.4,-110497.4,-9000.779,-375000,-375000,-153458.1,-124292.1,0.02,0.00,0.88,-4,0,-2,21,0
'[12:10:03.076 21/01/2026]',-139898,-205601.6,-110466.6,-8897.916,-375000,-375000,-153433.2,-124266.1,0.02,0.00,0.88,-4,0,-2,21,0
'[12:10:03.080 21/01/2026]',-140001.8,-205446.9,-110406,-8810.118,-375000,-375000,-153456.8,-124299.7,0.02,0.00,0.88,-4,0,-2,21,0
'[12:10:03.084 21/01/2026]',-139986.6,-205545.6,-110438.5,-8909.673,-375000,-375000,-153491.7,-124336.3,0.02,0.00,0.88,-4,0,-2,21,0
'[12:10:03.088 21/01/2026]',-139882.2,-205723.2,-110493.2,-9013.251,-375000,-375000,-153469.9,-124316.1,0.02,0.00,0.88,-4,0,-2,21,0
'[12:10:03.092 21/01/2026]',-139874.8,-205630.6,-110470.5,-8912.266,-375000,-375000,-153426.9,-124269.1,0.02,0.00,0.88,-4,0,-2,21,0
'[12:10:03.096 21/01/2026]',-139976.2,-205443.8,-110401.6,-8791.924,-375000,-375000,-153427.4,-124278.1,0.02,0.00,0.88,-4,0,-2,21,0
'[12:10:03.100 21/01/2026]',-139991.9,-205504.1,-110415.9,-8866.222,-375000,-375000,-153466.9,-124324.4,0.02,0.00,0.88,-4,0,-2,21,0
'[12:10:03.104 21/01/2026]',-139891.3,-205699.3,-110480.2,-8990.05,-375000,-375000,-153467.8,-124305.9,0.02,0.00,0.88,-4,0,-2,21,0
'[12:10:03.108 21/01/2026]',-139858.8,-205669.3,-110476.9,-8937.971,-375000,-375000,-153422.3,-124256,0.02,0.00,0.88,-4,0,-2,21,0
'[12:10:03.112 21/01/2026]',-139965,-205483.4,-110412.7,-8812.622,-375000,-375000,-153431.4,-124275.1,0.02,0.00,0.88,-4,0,-2,21,0
'[12:10:03.116 21/01/2026]',-140010.8,-205495.5,-110401.9,-8862.287,-375000,-375000,-153475.5,-124325,0.02,0.00,0.88,-4,0,-2,21,0
'[12:10:03.120 21/01/2026]',-139937.2,-205709,-110473.5,-9004.758,-375000,-375000,-153498,-124346.2,0.02,0.00,0.88,-4,0,-2,21,0
'[12:10:03.124 21/01/2026]',-139892.4,-205735.8,-110513.6,-9002.611,-375000,-375000,-153465.9,-124295.5,0.02,0.00,0.88,-4,0,-2,21,0
'[12:10:03.128 21/01/2026]',-139963.8,-205529.9,-110457,-8862.556,-375000,-375000,-153458.6,-124302.6,0.02,0.00,0.88,-4,0,-2,21,0
'[12:10:03.132 21/01/2026]',-139997.5,-205487.2,-110426,-8866.624,-375000,-375000,-153488,-124348.6,0.03,-0.02,0.88,-4,0,-2,21,0
'[12:10:03.136 21/01/2026]',-139945.3,-205676,-110470.6,-8984.954,-375000,-375000,-153484.2,-124334.3,0.03,-0.02,0.88,-4,0,-2,21,0
'[12:10:03.140 21/01/2026]',-139882.7,-205754.8,-110513.5,-9005.473,-375000,-375000,-153460.7,-124294.9,0.03,-0.02,0.88,-4,0,-2,21,0
'[12:10:03.144 21/01/2026]',-139919.3,-205556.5,-110458.4,-8871.184,-375000,-375000,-153446.2,-124290.2,0.03,-0.02,0.88,-4,0,-2,21,0
'[12:10:03.148 21/01/2026]',-140006,-205447.4,-110408,-8827.688,-375000,-375000,-153457.4,-124312.5,0.03,-0.02,0.88,-4,0,-2,21,0
'[12:10:03.152 21/01/2026]',-139968.4,-205627.7,-110463.5,-8951.337,-375000,-375000,-153476.5,-124320.3,0.03,-0.02,0.88,-4,0,-2,21,0
'[12:10:03.156 21/01/2026]',-139897.7,-205777.1,-110524.9,-9018.079,-375000,-375000,-153465.5,-124301.8,0.03,-0.02,0.88,-4,0,-2,21,0
'[12:10:03.160 21/01/2026]',-139937.1,-205609.6,-110484.9,-8889.244,-375000,-375000,-153454.5,-124298.3,0.03,-0.02,0.88,-4,0,-2,21,0
'[12:10:03.164 21/01/2026]',-140001.1,-205437.9,-110416.9,-8820.534,-375000,-375000,-153461.6,-124317.5,0.03,-0.02,0.88,-4,0,-2,21,0
'[12:10:03.168 21/01/2026]',-139965.9,-205576,-110454.8,-8928.896,-375000,-375000,-153484.6,-124344.3,0.03,0.00,0.88,-4,0,-2,21,0
'[12:10:03.172 21/01/2026]',-139881.2,-205763,-110529.8,-9014.548,-375000,-375000,-153475.5,-124318,0.03,0.00,0.88,-4,0,-2,21,0
'[12:10:03.176 21/01/2026]',-139904.5,-205615.3,-110491.9,-8891.837,-375000,-375000,-153430.3,-124270.1,0.03,0.00,0.88,-4,0,-2,21,0
'[12:10:03.180 21/01/2026]',-139982,-205399,-110422.2,-8786.247,-375000,-375000,-153433.3,-124290.3,0.03,0.00,0.88,-4,0,-2,21,0
'[12:10:03.184 21/01/2026]',-139969.9,-205514.7,-110441.8,-8893.804,-375000,-375000,-153469.7,-124326.6,0.03,0.00,0.88,-4,0,-2,21,0
'[12:10:03.188 21/01/2026]',-139898.4,-205749,-110510.2,-9022.371,-375000,-375000,-153485,-124326.3,0.03,0.00,0.88,-4,0,-2,21,0
'[12:10:03.192 21/01/2026]',-139885.3,-205654.2,-110495.8,-8926.705,-375000,-375000,-153447.8,-124291.5,0.03,0.00,0.88,-4,0,-2,21,0
'[12:10:03.196 21/01/2026]',-139959.2,-205425.9,-110433.8,-8806.677,-375000,-375000,-153431.5,-124293.4,0.03,0.00,0.88,-4,0,-2,21,0
'[12:10:03.200 21/01/2026]',-139988.6,-205483,-110437.9,-8882.628,-375000,-375000,-153456.9,-124319.5,0.03,0.00,0.88,-4,0,-2,21,0
'[12:10:03.204 21/01/2026]',-139924.6,-205714.4,-110517.5,-9012.715,-375000,-375000,-153476.9,-124322,0.02,0.00,0.88,-4,0,-2,21,0
'[12:10:03.208 21/01/2026]',-139895,-205691.3,-110524.6,-8961.127,-375000,-375000,-153453.8,-124291.1,0.02,0.00,0.88,-4,0,-2,21,0
'[12:10:03.212 21/01/2026]',-139955.8,-205446.7,-110438.7,-8821.697,-375000,-375000,-153447.7,-124301.4,0.02,0.00,0.88,-4,0,-2,21,0
'[12:10:03.216 21/01/2026]',-140003.5,-205438.7,-110413.2,-8851.604,-375000,-375000,-153464.6,-124330.7,0.02,0.00,0.88,-4,0,-2,21,0
'[12:10:03.220 21/01/2026]',-139935.7,-205672.7,-110488.3,-8993.313,-375000,-375000,-153480.8,-124334.3,0.02,0.00,0.88,-4,0,-2,21,0
'[12:10:03.224 21/01/2026]',-139893.8,-205711.5,-110522.2,-8979.321,-375000,-375000,-153461.5,-124313.5,0.02,0.00,0.88,-4,0,-2,21,0
'[12:10:03.228 21/01/2026]',-139971.6,-205474.9,-110452.6,-8826.524,-375000,-375000,-153437.7,-124305.2,0.02,0.00,0.88,-4,0,-2,21,0
'[12:10:03.232 21/01/2026]',-140014.3,-205423.6,-110411.9,-8841.321,-375000,-375000,-153460.2,-124333,0.02,0.00,0.88,-4,0,-2,21,0
'[12:10:03.236 21/01/2026]',-139925.8,-205629.6,-110466.5,-8977.712,-375000,-375000,-153471.9,-124336.7,0.02,0.00,0.88,-4,0,-2,21,0
'[12:10:03.240 21/01/2026]',-139878.4,-205707.8,-110515.2,-8989.559,-375000,-375000,-153450.8,-124307.6,0.03,0.00,0.88,-4,0,-2,21,0
'[12:10:03.244 21/01/2026]',-139960,-205501.6,-110462.9,-8851.38,-375000,-375000,-153443.4,-124306.9,0.03,0.00,0.88,-4,0,-2,21,0
'[12:10:03.248 21/01/2026]',-140013.3,-205383.9,-110392.4,-8816.734,-375000,-375000,-153431.8,-124301.2,0.03,0.00,0.88,-4,0,-2,21,0
'[12:10:03.252 21/01/2026]',-139954.6,-205576.9,-110448.5,-8953.215,-375000,-375000,-153456.9,-124316.9,0.03,0.00,0.88,-4,0,-2,21,0
'[12:10:03.256 21/01/2026]',-139875.2,-205719.7,-110515.6,-9006.367,-375000,-375000,-153450.9,-124295.6,0.03,0.00,0.88,-4,0,-2,21,0
'[12:10:03.260 21/01/2026]',-139930.4,-205543.6,-110469.6,-8874.983,-375000,-375000,-153427.3,-124277.6,0.03,0.00,0.88,-4,0,-2,21,0
'[12:10:03.264 21/01/2026]',-140006.8,-205383.3,-110390.7,-8817.941,-375000,-375000,-153437.9,-124310.2,0.03,0.00,0.88,-4,0,-2,21,0
'[12:10:03.268 21/01/2026]',-139960.3,-205551.4,-110449.2,-8949.235,-375000,-375000,-153472.3,-124344.7,0.03,0.00,0.88,-4,0,-2,21,0
'[12:10:03.272 21/01/2026]',-139881.3,-205725.4,-110510.7,-9017.006,-375000,-375000,-153450.4,-124311.2,0.03,0.00,0.88,-4,0,-2,21,0
'[12:10:03.276 21/01/2026]',-139925.1,-205583.3,-110480.5,-8898.587,-375000,-375000,-153423.4,-124281.5,0.03,-0.02,0.88,-4,0,-2,21,0
'[12:10:03.280 21/01/2026]',-140018.8,-205395.8,-110432.1,-8824.066,-375000,-375000,-153439.1,-124311.1,0.03,-0.02,0.88,-4,0,-2,21,0
'[12:10:03.284 21/01/2026]',-139997.9,-205508.5,-110451.9,-8921.743,-375000,-375000,-153465.5,-124335.5,0.03,-0.02,0.88,-4,0,-2,21,0
'[12:10:03.288 21/01/2026]',-139908.5,-205711.6,-110512.5,-9017.229,-375000,-375000,-153462.2,-124315.2,0.03,-0.02,0.88,-4,0,-2,21,0
'[12:10:03.292 21/01/2026]',-139894.3,-205619.6,-110488,-8930.907,-375000,-375000,-153429.9,-124281.8,0.03,-0.02,0.88,-4,0,-2,21,0
'[12:10:03.296 21/01/2026]',-139981.9,-205385.7,-110408,-8807.973,-375000,-375000,-153417.2,-124282.5,0.03,-0.02,0.88,-4,0,-2,21,0
'[12:10:03.300 21/01/2026]',-139995.6,-205447.2,-110422.4,-8881.778,-375000,-375000,-153445.5,-124316.7,0.03,-0.02,0.88,-4,0,-2,21,0
'[12:10:03.304 21/01/2026]',-139905.9,-205674.2,-110500.2,-9004.132,-375000,-375000,-153448.4,-124309.3,0.03,-0.02,0.88,-4,0,-2,21,0
'[12:10:03.308 21/01/2026]',-139882.9,-205636.4,-110495.1,-8945.928,-375000,-375000,-153414,-124274,0.03,-0.02,0.88,-4,0,-2,21,0
'[12:10:03.312 21/01/2026]',-139981.9,-205408.7,-110415.1,-8822.278,-375000,-375000,-153416.4,-124293.5,0.03,0.00,0.88,-4,0,-2,21,0
'[12:10:03.316 21/01/2026]',-140026,-205425.3,-110438.6,-8888.037,-375000,-375000,-153460.3,-124340.6,0.03,0.00,0.88,-4,0,-2,21,0
'[12:10:03.320 21/01/2026]',-139940.1,-205663.3,-110487.8,-9013.206,-375000,-375000,-153466.8,-124330.1,0.03,0.00,0.88,-4,0,-2,21,0
'[12:10:03.324 21/01/2026]',-139891.6,-205681.2,-110509.9,-8982.45,-375000,-375000,-153428.2,-124284.1,0.03,0.00,0.88,-4,0,-2,21,0
'[12:10:03.328 21/01/2026]',-139960.1,-205445.3,-110436.8,-8835.197,-375000,-375000,-153421.8,-124287.6,0.03,0.00,0.88,-4,0,-2,21,0
'[12:10:03.332 21/01/2026]',-139995.7,-205398.3,-110392.9,-8844.451,-375000,-375000,-153438.5,-124309.5,0.03,0.00,0.88,-4,0,-2,21,0
'[12:10:03.336 21/01/2026]',-139921.5,-205619.3,-110466.2,-8979.992,-375000,-375000,-153442.4,-124303,0.03,0.00,0.88,-4,0,-2,21,0
'[12:10:03.340 21/01/2026]',-139879.3,-205700.9,-110511.4,-8992.33,-375000,-375000,-153425.1,-124276.1,0.03,0.00,0.88,-4,0,-2,21,0
'[12:10:03.344 21/01/2026]',-139949.3,-205491.7,-110476.7,-8872.122,-375000,-375000,-153426.2,-124288.4,0.03,0.00,0.88,-4,0,-2,21,0
'[12:10:03.348 21/01/2026]',-139987.5,-205377.8,-110423,-8838.014,-375000,-375000,-153441,-124317.3,0.03,0.00,0.86,-4,0,-2,21,0
'[12:10:03.352 21/01/2026]',-139973.4,-205587.9,-110468.5,-8977.176,-375000,-375000,-153479.2,-124352.9,0.03,0.00,0.86,-4,0,-2,21,0
'[12:10:03.356 21/01/2026]',-139908.4,-205720.6,-110509.8,-9021.388,-375000,-375000,-153451,-124314,0.03,0.00,0.86,-4,0,-2,21,0
'[12:10:03.360 21/01/2026]',-139941.4,-205532.4,-110459.7,-8871.586,-375000,-375000,-153409.8,-124273.1,0.03,0.00,0.86,-4,0,-2,21,0
'[12:10:03.364 21/01/2026]',-140013.8,-205385.3,-110399.7,-8820.713,-375000,-375000,-153434.9,-124304.6,0.03,0.00,0.86,-4,0,-2,21,0
'[12:10:03.368 21/01/2026]',-139952.7,-205531.7,-110419,-8929.343,-375000,-375000,-153448,-124322,0.03,0.00,0.86,-4,0,-2,21,0
'[12:10:03.372 21/01/2026]',-139869.2,-205712.6,-110489.8,-9010.613,-375000,-375000,-153429.7,-124290.4,0.03,0.00,0.86,-4,0,-2,21,0
'[12:10:03.376 21/01/2026]',-139894.5,-205572.5,-110464.6,-8891.881,-375000,-375000,-153403.1,-124260.4,0.03,0.00,0.86,-4,0,-2,21,0
'[12:10:03.380 21/01/2026]',-139972,-205386.6,-110416.2,-8804.128,-375000,-375000,-153417.6,-124291.7,0.03,0.00,0.86,-4,0,-2,21,0
'[12:10:03.384 21/01/2026]',-139978.5,-205516.2,-110425.6,-8913.607,-375000,-375000,-153455.7,-124331.3,0.02,0.00,0.88,-4,0,-2,21,0
'[12:10:03.388 21/01/2026]',-139912.8,-205729,-110502.4,-9026.707,-375000,-375000,-153450.5,-124322.1,0.02,0.00,0.88,-4,0,-2,21,0
'[12:10:03.392 21/01/2026]',-139921.2,-205621.7,-110495.2,-8937.076,-375000,-375000,-153429.6,-124301.5,0.02,0.00,0.88,-4,0,-2,21,0
'[12:10:03.396 21/01/2026]',-140021.9,-205404.9,-110425.5,-8821.205,-375000,-375000,-153433.7,-124312,0.02,0.00,0.88,-4,0,-2,21,0
'[12:10:03.400 21/01/2026]',-140005.9,-205479,-110432.9,-8891.837,-375000,-375000,-153449.2,-124325.7,0.02,0.00,0.88,-4,0,-2,21,0
'[12:10:03.404 21/01/2026]',-139908.5,-205692,-110489.2,-8998.409,-375000,-375000,-153450.6,-124313.2,0.02,0.00,0.88,-4,0,-2,21,0
'[12:10:03.408 21/01/2026]',-139896.3,-205637.3,-110477.6,-8928.493,-375000,-375000,-153425.2,-124281,0.02,0.00,0.88,-4,0,-2,21,0
'[12:10:03.412 21/01/2026]',-139991.2,-205418.1,-110413.5,-8815.796,-375000,-375000,-153431.4,-124300.6,0.02,0.00,0.88,-4,0,-2,21,0
'[12:10:03.416 21/01/2026]',-139995.5,-205429.3,-110404.5,-8858.175,-375000,-375000,-153444.1,-124320.3,0.02,0.00,0.88,-4,0,-2,21,0
'[12:10:03.420 21/01/2026]',-139901.7,-205649.6,-110463.4,-8981.914,-375000,-375000,-153432.5,-124308.7,0.02,0.00,0.88,-4,0,-2,21,0
'[12:10:03.424 21/01/2026]',-139881.8,-205670.7,-110485.1,-8958.177,-375000,-375000,-153415.5,-124282.4,0.02,0.00,0.88,-4,0,-2,21,0
'[12:10:03.428 21/01/2026]',-139977.8,-205447.5,-110437,-8822.367,-375000,-375000,-153403.1,-124283,0.02,0.00,0.88,-4,0,-2,21,0
'[12:10:03.432 21/01/2026]',-140018.8,-205407.8,-110410.8,-8836.583,-375000,-375000,-153417.8,-124305.8,0.02,0.00,0.88,-4,0,-2,21,0
'[12:10:03.436 21/01/2026]',-139933.1,-205623.5,-110466.3,-8968.593,-375000,-375000,-153437,-124313.9,0.02,0.00,0.88,-4,0,-2,21,0
'[12:10:03.440 21/01/2026]',-139884.5,-205696.3,-110498.5,-8973.778,-375000,-375000,-153415.1,-124283.9,0.02,0.00,0.88,-4,0,-2,21,0
'[12:10:03.444 21/01/2026]',-139969.3,-205483.9,-110444.3,-8838.773,-375000,-375000,-153413,-124295.3,0.02,0.00,0.88,-4,0,-2,21,0
'[12:10:03.448 21/01/2026]',-140036.3,-205393.4,-110421.4,-8835.733,-375000,-375000,-153445.9,-124331.3,0.02,0.00,0.88,-4,0,-2,21,0
'[12:10:03.452 21/01/2026]',-139970.2,-205593.2,-110448.7,-8956.389,-375000,-375000,-153464.3,-124332.5,0.02,0.00,0.88,-4,0,-2,21,0
'[12:10:03.456 21/01/2026]',-139891.6,-205705.5,-110486.1,-8987.681,-375000,-375000,-153423,-124279,0.03,0.00,0.89,-4,0,-2,21,0
'[12:10:03.460 21/01/2026]',-139938.9,-205516.1,-110432.9,-8861.975,-375000,-375000,-153403.4,-124267.7,0.03,0.00,0.89,-4,0,-2,21,0
'[12:10:03.464 21/01/2026]',-140009.6,-205366.3,-110394.9,-8808.106,-375000,-375000,-153426.1,-124315.1,0.03,0.00,0.89,-4,0,-2,21,0
'[12:10:03.468 21/01/2026]',-139962,-205537.2,-110446,-8932.293,-375000,-375000,-153457,-124345,0.03,0.00,0.89,-4,0,-2,21,0
'[12:10:03.472 21/01/2026]',-139895.3,-205711,-110492.5,-9007.529,-375000,-375000,-153433.6,-124306.5,0.03,0.00,0.89,-4,0,-2,21,0
'[12:10:03.476 21/01/2026]',-139929.3,-205546.6,-110455.6,-8884.64,-375000,-375000,-153410,-124277.3,0.03,0.00,0.89,-4,0,-2,21,0
'[12:10:03.480 21/01/2026]',-140007.9,-205364.3,-110415.8,-8805.425,-375000,-375000,-153432,-124315.2,0.03,0.00,0.89,-4,0,-2,21,0
'[12:10:03.484 21/01/2026]',-139988,-205502.4,-110446.3,-8913.875,-375000,-375000,-153464.6,-124351.5,0.03,0.00,0.89,-4,0,-2,21,0
'[12:10:03.488 21/01/2026]',-139894.3,-205694.2,-110491.2,-8992.464,-375000,-375000,-153439.8,-124309.5,0.03,0.00,0.89,-4,0,-2,21,0
'[12:10:03.492 21/01/2026]',-139903.9,-205573.3,-110466.2,-8880.348,-375000,-375000,-153407.6,-124277,0.03,0.00,0.88,-4,0,-2,21,0
'[12:10:03.496 21/01/2026]',-139998.1,-205375,-110407.1,-8788.482,-375000,-375000,-153439.3,-124322.4,0.03,0.00,0.88,-4,0,-2,21,0
'[12:10:03.500 21/01/2026]',-140010.1,-205453.4,-110426.1,-8875.296,-375000,-375000,-153455.1,-124349.5,0.03,0.00,0.88,-4,0,-2,21,0
'[12:10:03.504 21/01/2026]',-139919,-205669.2,-110497,-8996.175,-375000,-375000,-153451.9,-124334.5,0.03,0.00,0.88,-4,0,-2,21,0
'[12:10:03.508 21/01/2026]',-139904.5,-205619.1,-110478,-8923.755,-375000,-375000,-153412.8,-124286.6,0.03,0.00,0.88,-4,0,-2,21,0
'[12:10:03.512 21/01/2026]',-139995.1,-205395.6,-110391.4,-8786.247,-375000,-375000,-153405.7,-124287.9,0.03,0.00,0.88,-4,0,-2,21,0
'[12:10:03.516 21/01/2026]',-140007.5,-205419.6,-110394.7,-8851.916,-375000,-375000,-153453.5,-124348.2,0.03,0.00,0.88,-4,0,-2,21,0
'[12:10:03.520 21/01/2026]',-139914,-205639.3,-110480.7,-8987.189,-375000,-375000,-153458.9,-124342.3,0.03,0.00,0.88,-4,0,-2,21,0
'[12:10:03.524 21/01/2026]',-139889.5,-205638.4,-110493.8,-8947.806,-375000,-375000,-153412.2,-124281.6,0.03,0.00,0.88,-4,0,-2,21,0
'[12:10:03.528 21/01/2026]',-139976.1,-205416,-110430.2,-8812.801,-375000,-375000,-153417.5,-124289.3,0.03,0.00,0.88,-4,0,-2,21,0
'[12:10:03.532 21/01/2026]',-140028.6,-205399.9,-110412.1,-8845.747,-375000,-375000,-153458.8,-124352.5,0.03,0.00,0.88,-4,0,-2,21,0
'[12:10:03.536 21/01/2026]',-139936.3,-205610.1,-110463.5,-8969.889,-375000,-375000,-153448,-124346.6,0.03,0.00,0.88,-4,0,-2,21,0
'[12:10:03.540 21/01/2026]',-139866.3,-205680.9,-110506.8,-8971.812,-375000,-375000,-153422.8,-124306.3,0.03,0.00,0.88,-4,0,-2,21,0
'[12:10:03.544 21/01/2026]',-139949,-205469.7,-110454.9,-8841.321,-375000,-375000,-153425.6,-124306.9,0.03,0.00,0.88,-4,0,-2,21,0
'[12:10:03.548 21/01/2026]',-140034.6,-205391.8,-110416.5,-8838.818,-375000,-375000,-153455.8,-124348.9,0.03,0.00,0.88,-4,0,-2,21,0
'[12:10:03.552 21/01/2026]',-139953.8,-205581.5,-110455.2,-8964.703,-375000,-375000,-153445.8,-124332.5,0.03,0.00,0.88,-4,0,-2,21,0
'[12:10:03.556 21/01/2026]',-139870.2,-205688.7,-110497.2,-8983.702,-375000,-375000,-153416.1,-124285.2,0.03,0.00,0.88,-4,0,-2,21,0
'[12:10:03.560 21/01/2026]',-139919.2,-205490.3,-110472.6,-8862.779,-375000,-375000,-153417.1,-124294.7,0.03,0.00,0.88,-4,0,-2,21,0
'[12:10:03.564 21/01/2026]',-139984.7,-205363.9,-110417.3,-8818.479,-375000,-375000,-153451.2,-124341.7,0.02,0.00,0.88,-4,0,-2,21,0
'[12:10:03.568 21/01/2026]',-139976.3,-205576.3,-110459.7,-8932.74,-375000,-375000,-153459.3,-124352.9,0.02,0.00,0.88,-4,0,-2,21,0
'[12:10:03.572 21/01/2026]',-139898.8,-205754.3,-110528.8,-8993.045,-375000,-375000,-153425.5,-124309.1,0.02,0.00,0.88,-4,0,-2,21,0
'[12:10:03.576 21/01/2026]',-139935.5,-205592.5,-110488.2,-8879.633,-375000,-375000,-153407.6,-124303.6,0.02,0.00,0.88,-4,0,-2,21,0
'[12:10:03.580 21/01/2026]',-140030,-205419.5,-110423.5,-8807.079,-375000,-375000,-153431,-124327,0.02,0.00,0.88,-4,0,-2,21,0
'[12:10:03.584 21/01/2026]',-140003,-205552.2,-110448.5,-8915.038,-375000,-375000,-153467.3,-124350.4,0.02,0.00,0.88,-4,0,-2,21,0
'[12:10:03.588 21/01/2026]',-139906.2,-205743.2,-110507.3,-8990.676,-375000,-375000,-153437.8,-124307.1,0.02,0.00,0.88,-4,0,-2,21,0
'[12:10:03.592 21/01/2026]',-139914.6,-205627,-110476.4,-8885.533,-375000,-375000,-153394.8,-124265.5,0.02,0.00,0.88,-4,0,-2,21,0
'[12:10:03.596 21/01/2026]',-140007,-205423.6,-110412.6,-8796.395,-375000,-375000,-153421.4,-124309.1,0.02,0.00,0.88,-4,0,-2,21,0
'[12:10:03.600 21/01/2026]',-140009.2,-205512.2,-110432.3,-8893.133,-375000,-375000,-153460.2,-124356.2,0.03,0.00,0.88,-4,0,-2,21,0
'[12:10:03.604 21/01/2026]',-139907.7,-205721.2,-110500.7,-8999.93,-375000,-375000,-153447.9,-124335.6,0.03,0.00,0.88,-4,0,-2,21,0
'[12:10:03.608 21/01/2026]',-139912.2,-205668,-110497.2,-8930.237,-375000,-375000,-153422,-124295.2,0.03,0.00,0.88,-4,0,-2,21,0
'[12:10:03.612 21/01/2026]',-140003.1,-205450.8,-110417.2,-8825.81,-375000,-375000,-153422.8,-124313.6,0.03,0.00,0.88,-4,0,-2,21,0
'[12:10:03.616 21/01/2026]',-140016.1,-205470.9,-110416.9,-8878.291,-375000,-375000,-153455.8,-124355.4,0.03,0.00,0.88,-4,0,-2,21,0
'[12:10:03.620 21/01/2026]',-139939.8,-205701.8,-110489.6,-9005.249,-375000,-375000,-153460.5,-124344.3,0.03,0.00,0.88,-4,0,-2,21,0
'[12:10:03.624 21/01/2026]',-139913,-205691.5,-110497.4,-8960.322,-375000,-375000,-153408.9,-124282,0.03,0.00,0.88,-4,0,-2,21,0
'[12:10:03.628 21/01/2026]',-140000.4,-205462.5,-110437.5,-8828.492,-375000,-375000,-153409.7,-124299.7,0.03,0.00,0.88,-4,0,-2,21,0
'[12:10:03.632 21/01/2026]',-140035.6,-205433.8,-110417.2,-8850.575,-375000,-375000,-153443.7,-124339.4,0.03,0.00,0.88,-4,0,-2,21,0
'[12:10:03.636 21/01/2026]',-139947.6,-205650.2,-110474,-8973.376,-375000,-375000,-153444.6,-124331.5,0.02,0.02,0.88,-4,0,-2,21,0
'[12:10:03.640 21/01/2026]',-139893.2,-205709,-110506.6,-8964.032,-375000,-375000,-153415.5,-124294.9,0.02,0.02,0.88,-4,0,-2,21,0
'[12:10:03.644 21/01/2026]',-139974.3,-205494.7,-110443.6,-8833.364,-375000,-375000,-153416.6,-124305.7,0.02,0.02,0.88,-4,0,-2,21,0
'[12:10:03.648 21/01/2026]',-140039.4,-205404.9,-110393,-8811.906,-375000,-375000,-153445.8,-124340.8,0.02,0.02,0.88,-4,0,-2,21,0
'[12:10:03.652 21/01/2026]',-139989.5,-205612.4,-110453.9,-8956.656,-375000,-375000,-153477,-124365.1,0.02,0.02,0.88,-4,0,-2,21,0
'[12:10:03.656 21/01/2026]',-139921.7,-205704.3,-110513.7,-8997.471,-375000,-375000,-153456.6,-124333.9,0.02,0.02,0.88,-4,0,-2,21,0
