'Time and date','Fp1','Fp2','F3','Fz','F4','P3','Pz','P4','AccX','AccY','AccZ','GyroX','GyroY','GyroZ','Battery','Event'
'[hh:mm:ss.mmm dd/mm/yyyy]','uV','uV','uV','uV','uV','uV','uV','uV','G','G','G','Deg/s','Deg/s','Deg/s','%','Button'
'[11:34:00.000 21/01/2026]',-105236.5,-171844,-115567.8,21593.8,-375000,-375000,-147945.1,-127799.4,0.03,-0.02,0.86,-4,0,-2,37,0
'[11:34:00.004 21/01/2026]',-106725,-174314.2,-117021.9,20275.76,-375000,-375000,-149221.1,-128884.1,0.03,-0.02,0.86,-4,0,-2,37,0
'[11:34:00.008 21/01/2026]',-105115.6,-172675.7,-115343.1,22142.8,-375000,-375000,-147766.8,-127242.1,0.03,-0.02,0.86,-4,0,-2,37,0
'[11:34:00.012 21/01/2026]',-103462.8,-170068.2,-113712.7,23663.17,-375000,-375000,-146347,-125975,0.03,-0.02,0.86,-4,0,-2,37,0
'[11:34:00.016 21/01/2026]',-104851.2,-171332.5,-115178.9,21992.02,-375000,-375000,-147599.8,-127454,0.03,-0.02,0.86,-4,0,-2,37,0
'[11:34:00.020 21/01/2026]',-106665.8,-174112.7,-116978.8,20276.47,-375000,-375000,-149177,-128893.5,0.03,-0.02,0.86,-4,0,-2,37,0
'[11:34:00.024 21/01/2026]',-105496.3,-173178.8,-115727,21744.27,-375000,-375000,-148103.7,-127581.8,0.03,-0.02,0.86,-4,0,-2,37,0
'[11:34:00.028 21/01/2026]',-103558.4,-170307.8,-113797.1,23620.96,-375000,-375000,-146426.2,-126012,0.03,-0.02,0.86,-4,0,-2,37,0
'[11:34:00.032 21/01/2026]',-104447.2,-170822,-114760.7,22409.81,-375000,-375000,-147256,-127113.3,0.03,-0.02,0.86,-4,0,-2,37,0
'[11:34:00.036 21/01/2026]',-105236.5,-171844,-115567.8,21593.8,-375000,-375000,-147945.1,-127799.4,0.03,-0.02,0.86,-4,0,-2,37,0
'[11:34:00.040 21/01/2026]',-106725,-174314.2,-117021.9,20275.76,-375000,-375000,-149221.1,-128884.1,0.03,-0.02,0.86,-4,0,-2,37,0
'[11:34:00.044 21/01/2026]',-105115.6,-172675.7,-115343.1,22142.8,-375000,-375000,-147766.8,-127242.1,0.03,-0.02,0.86,-4,0,-2,37,0
'[11:34:00.048 21/01/2026]',-103462.8,-170068.2,-113712.7,23663.17,-375000,-375000,-146347,-125975,0.03,-0.02,0.86,-4,0,-2,37,0
'[11:34:00.052 21/01/2026]',-104851.2,-171332.5,-115178.9,21992.02,-375000,-375000,-147599.8,-127454,0.03,-0.02,0.86,-4,0,-2,37,0
'[11:34:00.056 21/01/2026]',-106665.8,-174112.7,-116978.8,20276.47,-375000,-375000,-149177,-128893.5,0.03,-0.02,0.86,-4,0,-2,37,0
'[11:34:00.060 21/01/2026]',-105496.3,-173178.8,-115727,21744.27,-375000,-375000,-148103.7,-127581.8,0.03,-0.02,0.86,-4,0,-2,37,0
'[11:34:00.064 21/01/2026]',-103558.4,-170307.8,-113797.1,23620.96,-375000,-375000,-146426.2,-126012,0.03,-0.02,0.86,-4,0,-2,37,0
'[11:34:00.068 21/01/2026]',-104447.2,-170822,-114760.7,22409.81,-375000,-375000,-147256,-127113.3,0.03,-0.02,0.86,-4,0,-2,37,0
'[11:34:00.072 21/01/2026]',-106487.4,-173758.5,-116808.1,20408.48,-375000,-375000,-149025.7,-128794.4,0.03,-0.02,0.88,-4,0,-2,37,0
'[11:34:00.076 21/01/2026]',-105864.7,-173611.6,-116117.5,21341.09,-375000,-375000,-148434.1,-127936.3,0.03,-0.02,0.88,-4,0,-2,37,0
'[11:34:00.080 21/01/2026]',-103788.7,-170707.7,-114046.9,23418.14,-375000,-375000,-146612.5,-126162.5,0.03,-0.02,0.88,-4,0,-2,37,0
'[11:34:00.084 21/01/2026]',-104098.3,-170424.7,-114408.1,22790.64,-375000,-375000,-146944.3,-126780.5,0.03,-0.02,0.88,-4,0,-2,37,0
'[11:34:00.088 21/01/2026]',-106244.9,-173351.1,-116568.4,20610.01,-375000,-375000,-148823.6,-128622.8,0.03,-0.02,0.88,-4,0,-2,37,0
'[11:34:00.092 21/01/2026]',-106222,-174015.7,-116477.9,20940.41,-375000,-375000,-148736.1,-128266.5,0.03,-0.02,0.88,-4,0,-2,37,0
'[11:34:00.096 21/01/2026]',-104058.8,-171161.6,-114287.5,23168.83,-375000,-375000,-146843.8,-126358.1,0.03,-0.02,0.88,-4,0,-2,37,0
'[11:34:00.100 21/01/2026]',-103790.3,-170105.3,-114079.8,23159.45,-375000,-375000,-146663.1,-126448,0.03,-0.02,0.88,-4,0,-2,37,0
'[11:34:00.104 21/01/2026]',-105917,-172823.9,-116239.9,20928.29,-375000,-375000,-148530.2,-128361.5,0.03,-0.02,0.88,-4,0,-2,37,0
'[11:34:00.108 21/01/2026]',-106474.7,-174224.5,-116744.9,20629.63,-375000,-375000,-148985.3,-128554.2,0.05,-0.02,0.88,-4,0,-2,37,0
'[11:34:00.112 21/01/2026]',-104401.1,-171690.8,-114634,22842.72,-375000,-375000,-147142.4,-126628.1,0.05,-0.02,0.88,-4,0,-2,37,0
'[11:34:00.116 21/01/2026]',-103586.8,-169956.4,-113858.6,23430.84,-375000,-375000,-146464.4,-126197.8,0.05,-0.02,0.88,-4,0,-2,37,0
'[11:34:00.120 21/01/2026]',-105560.6,-172302,-115875.3,21267.15,-375000,-375000,-148221.6,-128073.2,0.05,-0.02,0.88,-4,0,-2,37,0
'[11:34:00.124 21/01/2026]',-106664.9,-174344.6,-116950,20381.21,-375000,-375000,-149152.5,-128770,0.05,-0.02,0.88,-4,0,-2,37,0
'[11:34:00.128 21/01/2026]',-104776,-172213.3,-115016.5,22472.18,-375000,-375000,-147463,-126939.3,0.05,-0.02,0.88,-4,0,-2,37,0
'[11:34:00.132 21/01/2026]',-103462.3,-169928.5,-113723.2,23593.12,-375000,-375000,-146350.7,-126033,0.05,-0.02,0.88,-4,0,-2,37,0
'[11:34:00.136 21/01/2026]',-105211.6,-171837.7,-115523.3,21606.71,-375000,-375000,-147907.9,-127775.9,0.05,-0.02,0.88,-4,0,-2,37,0
'[11:34:00.140 21/01/2026]',-106719.9,-174298.2,-117014.5,20273.43,-375000,-375000,-149209.5,-128881,0.05,-0.02,0.88,-4,0,-2,37,0
'[11:34:00.144 21/01/2026]',-105135.5,-172710.7,-115367.3,22114.19,-375000,-375000,-147768.5,-127241.3,0.03,0.00,0.86,-4,0,-2,37,0
'[11:34:00.148 21/01/2026]',-103446.3,-170041.3,-113694.7,23675.91,-375000,-375000,-146321.9,-125956,0.03,0.00,0.86,-4,0,-2,37,0
'[11:34:00.152 21/01/2026]',-104798.5,-171273.1,-115122.4,22025.1,-375000,-375000,-147558.3,-127422.8,0.03,0.00,0.86,-4,0,-2,37,0
'[11:34:00.156 21/01/2026]',-106673.6,-174096.9,-116974.7,20268.61,-375000,-375000,-149163.3,-128886.1,0.03,0.00,0.86,-4,0,-2,37,0
'[11:34:00.160 21/01/2026]',-105566.7,-173236.6,-115811.6,21660.45,-375000,-375000,-148148.4,-127624.6,0.03,0.00,0.86,-4,0,-2,37,0
'[11:34:00.164 21/01/2026]',-103558.8,-170332,-113795.1,23601.83,-375000,-375000,-146415.4,-126001.4,0.03,0.00,0.86,-4,0,-2,37,0
'[11:34:00.168 21/01/2026]',-104441.8,-170820.8,-114743.4,22415.27,-375000,-375000,-147233.3,-127093.2,0.03,0.00,0.86,-4,0,-2,37,0
'[11:34:00.172 21/01/2026]',-106502.9,-173778.3,-116815.6,20383.14,-375000,-375000,-149036.6,-128806.9,0.03,0.00,0.86,-4,0,-2,37,0
'[11:34:00.176 21/01/2026]',-105892.1,-173650.3,-116151.9,21298.13,-375000,-375000,-148452.9,-127952.1,0.03,0.00,0.86,-4,0,-2,37,0
'[11:34:00.180 21/01/2026]',-103781.3,-170725.9,-114028,23419.22,-375000,-375000,-146590.9,-126137.7,0.02,-0.02,0.86,-4,0,-2,37,0
'[11:34:00.184 21/01/2026]',-104060.6,-170384.4,-114357,22835.48,-375000,-375000,-146899.5,-126732.1,0.02,-0.02,0.86,-4,0,-2,37,0
'[11:34:00.188 21/01/2026]',-106226.4,-173305.3,-116540.6,20635.44,-375000,-375000,-148791,-128600.4,0.02,-0.02,0.86,-4,0,-2,37,0
'[11:34:00.192 21/01/2026]',-106220.1,-174000.6,-116463.3,20937.91,-375000,-375000,-148739.4,-128274,0.02,-0.02,0.86,-4,0,-2,37,0
'[11:34:00.196 21/01/2026]',-104097.9,-171213.8,-114331.2,23140.13,-375000,-375000,-146855.7,-126371.1,0.02,-0.02,0.86,-4,0,-2,37,0
'[11:34:00.200 21/01/2026]',-103774,-170102.9,-114056.6,23173.8,-375000,-375000,-146637,-126428.6,0.02,-0.02,0.86,-4,0,-2,37,0
'[11:34:00.204 21/01/2026]',-105895.5,-172802.7,-116203.3,20940.95,-375000,-375000,-148507.7,-128344.6,0.02,-0.02,0.86,-4,0,-2,37,0
'[11:34:00.208 21/01/2026]',-106487.6,-174247.7,-116746.1,20608.62,-375000,-375000,-148989.8,-128563.1,0.02,-0.02,0.86,-4,0,-2,37,0
'[11:34:00.212 21/01/2026]',-104418.8,-171728.1,-114643.1,22819.83,-375000,-375000,-147151,-126643.2,0.02,-0.02,0.86,-4,0,-2,37,0
'[11:34:00.216 21/01/2026]',-103557.2,-169940,-113820.5,23452.43,-375000,-375000,-146430.5,-126169.1,0.03,-0.02,0.88,-4,0,-2,37,0
'[11:34:00.220 21/01/2026]',-105548.6,-172266.8,-115870.3,21280.38,-375000,-375000,-148201.2,-128059.4,0.03,-0.02,0.88,-4,0,-2,37,0
'[11:34:00.224 21/01/2026]',-106673.9,-174333.9,-116947.2,20378.49,-375000,-375000,-149142.1,-128773.5,0.03,-0.02,0.88,-4,0,-2,37,0
'[11:34:00.228 21/01/2026]',-104772.9,-172248.4,-114992.7,22470.79,-375000,-375000,-147464.5,-126945.1,0.03,-0.02,0.88,-4,0,-2,37,0
'[11:34:00.232 21/01/2026]',-103451.3,-169934.2,-113718.4,23614.21,-375000,-375000,-146334.2,-126016,0.03,-0.02,0.88,-4,0,-2,37,0
'[11:34:00.236 21/01/2026]',-105164.8,-171737.2,-115490.7,21659.64,-375000,-375000,-147855.7,-127725.4,0.03,-0.02,0.88,-4,0,-2,37,0
'[11:34:00.240 21/01/2026]',-106711.6,-174282.5,-117000.4,20266.46,-375000,-375000,-149203.6,-128885.7,0.03,-0.02,0.88,-4,0,-2,37,0
'[11:34:00.244 21/01/2026]',-105174.2,-172774,-115391.8,22069.53,-375000,-375000,-147810.5,-127280.4,0.03,-0.02,0.88,-4,0,-2,37,0
'[11:34:00.248 21/01/2026]',-103459.1,-170079.2,-113694.6,23660.26,-375000,-375000,-146337.3,-125963.4,0.03,-0.02,0.88,-4,0,-2,37,0
'[11:34:00.252 21/01/2026]',-104782.1,-171230.8,-115095.7,22048.56,-375000,-375000,-147530.8,-127399.4,0.03,-0.02,0.89,-4,0,-2,37,0
'[11:34:00.256 21/01/2026]',-106651.2,-174063.9,-116955.1,20277.5,-375000,-375000,-149156,-128884.6,0.03,-0.02,0.89,-4,0,-2,37,0
'[11:34:00.260 21/01/2026]',-105588.3,-173270.7,-115831,21643.01,-375000,-375000,-148168.9,-127647.1,0.03,-0.02,0.89,-4,0,-2,37,0
'[11:34:00.264 21/01/2026]',-103575.8,-170374.3,-113807.3,23593.61,-375000,-375000,-146423.1,-126011,0.03,-0.02,0.89,-4,0,-2,37,0
'[11:34:00.268 21/01/2026]',-104370.1,-170750.7,-114665.4,22480,-375000,-375000,-147175.4,-127039.6,0.03,-0.02,0.89,-4,0,-2,37,0
'[11:34:00.272 21/01/2026]',-106469.7,-173705.6,-116778.1,20417.78,-375000,-375000,-148999.9,-128780,0.03,-0.02,0.89,-4,0,-2,37,0
'[11:34:00.276 21/01/2026]',-105949.1,-173703.5,-116184.9,21247.39,-375000,-375000,-148493.7,-127996.9,0.03,-0.02,0.89,-4,0,-2,37,0
'[11:34:00.280 21/01/2026]',-103809.7,-170776.8,-114035.7,23387.88,-375000,-375000,-146625,-126170.1,0.03,-0.02,0.89,-4,0,-2,37,0
'[11:34:00.284 21/01/2026]',-104012.2,-170334.7,-114294.9,22880.05,-375000,-375000,-146860.5,-126691.2,0.03,-0.02,0.89,-4,0,-2,37,0
'[11:34:00.288 21/01/2026]',-106174.7,-173243.4,-116469.9,20682.78,-375000,-375000,-148746.5,-128558.6,0.02,-0.02,0.88,-4,0,-2,37,0
'[11:34:00.292 21/01/2026]',-106260.2,-174036.3,-116510.3,20888.42,-375000,-375000,-148773.8,-128308.5,0.02,-0.02,0.88,-4,0,-2,37,0
'[11:34:00.296 21/01/2026]',-104115,-171254.3,-114336.1,23119.62,-375000,-375000,-146873.7,-126384,0.02,-0.02,0.88,-4,0,-2,37,0
'[11:34:00.300 21/01/2026]',-103736,-170071.3,-114006.9,23219.08,-375000,-375000,-146591.3,-126376.4,0.02,-0.02,0.88,-4,0,-2,37,0
'[11:34:00.304 21/01/2026]',-105851.3,-172754.8,-116157.3,20981.49,-375000,-375000,-148456.5,-128307.4,0.02,-0.02,0.88,-4,0,-2,37,0
'[11:34:00.308 21/01/2026]',-106509.9,-174253.3,-116760.9,20586.54,-375000,-375000,-148998,-128584.1,0.02,-0.02,0.88,-4,0,-2,37,0
'[11:34:00.312 21/01/2026]',-104449.2,-171756.7,-114663.3,22804.05,-375000,-375000,-147162.2,-126660.4,0.02,-0.02,0.88,-4,0,-2,37,0
'[11:34:00.316 21/01/2026]',-103527.6,-169921,-113786.7,23475.72,-375000,-375000,-146414,-126154.2,0.02,-0.02,0.88,-4,0,-2,37,0
'[11:34:00.320 21/01/2026]',-105524.9,-172235.7,-115834.6,21304.07,-375000,-375000,-148167.3,-128029.3,0.02,-0.02,0.88,-4,0,-2,37,0
'[11:34:00.324 21/01/2026]',-106684.1,-174352.4,-116968.3,20350.64,-375000,-375000,-149161.1,-128792.4,0.03,-0.02,0.88,-4,0,-2,37,0
'[11:34:00.328 21/01/2026]',-104820.7,-172301.4,-115032,22431.58,-375000,-375000,-147491.2,-126971.5,0.03,-0.02,0.88,-4,0,-2,37,0
'[11:34:00.332 21/01/2026]',-103433.5,-169925.9,-113674.7,23640.86,-375000,-375000,-146314.7,-125993.5,0.03,-0.02,0.88,-4,0,-2,37,0
'[11:34:00.336 21/01/2026]',-105111.8,-171690,-115425.1,21702.16,-375000,-375000,-147826.5,-127696.8,0.03,-0.02,0.88,-4,0,-2,37,0
'[11:34:00.340 21/01/2026]',-106719.3,-174269.1,-117027.9,20250.19,-375000,-375000,-149208.7,-128893.7,0.03,-0.02,0.88,-4,0,-2,37,0
'[11:34:00.344 21/01/2026]',-105219.9,-172806.2,-115452,22024.02,-375000,-375000,-147848,-127323,0.03,-0.02,0.88,-4,0,-2,37,0
'[11:34:00.348 21/01/2026]',-103453.1,-170094.5,-113675.6,23675.5,-375000,-375000,-146321.4,-125947.3,0.03,-0.02,0.88,-4,0,-2,37,0
'[11:34:00.352 21/01/2026]',-104760.3,-171192.2,-115078.5,22078.02,-375000,-375000,-147495.8,-127366.9,0.03,-0.02,0.88,-4,0,-2,37,0
'[11:34:00.356 21/01/2026]',-106615,-174023.1,-116918.9,20297.3,-375000,-375000,-149130.4,-128868.4,0.03,-0.02,0.88,-4,0,-2,37,0
'[11:34:00.360 21/01/2026]',-105593.2,-173314.1,-115817.5,21619.19,-375000,-375000,-148182.4,-127663.4,0.03,-0.02,0.88,-4,0,-2,37,0
'[11:34:00.364 21/01/2026]',-103601.9,-170413.1,-113826.1,23570.94,-375000,-375000,-146446.9,-126023.1,0.03,-0.02,0.88,-4,0,-2,37,0
'[11:34:00.368 21/01/2026]',-104361.9,-170728,-114656.6,22498.51,-375000,-375000,-147164.8,-127019.2,0.03,-0.02,0.88,-4,0,-2,37,0
'[11:34:00.372 21/01/2026]',-106439.5,-173649.4,-116740,20446.21,-375000,-375000,-148976.6,-128761,0.03,-0.02,0.88,-4,0,-2,37,0
'[11:34:00.376 21/01/2026]',-105963.3,-173716.9,-116218.6,21223.47,-375000,-375000,-148508.7,-128022.1,0.03,-0.02,0.88,-4,0,-2,37,0
'[11:34:00.380 21/01/2026]',-103830.6,-170806.1,-114043.7,23379.61,-375000,-375000,-146636,-126179.2,0.03,-0.02,0.88,-4,0,-2,37,0
'[11:34:00.384 21/01/2026]',-104012.4,-170309.8,-114294.5,22894.49,-375000,-375000,-146844.7,-126671,0.03,-0.02,0.88,-4,0,-2,37,0
'[11:34:00.388 21/01/2026]',-106163.9,-173206.4,-116503.2,20677.2,-375000,-375000,-148746.4,-128562.7,0.03,-0.02,0.88,-4,0,-2,37,0
'[11:34:00.392 21/01/2026]',-106267.9,-174043.4,-116526.4,20871.61,-375000,-375000,-148787.9,-128329.7,0.03,-0.02,0.88,-4,0,-2,37,0
'[11:34:00.396 21/01/2026]',-104131.9,-171277.2,-114353,23102.36,-375000,-375000,-146895.5,-126403.7,0.03,-0.02,0.88,-4,0,-2,37,0
'[11:34:00.400 21/01/2026]',-103697.1,-170021.2,-113965.7,23252.29,-375000,-375000,-146581.6,-126360.4,0.03,-0.02,0.88,-4,0,-2,37,0
'[11:34:00.404 21/01/2026]',-105822.5,-172681.3,-116122.1,21004.83,-375000,-375000,-148454.8,-128299.4,0.03,-0.02,0.88,-4,0,-2,37,0
'[11:34:00.408 21/01/2026]',-106548,-174300.7,-116801,20543.67,-375000,-375000,-149038.8,-128631.6,0.03,-0.02,0.88,-4,0,-2,37,0
'[11:34:00.412 21/01/2026]',-104492.5,-171835.6,-114721,22752.29,-375000,-375000,-147210.2,-126706.1,0.03,-0.02,0.88,-4,0,-2,37,0
'[11:34:00.416 21/01/2026]',-103496.2,-169899.5,-113753.6,23515.11,-375000,-375000,-146392.3,-126125.5,0.03,-0.02,0.88,-4,0,-2,37,0
'[11:34:00.420 21/01/2026]',-105443.7,-172169.8,-115753.6,21362.41,-375000,-375000,-148126.1,-127994.3,0.03,-0.02,0.88,-4,0,-2,37,0
'[11:34:00.424 21/01/2026]',-106674.6,-174355.8,-116966.5,20334.59,-375000,-375000,-149180.3,-128827.4,0.03,-0.02,0.88,-4,0,-2,37,0
'[11:34:00.428 21/01/2026]',-104857.9,-172342.7,-115095.2,22379.24,-375000,-375000,-147543.6,-127029.5,0.03,-0.02,0.88,-4,0,-2,37,0
'[11:34:00.432 21/01/2026]',-103426.9,-169930.4,-113690.9,23641.35,-375000,-375000,-146318.3,-125993.6,0.03,0.00,0.88,-4,0,-2,37,0
'[11:34:00.436 21/01/2026]',-105050.3,-171630.4,-115375,21746.32,-375000,-375000,-147794.1,-127665.4,0.03,0.00,0.88,-4,0,-2,37,0
'[11:34:00.440 21/01/2026]',-106699.6,-174248.7,-117015.2,20248.27,-375000,-375000,-149220,-128906.3,0.03,0.00,0.88,-4,0,-2,37,0
'[11:34:00.444 21/01/2026]',-105246.3,-172869,-115470.2,21991.57,-375000,-375000,-147873.3,-127353.9,0.03,0.00,0.88,-4,0,-2,37,0
'[11:34:00.448 21/01/2026]',-103465.6,-170109.2,-113708.9,23656.68,-375000,-375000,-146337.5,-125959.8,0.03,0.00,0.88,-4,0,-2,37,0
'[11:34:00.452 21/01/2026]',-104680.4,-171119.8,-114979.1,22145.84,-375000,-375000,-147440.2,-127311.6,0.03,0.00,0.88,-4,0,-2,37,0
'[11:34:00.456 21/01/2026]',-106586.3,-173980.7,-116879.6,20325.69,-375000,-375000,-149101.5,-128849,0.03,0.00,0.88,-4,0,-2,37,0
'[11:34:00.460 21/01/2026]',-105636.1,-173346.9,-115885.7,21574.48,-375000,-375000,-148224.7,-127717.5,0.03,0.00,0.88,-4,0,-2,37,0
'[11:34:00.464 21/01/2026]',-103616.3,-170425.9,-113865.9,23542.02,-375000,-375000,-146467.9,-126044.7,0.03,0.00,0.88,-4,0,-2,37,0
'[11:34:00.468 21/01/2026]',-104301.9,-170660.3,-114616.8,22543.7,-375000,-375000,-147115.6,-126964.3,0.03,0.00,0.89,-4,0,-2,37,0
'[11:34:00.472 21/01/2026]',-106404.2,-173625.2,-116694.2,20473.08,-375000,-375000,-148954.3,-128740.1,0.03,0.00,0.89,-4,0,-2,37,0
'[11:34:00.476 21/01/2026]',-105989.9,-173750.1,-116234.6,21185.97,-375000,-375000,-148549.5,-128059.4,0.03,0.00,0.89,-4,0,-2,37,0
'[11:34:00.480 21/01/2026]',-103838.3,-170841.6,-114085.3,23356.05,-375000,-375000,-146662.8,-126195.7,0.03,0.00,0.89,-4,0,-2,37,0
'[11:34:00.484 21/01/2026]',-103975.6,-170292.1,-114287.4,22907.36,-375000,-375000,-146835.8,-126655.6,0.03,0.00,0.89,-4,0,-2,37,0
'[11:34:00.488 21/01/2026]',-106133.5,-173171.8,-116454.1,20691.63,-375000,-375000,-148733.8,-128556.4,0.03,0.00,0.89,-4,0,-2,37,0
'[11:34:00.492 21/01/2026]',-106298.1,-174076.7,-116553.1,20828.21,-375000,-375000,-148827.6,-128376.8,0.03,0.00,0.89,-4,0,-2,37,0
'[11:34:00.496 21/01/2026]',-104140.6,-171329.3,-114362.6,23079.7,-375000,-375000,-146931.3,-126447,0.03,0.00,0.89,-4,0,-2,37,0
'[11:34:00.500 21/01/2026]',-103679.1,-170005.9,-113955.4,23276.93,-375000,-375000,-146571.4,-126357.9,0.03,0.00,0.89,-4,0,-2,37,0
'[11:34:00.504 21/01/2026]',-105763.6,-172621.7,-116080.9,21052.62,-375000,-375000,-148412.3,-128267.1,0.03,-0.02,0.88,-4,0,-2,37,0
'[11:34:00.508 21/01/2026]',-106551.7,-174287.9,-116847.1,20514.92,-375000,-375000,-149069.7,-128671.6,0.03,-0.02,0.88,-4,0,-2,37,0
'[11:34:00.512 21/01/2026]',-104504.6,-171867.3,-114726.4,22724.04,-375000,-375000,-147252.9,-126754.9,0.03,-0.02,0.88,-4,0,-2,37,0
'[11:34:00.516 21/01/2026]',-103466.1,-169879.6,-113720.4,23546.85,-375000,-375000,-146391.4,-126120.9,0.03,-0.02,0.88,-4,0,-2,37,0
'[11:34:00.520 21/01/2026]',-105420.5,-172102.5,-115739.4,21392.45,-375000,-375000,-148112.7,-127977.2,0.03,-0.02,0.88,-4,0,-2,37,0
'[11:34:00.524 21/01/2026]',-106680.9,-174320.3,-116964.2,20334.41,-375000,-375000,-149188.1,-128840.9,0.03,-0.02,0.88,-4,0,-2,37,0
'[11:34:00.528 21/01/2026]',-104862.6,-172363.2,-115081.5,22370.65,-375000,-375000,-147566.9,-127055.3,0.03,-0.02,0.88,-4,0,-2,37,0
'[11:34:00.532 21/01/2026]',-103401.9,-169926.8,-113654.9,23658.25,-375000,-375000,-146325.3,-125999.4,0.03,-0.02,0.88,-4,0,-2,37,0
'[11:34:00.536 21/01/2026]',-105031.5,-171583.9,-115348.5,21767.34,-375000,-375000,-147776.6,-127650.5,0.03,-0.02,0.88,-4,0,-2,37,0
'[11:34:00.540 21/01/2026]',-106686.3,-174210.7,-116980.7,20268.2,-375000,-375000,-149198.4,-128894.1,0.03,0.00,0.88,-4,0,-2,37,0
'[11:34:00.544 21/01/2026]',-105282.4,-172903,-115510.5,21948.07,-375000,-375000,-147917.5,-127395.4,0.03,0.00,0.88,-4,0,-2,37,0
'[11:34:00.548 21/01/2026]',-103465.3,-170126.8,-113717.7,23655.83,-375000,-375000,-146361.8,-125982.6,0.03,0.00,0.88,-4,0,-2,37,0
'[11:34:00.552 21/01/2026]',-104653.5,-171088.5,-114976.1,22160.37,-375000,-375000,-147454.2,-127322.9,0.03,0.00,0.88,-4,0,-2,37,0
'[11:34:00.556 21/01/2026]',-106585.1,-173952.3,-116889.6,20322.03,-375000,-375000,-149121.2,-128871.4,0.03,0.00,0.88,-4,0,-2,37,0
'[11:34:00.560 21/01/2026]',-105645.8,-173374.9,-115887.7,21552.8,-375000,-375000,-148254.2,-127746.3,0.03,0.00,0.88,-4,0,-2,37,0
'[11:34:00.564 21/01/2026]',-103612,-170446.2,-113849.4,23548.19,-375000,-375000,-146483.8,-126059.4,0.03,0.00,0.88,-4,0,-2,37,0
'[11:34:00.568 21/01/2026]',-104244.2,-170597.7,-114541.1,22603.33,-375000,-375000,-147090.3,-126940.6,0.03,0.00,0.88,-4,0,-2,37,0
'[11:34:00.572 21/01/2026]',-106368.2,-173569,-116685.7,20489.57,-375000,-375000,-148946.4,-128735,0.03,0.00,0.88,-4,0,-2,37,0
'[11:34:00.576 21/01/2026]',-105999.3,-173805.5,-116279.4,21146.27,-375000,-375000,-148586.9,-128101.8,0.03,0.00,0.89,-4,0,-2,37,0
'[11:34:00.580 21/01/2026]',-103881.1,-170892.8,-114114,23309.87,-375000,-375000,-146702.6,-126238.5,0.03,0.00,0.89,-4,0,-2,37,0
'[11:34:00.584 21/01/2026]',-103927.9,-170251,-114202.3,22977.95,-375000,-375000,-146791.2,-126613.2,0.03,0.00,0.89,-4,0,-2,37,0
'[11:34:00.588 21/01/2026]',-106098.7,-173131.6,-116410.2,20735.58,-375000,-375000,-148699.8,-128521,0.03,0.00,0.89,-4,0,-2,37,0
'[11:34:00.592 21/01/2026]',-106323.4,-174091.8,-116572.5,20808.71,-375000,-375000,-148849.2,-128401.3,0.03,0.00,0.89,-4,0,-2,37,0
'[11:34:00.596 21/01/2026]',-104196.6,-171368,-114430,23032.58,-375000,-375000,-146972,-126482.7,0.03,0.00,0.89,-4,0,-2,37,0
'[11:34:00.600 21/01/2026]',-103660.9,-169991.3,-113934.2,23294.67,-375000,-375000,-146554.5,-126329.2,0.03,0.00,0.89,-4,0,-2,37,0
'[11:34:00.604 21/01/2026]',-105748.4,-172604.4,-116055.9,21061.65,-375000,-375000,-148399.8,-128256.5,0.03,0.00,0.89,-4,0,-2,37,0
'[11:34:00.608 21/01/2026]',-106553.3,-174291.1,-116826.4,20506.12,-375000,-375000,-149067.8,-128672.8,0.03,0.00,0.89,-4,0,-2,37,0
'[11:34:00.612 21/01/2026]',-104532.4,-171896.6,-114760.2,22689.61,-375000,-375000,-147271.8,-126765.9,0.03,-0.02,0.88,-4,0,-2,37,0
'[11:34:00.616 21/01/2026]',-103470.7,-169889.8,-113745.4,23532.94,-375000,-375000,-146389.3,-126114.2,0.03,-0.02,0.88,-4,0,-2,37,0
'[11:34:00.620 21/01/2026]',-105384.1,-172063.6,-115702.6,21417.57,-375000,-375000,-148081.6,-127947.4,0.03,-0.02,0.88,-4,0,-2,37,0
'[11:34:00.624 21/01/2026]',-106691.4,-174335.6,-116974.3,20313,-375000,-375000,-149194.9,-128840.5,0.03,-0.02,0.88,-4,0,-2,37,0
'[11:34:00.628 21/01/2026]',-104920.7,-172439.3,-115151.2,22310.84,-375000,-375000,-147606.1,-127083.4,0.03,-0.02,0.88,-4,0,-2,37,0
'[11:34:00.632 21/01/2026]',-103412.6,-169955.3,-113664.7,23656.73,-375000,-375000,-146316.3,-125981.6,0.03,-0.02,0.88,-4,0,-2,37,0
'[11:34:00.636 21/01/2026]',-104989.9,-171538.1,-115293.6,21813.02,-375000,-375000,-147735.1,-127611.7,0.03,-0.02,0.88,-4,0,-2,37,0
'[11:34:00.640 21/01/2026]',-106682.5,-174204.1,-116976.1,20261.45,-375000,-375000,-149205.3,-128912,0.03,-0.02,0.88,-4,0,-2,37,0
'[11:34:00.644 21/01/2026]',-105313.7,-172943.9,-115551.4,21912.22,-375000,-375000,-147954.2,-127434.3,0.03,-0.02,0.88,-4,0,-2,37,0
'[11:34:00.648 21/01/2026]',-103486,-170162.2,-113736.9,23637.95,-375000,-375000,-146372,-125988.6,0.03,0.00,0.88,-4,0,-2,37,0
'[11:34:00.652 21/01/2026]',-104588.1,-171019.5,-114906.5,22227.11,-375000,-375000,-147393.1,-127264.2,0.03,0.00,0.88,-4,0,-2,37,0
'[11:34:00.656 21/01/2026]',-106586.6,-173941.3,-116891.2,20315.72,-375000,-375000,-149129,-128880,0.03,0.00,0.88,-4,0,-2,37,0
'[11:34:00.660 21/01/2026]',-105702.4,-173426.2,-115947,21503.32,-375000,-375000,-148301.6,-127800.7,0.03,0.00,0.88,-4,0,-2,37,0
'[11:34:00.664 21/01/2026]',-103627,-170487.6,-113860.6,23541.17,-375000,-375000,-146490.9,-126070.6,0.03,0.00,0.88,-4,0,-2,37,0
'[11:34:00.668 21/01/2026]',-104218,-170580.2,-114522.7,22630.16,-375000,-375000,-147059.4,-126916.2,0.03,0.00,0.88,-4,0,-2,37,0
'[11:34:00.672 21/01/2026]',-106364.5,-173553.4,-116665,20493.6,-375000,-375000,-148933.8,-128745.9,0.03,0.00,0.88,-4,0,-2,37,0
'[11:34:00.676 21/01/2026]',-106040.8,-173825.4,-116281.1,21127.58,-375000,-375000,-148599,-128123.3,0.03,0.00,0.88,-4,0,-2,37,0
'[11:34:00.680 21/01/2026]',-103895.3,-170938.8,-114116.8,23309.34,-375000,-375000,-146711.6,-126252.9,0.03,0.00,0.88,-4,0,-2,37,0
'[11:34:00.684 21/01/2026]',-103889.2,-170226.1,-114178.4,23005.62,-375000,-375000,-146769.7,-126592.5,0.03,0.00,0.88,-4,0,-2,37,0
'[11:34:00.688 21/01/2026]',-106053.7,-173066.4,-116373.9,20763.47,-375000,-375000,-148680.3,-128516,0.03,0.00,0.88,-4,0,-2,37,0
'[11:34:00.692 21/01/2026]',-106349.2,-174135.3,-116598.6,20767.54,-375000,-375000,-148881.8,-128446.5,0.03,0.00,0.88,-4,0,-2,37,0
'[11:34:00.696 21/01/2026]',-104221.5,-171439.5,-114436.5,23006.92,-375000,-375000,-146993.2,-126508.1,0.03,0.00,0.88,-4,0,-2,37,0
'[11:34:00.700 21/01/2026]',-103640.4,-170002,-113917.4,23308.13,-375000,-375000,-146547.4,-126322.3,0.03,0.00,0.88,-4,0,-2,37,0
'[11:34:00.704 21/01/2026]',-105732.1,-172580.6,-116045.5,21081.27,-375000,-375000,-148392.8,-128256.8,0.03,0.00,0.88,-4,0,-2,37,0
'[11:34:00.708 21/01/2026]',-106586.8,-174329.8,-116861.6,20469.82,-375000,-375000,-149113,-128727,0.03,0.00,0.88,-4,0,-2,37,0
'[11:34:00.712 21/01/2026]',-104588.4,-171994.1,-114818.4,22646.16,-375000,-375000,-147314,-126797.1,0.03,0.00,0.88,-4,0,-2,37,0
'[11:34:00.716 21/01/2026]',-103468,-169900.2,-113724.4,23548.81,-375000,-375000,-146378.3,-126098.2,0.03,0.00,0.88,-4,0,-2,37,0
'[11:34:00.720 21/01/2026]',-105333.4,-172016.7,-115635.8,21475.47,-375000,-375000,-148039.5,-127924.7,0.03,0.00,0.88,-4,0,-2,37,0
'[11:34:00.724 21/01/2026]',-106675.4,-174326.9,-116950.1,20325.65,-375000,-375000,-149179.8,-128847.7,0.03,0.00,0.88,-4,0,-2,37,0
'[11:34:00.728 21/01/2026]',-104958.7,-172489.5,-115188.3,22278.92,-375000,-375000,-147638.6,-127116.4,0.03,0.00,0.88,-4,0,-2,37,0
'[11:34:00.732 21/01/2026]',-103414.9,-169977.9,-113666.4,23659.14,-375000,-375000,-146327.8,-125993.5,0.03,0.00,0.88,-4,0,-2,37,0
'[11:34:00.736 21/01/2026]',-104946.6,-171502.8,-115279.7,21838.19,-375000,-375000,-147718,-127601.7,0.03,0.00,0.88,-4,0,-2,37,0
'[11:34:00.740 21/01/2026]',-106664,-174183.7,-116970.2,20270.26,-375000,-375000,-149192.6,-128907.7,0.03,0.00,0.88,-4,0,-2,37,0
'[11:34:00.744 21/01/2026]',-105331.2,-172995.7,-115558.8,21891.34,-375000,-375000,-147970.2,-127457.5,0.03,0.00,0.88,-4,0,-2,37,0
'[11:34:00.748 21/01/2026]',-103484.1,-170195.4,-113727.9,23646.8,-375000,-375000,-146368,-125986.6,0.03,0.00,0.88,-4,0,-2,37,0
'[11:34:00.752 21/01/2026]',-104572.1,-171001,-114869.3,22257.87,-375000,-375000,-147362.9,-127238.3,0.03,0.00,0.88,-4,0,-2,37,0
'[11:34:00.756 21/01/2026]',-106562.9,-173913.2,-116857.6,20340.09,-375000,-375000,-149103.6,-128864,0.03,-0.02,0.86,-4,0,-2,37,0
'[11:34:00.760 21/01/2026]',-105723.5,-173476.7,-115959.3,21474.04,-375000,-375000,-148329,-127826.2,0.03,-0.02,0.86,-4,0,-2,37,0
'[11:34:00.764 21/01/2026]',-103646.1,-170544.2,-113872,23525.57,-375000,-375000,-146509.4,-126082.2,0.03,-0.02,0.86,-4,0,-2,37,0
'[11:34:00.768 21/01/2026]',-104214.9,-170573.3,-114512.6,22644.82,-375000,-375000,-147053.9,-126908.9,0.03,-0.02,0.86,-4,0,-2,37,0
'[11:34:00.772 21/01/2026]',-106346.7,-173528.3,-116665.1,20507.19,-375000,-375000,-148923.3,-128734,0.03,-0.02,0.86,-4,0,-2,37,0
'[11:34:00.776 21/01/2026]',-106055.7,-173861.7,-116301.6,21101.88,-375000,-375000,-148630.4,-128164.3,0.03,-0.02,0.86,-4,0,-2,37,0
'[11:34:00.780 21/01/2026]',-103899.4,-170982.5,-114130.5,23300.08,-375000,-375000,-146721.6,-126259.2,0.03,-0.02,0.86,-4,0,-2,37,0
'[11:34:00.784 21/01/2026]',-103855.7,-170195.9,-114144.4,23045.72,-375000,-375000,-146735.8,-126563.2,0.03,-0.02,0.86,-4,0,-2,37,0
'[11:34:00.788 21/01/2026]',-106025.9,-173027.9,-116348.9,20801.11,-375000,-375000,-148645.9,-128501.6,0.03,-0.02,0.86,-4,0,-2,37,0
'[11:34:00.792 21/01/2026]',-106361.5,-174151.6,-116619.6,20755.43,-375000,-375000,-148889.4,-128458.6,0.03,0.00,0.88,-4,0,-2,37,0
'[11:34:00.796 21/01/2026]',-104247,-171482.8,-114473.4,22984.66,-375000,-375000,-147014.3,-126530.2,0.03,0.00,0.88,-4,0,-2,37,0
'[11:34:00.800 21/01/2026]',-103627.3,-169988.2,-113891.8,23338.71,-375000,-375000,-146525.5,-126308.6,0.03,0.00,0.88,-4,0,-2,37,0
'[11:34:00.804 21/01/2026]',-105691.3,-172537.2,-116002.9,21121.24,-375000,-375000,-148353.2,-128217.6,0.03,0.00,0.88,-4,0,-2,37,0
'[11:34:00.808 21/01/2026]',-106585,-174323.2,-116869,20468.38,-375000,-375000,-149108.3,-128733.2,0.03,0.00,0.88,-4,0,-2,37,0
'[11:34:00.812 21/01/2026]',-104591,-171998.3,-114814.8,22642.36,-375000,-375000,-147321.5,-126819.9,0.03,0.00,0.88,-4,0,-2,37,0
'[11:34:00.816 21/01/2026]',-103453.5,-169895.3,-113708.7,23575.63,-375000,-375000,-146363.8,-126091,0.03,0.00,0.88,-4,0,-2,37,0
'[11:34:00.820 21/01/2026]',-105307.1,-171964.8,-115612.8,21506.8,-375000,-375000,-148015.3,-127901.4,0.03,0.00,0.88,-4,0,-2,37,0
'[11:34:00.824 21/01/2026]',-106685.2,-174318.3,-116959,20322.7,-375000,-375000,-149191.8,-128859.8,0.03,0.00,0.88,-4,0,-2,37,0
'[11:34:00.828 21/01/2026]',-104997.1,-172564.6,-115220.8,22246.06,-375000,-375000,-147674.6,-127157.5,0.03,0.00,0.88,-4,0,-2,37,0
'[11:34:00.832 21/01/2026]',-103407.8,-169986.9,-113657.9,23677.83,-375000,-375000,-146325.1,-125986.2,0.03,0.00,0.88,-4,0,-2,37,0
'[11:34:00.836 21/01/2026]',-104898.6,-171422.9,-115206.1,21918.48,-375000,-375000,-147661.3,-127541.4,0.03,0.00,0.88,-4,0,-2,37,0
'[11:34:00.840 21/01/2026]',-106654.8,-174158.7,-116958.1,20286.26,-375000,-375000,-149188.8,-128906,0.03,0.00,0.88,-4,0,-2,37,0
'[11:34:00.844 21/01/2026]',-105363.4,-173054.3,-115607.5,21853.48,-375000,-375000,-148005.2,-127490.2,0.03,0.00,0.88,-4,0,-2,37,0
'[11:34:00.848 21/01/2026]',-103481.6,-170207.4,-113723.6,23660.93,-375000,-375000,-146373.3,-125989.6,0.03,0.00,0.88,-4,0,-2,37,0
'[11:34:00.852 21/01/2026]',-104506.6,-170927,-114798.7,22330.78,-375000,-375000,-147318.5,-127191.3,0.03,0.00,0.88,-4,0,-2,37,0
'[11:34:00.856 21/01/2026]',-106510.4,-173854.8,-116804.4,20392.03,-375000,-375000,-149059.1,-128824,0.03,0.00,0.88,-4,0,-2,37,0
'[11:34:00.860 21/01/2026]',-105724.8,-173485.5,-115966.3,21479.4,-375000,-375000,-148325.5,-127822,0.03,0.00,0.88,-4,0,-2,37,0
'[11:34:00.864 21/01/2026]',-103659.3,-170561.5,-113890,23524.67,-375000,-375000,-146523.9,-126091.8,0.03,0.00,0.86,-4,0,-2,37,0
'[11:34:00.868 21/01/2026]',-104151.9,-170503.8,-114442.9,22721.93,-375000,-375000,-147005.5,-126855.9,0.03,0.00,0.86,-4,0,-2,37,0
'[11:34:00.872 21/01/2026]',-106283.9,-173443.7,-116589.7,20588.55,-375000,-375000,-148868.1,-128670.9,0.03,0.00,0.86,-4,0,-2,37,0
'[11:34:00.876 21/01/2026]',-106080.8,-173873.8,-116325.6,21094.59,-375000,-375000,-148646.3,-128175.9,0.03,0.00,0.86,-4,0,-2,37,0
'[11:34:00.880 21/01/2026]',-103938.8,-171021.2,-114160.8,23283.68,-375000,-375000,-146756.2,-126293.2,0.03,0.00,0.86,-4,0,-2,37,0
'[11:34:00.884 21/01/2026]',-103836.2,-170181.6,-114124.6,23085.46,-375000,-375000,-146718.6,-126529.2,0.03,0.00,0.86,-4,0,-2,37,0
'[11:34:00.888 21/01/2026]',-105994.3,-172993.3,-116313.2,20840.72,-375000,-375000,-148625.2,-128462.2,0.03,0.00,0.86,-4,0,-2,37,0
'[11:34:00.892 21/01/2026]',-106375,-174165.2,-116636,20742.33,-375000,-375000,-148917.7,-128486.8,0.03,0.00,0.86,-4,0,-2,37,0
'[11:34:00.896 21/01/2026]',-104275.8,-171534.8,-114507.5,22962.3,-375000,-375000,-147051.7,-126557.7,0.03,0.00,0.86,-4,0,-2,37,0
'[11:34:00.900 21/01/2026]',-103580.9,-169945,-113857.4,23400,-375000,-375000,-146491.5,-126254.3,0.03,-0.02,0.88,-4,0,-2,37,0
'[11:34:00.904 21/01/2026]',-105639.2,-172436.6,-115959.2,21189.77,-375000,-375000,-148307.6,-128171.8,0.03,-0.02,0.88,-4,0,-2,37,0
'[11:34:00.908 21/01/2026]',-106587.5,-174312.3,-116850.9,20483.5,-375000,-375000,-149101.4,-128724.5,0.03,-0.02,0.88,-4,0,-2,37,0
'[11:34:00.912 21/01/2026]',-104622.1,-172056.1,-114838,22617.42,-375000,-375000,-147371.5,-126866.7,0.03,-0.02,0.88,-4,0,-2,37,0
'[11:34:00.916 21/01/2026]',-103431.2,-169890.7,-113697.9,23600.49,-375000,-375000,-146372.9,-126079.3,0.03,-0.02,0.88,-4,0,-2,37,0
'[11:34:00.920 21/01/2026]',-105265.2,-171904.5,-115586.1,21550.66,-375000,-375000,-147988.2,-127862.3,0.03,-0.02,0.88,-4,0,-2,37,0
'[11:34:00.924 21/01/2026]',-106685.8,-174306.3,-116982.9,20310.31,-375000,-375000,-149200,-128870.8,0.03,-0.02,0.88,-4,0,-2,37,0
'[11:34:00.928 21/01/2026]',-105017.6,-172573.1,-115229.8,22231.98,-375000,-375000,-147702.7,-127193.1,0.03,-0.02,0.88,-4,0,-2,37,0
'[11:34:00.932 21/01/2026]',-103406,-169981.9,-113640.9,23699.15,-375000,-375000,-146321.8,-125990.4,0.03,-0.02,0.88,-4,0,-2,37,0
'[11:34:00.936 21/01/2026]',-104870.3,-171375.6,-115170.6,21954.96,-375000,-375000,-147627.9,-127502.6,0.03,0.00,0.88,-4,0,-2,37,0
'[11:34:00.940 21/01/2026]',-106658,-174129.8,-116946.4,20301.15,-375000,-375000,-149177.7,-128899.6,0.03,0.00,0.88,-4,0,-2,37,0
'[11:34:00.944 21/01/2026]',-105405.3,-173074.3,-115629.3,21839.8,-375000,-375000,-148035.4,-127523.8,0.03,0.00,0.88,-4,0,-2,37,0
'[11:34:00.948 21/01/2026]',-103505.7,-170243.7,-113735.7,23659.05,-375000,-375000,-146384.4,-125994.1,0.03,0.00,0.88,-4,0,-2,37,0
'[11:34:00.952 21/01/2026]',-104497.4,-170901.5,-114795.3,22353.71,-375000,-375000,-147303.4,-127181.7,0.03,0.00,0.88,-4,0,-2,37,0
'[11:34:00.956 21/01/2026]',-106510.6,-173840.5,-116827.6,20383.18,-375000,-375000,-149072.8,-128848.8,0.03,0.00,0.88,-4,0,-2,37,0
'[11:34:00.960 21/01/2026]',-105794.8,-173556.5,-116047.6,21411.76,-375000,-375000,-148387.9,-127895.2,0.03,0.00,0.88,-4,0,-2,37,0
'[11:34:00.964 21/01/2026]',-103707.3,-170625.3,-113925.8,23498.16,-375000,-375000,-146549.4,-126120.3,0.03,0.00,0.88,-4,0,-2,37,0
'[11:34:00.968 21/01/2026]',-104123.7,-170459.8,-114409.5,22759.48,-375000,-375000,-146973.1,-126830.7,0.03,0.00,0.88,-4,0,-2,37,0
'[11:34:00.972 21/01/2026]',-106261.3,-173398.6,-116572.1,20604.64,-375000,-375000,-148844.4,-128667.5,0.03,0.00,0.88,-4,0,-2,37,0
'[11:34:00.976 21/01/2026]',-106111.9,-173888.9,-116352.5,21066.92,-375000,-375000,-148655.9,-128200.8,0.03,0.00,0.88,-4,0,-2,37,0
'[11:34:00.980 21/01/2026]',-103976.6,-171067.3,-114183.7,23258.64,-375000,-375000,-146777.8,-126317.4,0.03,0.00,0.88,-4,0,-2,37,0
'[11:34:00.984 21/01/2026]',-103817.8,-170140.5,-114087,23125.74,-375000,-375000,-146692.9,-126513,0.03,0.00,0.88,-4,0,-2,37,0
'[11:34:00.988 21/01/2026]',-105965.2,-172917.6,-116272.7,20881.31,-375000,-375000,-148589.3,-128440.1,0.03,0.00,0.88,-4,0,-2,37,0
'[11:34:00.992 21/01/2026]',-106416.4,-174183.4,-116675.8,20710.95,-375000,-375000,-148932,-128511.4,0.03,0.00,0.88,-4,0,-2,37,0
'[11:34:00.996 21/01/2026]',-104300.9,-171575.3,-114514.1,22940.94,-375000,-375000,-147069.3,-126582.8,0.03,0.00,0.88,-4,0,-2,37,0
'[11:34:01.000 21/01/2026]',-103580.8,-169954.8,-113839.9,23413.36,-375000,-375000,-146485.3,-126244.7,0.03,0.00,0.88,-4,0,-2,37,0
'[11:34:01.004 21/01/2026]',-105610.7,-172394.1,-115918.9,21220.57,-375000,-375000,-148267.6,-128133.1,0.03,0.00,0.88,-4,0,-2,37,0
'[11:34:01.008 21/01/2026]',-106609.9,-174296.8,-116879.3,20458.73,-375000,-375000,-149110.3,-128742.5,0.03,-0.02,0.88,-4,0,-2,37,0
'[11:34:01.012 21/01/2026]',-104673.4,-172100.3,-114898.1,22582.23,-375000,-375000,-147383.6,-126885.2,0.03,-0.02,0.88,-4,0,-2,37,0
'[11:34:01.016 21/01/2026]',-103416.5,-169881.2,-113664.4,23646.71,-375000,-375000,-146319.3,-126036.8,0.03,-0.02,0.88,-4,0,-2,37,0
'[11:34:01.020 21/01/2026]',-105212.9,-171834.8,-115510.4,21617.22,-375000,-375000,-147926.8,-127817.1,0.03,-0.02,0.88,-4,0,-2,37,0
'[11:34:01.024 21/01/2026]',-106687.2,-174282.2,-116968.4,20325.02,-375000,-375000,-149194.2,-128882.8,0.03,-0.02,0.88,-4,0,-2,37,0
'[11:34:01.028 21/01/2026]',-105056.5,-172613.4,-115277.7,22205.07,-375000,-375000,-147725.3,-127223,0.03,-0.02,0.88,-4,0,-2,37,0
'[11:34:01.032 21/01/2026]',-103411.6,-170001.8,-113645.3,23713.95,-375000,-375000,-146311.6,-125974,0.03,-0.02,0.88,-4,0,-2,37,0
'[11:34:01.036 21/01/2026]',-104823.9,-171318.9,-115129.6,22014.14,-375000,-375000,-147584.9,-127482.2,0.03,-0.02,0.88,-4,0,-2,37,0
'[11:34:01.040 21/01/2026]',-106633.1,-174084.5,-116924.3,20322.61,-375000,-375000,-149159,-128905.8,0.03,-0.02,0.88,-4,0,-2,37,0
'[11:34:01.044 21/01/2026]',-105433,-173099.6,-115643.7,21822.86,-375000,-375000,-148047.1,-127552.7,0.05,-0.02,0.88,-4,0,-2,37,0
'[11:34:01.048 21/01/2026]',-103517.5,-170268.5,-113750.4,23649.17,-375000,-375000,-146402,-126030.7,0.05,-0.02,0.88,-4,0,-2,37,0
'[11:34:01.052 21/01/2026]',-104436.5,-170829.5,-114733.3,22420.86,-375000,-375000,-147251.3,-127130.2,0.05,-0.02,0.88,-4,0,-2,37,0
'[11:34:01.056 21/01/2026]',-106487.1,-173779.9,-116780.4,20430.21,-375000,-375000,-149032,-128821.2,0.05,-0.02,0.88,-4,0,-2,37,0
'[11:34:01.060 21/01/2026]',-105834,-173563.6,-116057.6,21402.42,-375000,-375000,-148406.1,-127928.6,0.05,-0.02,0.88,-4,0,-2,37,0
'[11:34:01.064 21/01/2026]',-103710.3,-170632.5,-113925.8,23505.45,-375000,-375000,-146555.9,-126130.3,0.05,-0.02,0.88,-4,0,-2,37,0
'[11:34:01.068 21/01/2026]',-104072,-170399.1,-114348.3,22833.65,-375000,-375000,-146917.9,-126775,0.05,-0.02,0.88,-4,0,-2,37,0
'[11:34:01.072 21/01/2026]',-106227.1,-173330,-116523.9,20653.32,-375000,-375000,-148803.3,-128630.6,0.05,-0.02,0.88,-4,0,-2,37,0
'[11:34:01.076 21/01/2026]',-106156.3,-173928.6,-116399.7,21020.83,-375000,-375000,-148706.5,-128252.2,0.05,-0.02,0.88,-4,0,-2,37,0
'[11:34:01.080 21/01/2026]',-103998.6,-171082.1,-114225.9,23251.31,-375000,-375000,-146785.1,-126320.6,0.05,-0.02,0.88,-4,0,-2,37,0
'[11:34:01.084 21/01/2026]',-103764.8,-170104.1,-114045.6,23177.02,-375000,-375000,-146651.8,-126468.9,0.05,-0.02,0.88,-4,0,-2,37,0
'[11:34:01.088 21/01/2026]',-105914.2,-172867.7,-116213.9,20934.73,-375000,-375000,-148547.9,-128405.1,0.05,-0.02,0.88,-4,0,-2,37,0
'[11:34:01.092 21/01/2026]',-106439.9,-174185.2,-116702.3,20689.36,-375000,-375000,-148959.1,-128548.3,0.05,-0.02,0.88,-4,0,-2,37,0
'[11:34:01.096 21/01/2026]',-104334.6,-171589.1,-114548.3,22935.35,-375000,-375000,-147075.5,-126589.3,0.05,-0.02,0.88,-4,0,-2,37,0
'[11:34:01.100 21/01/2026]',-103556.7,-169907.1,-113815.6,23463.88,-375000,-375000,-146445,-126203.8,0.05,-0.02,0.88,-4,0,-2,37,0
'[11:34:01.104 21/01/2026]',-105550.4,-172309.7,-115844.5,21290.62,-375000,-375000,-148223.5,-128100.4,0.05,-0.02,0.88,-4,0,-2,37,0
'[11:34:01.108 21/01/2026]',-106602.8,-174281.6,-116860.4,20472.45,-375000,-375000,-149102.2,-128736.2,0.05,-0.02,0.88,-4,0,-2,37,0
'[11:34:01.112 21/01/2026]',-104694.1,-172122.7,-114908.3,22571.6,-375000,-375000,-147401.3,-126901.8,0.05,-0.02,0.88,-4,0,-2,37,0
'[11:34:01.116 21/01/2026]',-103419.9,-169881.5,-113670.2,23652.48,-375000,-375000,-146331.8,-126037.1,0.03,0.00,0.88,-4,0,-2,37,0
'[11:34:01.120 21/01/2026]',-105185.5,-171782.4,-115488.5,21657.72,-375000,-375000,-147897.2,-127784.4,0.03,0.00,0.88,-4,0,-2,37,0
'[11:34:01.124 21/01/2026]',-106678.2,-174250.7,-116953.2,20336.33,-375000,-375000,-149181.2,-128875.4,0.03,0.00,0.88,-4,0,-2,37,0
'[11:34:01.128 21/01/2026]',-105083.6,-172646.6,-115308.2,22182.18,-375000,-375000,-147750.1,-127244.9,0.03,0.00,0.88,-4,0,-2,37,0
'[11:34:01.132 21/01/2026]',-103413.4,-169996.5,-113665.9,23712.12,-375000,-375000,-146323.2,-125976.8,0.03,0.00,0.88,-4,0,-2,37,0
'[11:34:01.136 21/01/2026]',-104793.8,-171253.6,-115109.9,22042.62,-375000,-375000,-147572.7,-127457.1,0.03,0.00,0.88,-4,0,-2,37,0
'[11:34:01.140 21/01/2026]',-106618.7,-174070.5,-116896.8,20342.05,-375000,-375000,-149142.8,-128889.1,0.03,0.00,0.88,-4,0,-2,37,0
'[11:34:01.144 21/01/2026]',-105470.3,-173171.9,-115690.3,21774.89,-375000,-375000,-148093.8,-127598.6,0.03,0.00,0.88,-4,0,-2,37,0
'[11:34:01.148 21/01/2026]',-103505.7,-170278.9,-113744.4,23663.39,-375000,-375000,-146403.7,-126011.8,0.03,0.00,0.88,-4,0,-2,37,0
'[11:34:01.152 21/01/2026]',-104377.5,-170782.2,-114690.4,22472.18,-375000,-375000,-147223.3,-127098.1,0.02,0.00,0.88,-4,0,-2,37,0
'[11:34:01.156 21/01/2026]',-106420.7,-173703.6,-116726.4,20481.84,-375000,-375000,-148994.1,-128783.2,0.02,0.00,0.88,-4,0,-2,37,0
'[11:34:01.160 21/01/2026]',-105821.6,-173575.3,-116064.2,21392.76,-375000,-375000,-148422.2,-127940.8,0.02,0.00,0.88,-4,0,-2,37,0
'[11:34:01.164 21/01/2026]',-103716.6,-170658.3,-113951.8,23498.79,-375000,-375000,-146583.6,-126156.3,0.02,0.00,0.88,-4,0,-2,37,0
'[11:34:01.168 21/01/2026]',-104031.5,-170364.3,-114326.4,22868.7,-375000,-375000,-146907.2,-126756.4,0.02,0.00,0.88,-4,0,-2,37,0
'[11:34:01.172 21/01/2026]',-106176.3,-173270.9,-116483.7,20699.14,-375000,-375000,-148780.8,-128605.6,0.02,0.00,0.88,-4,0,-2,37,0
'[11:34:01.176 21/01/2026]',-106164.6,-173946.4,-116416.3,21008.63,-375000,-375000,-148721.4,-128267,0.02,0.00,0.88,-4,0,-2,37,0
'[11:34:01.180 21/01/2026]',-103990.1,-171126.3,-114221.3,23243.18,-375000,-375000,-146811.3,-126350.6,0.02,0.00,0.88,-4,0,-2,37,0
'[11:34:01.184 21/01/2026]',-103714.3,-170048.6,-114000.2,23237.14,-375000,-375000,-146615.5,-126427.2,0.02,0.00,0.88,-4,0,-2,37,0
'[11:34:01.188 21/01/2026]',-105865.5,-172785.8,-116187.6,20981.4,-375000,-375000,-148513.1,-128370.7,0.05,-0.02,0.88,-4,0,-2,37,0
'[11:34:01.192 21/01/2026]',-106413.9,-174170,-116679.2,20710.28,-375000,-375000,-148951.8,-128554.2,0.05,-0.02,0.88,-4,0,-2,37,0
'[11:34:01.196 21/01/2026]',-104342.5,-171641.9,-114576.8,22914.83,-375000,-375000,-147118,-126635.5,0.05,-0.02,0.88,-4,0,-2,37,0
'[11:34:01.200 21/01/2026]',-103499.6,-169887.1,-113776.9,23518.82,-375000,-375000,-146422.7,-126182.8,0.05,-0.02,0.88,-4,0,-2,37,0
'[11:34:01.204 21/01/2026]',-105494.4,-172245.4,-115810.7,21345.96,-375000,-375000,-148191.5,-128070.8,0.05,-0.02,0.88,-4,0,-2,37,0
'[11:34:01.208 21/01/2026]',-106592.2,-174289.2,-116871.8,20464.14,-375000,-375000,-149128,-128777.2,0.05,-0.02,0.88,-4,0,-2,37,0
'[11:34:01.212 21/01/2026]',-104723.1,-172206.9,-114958.4,22531.59,-375000,-375000,-147462.4,-126963,0.05,-0.02,0.88,-4,0,-2,37,0
'[11:34:01.216 21/01/2026]',-103363.5,-169849.2,-113625.6,23703.58,-375000,-375000,-146304.8,-126013.4,0.05,-0.02,0.88,-4,0,-2,37,0
'[11:34:01.220 21/01/2026]',-105097.8,-171697.8,-115420.4,21727.24,-375000,-375000,-147858.3,-127755.7,0.05,-0.02,0.88,-4,0,-2,37,0
'[11:34:01.224 21/01/2026]',-106651.3,-174222.6,-116956.4,20347.69,-375000,-375000,-149192.4,-128889.2,0.02,0.00,0.88,-4,0,-2,37,0
'[11:34:01.228 21/01/2026]',-105114.8,-172692.7,-115370.9,22147.58,-375000,-375000,-147798.5,-127289,0.02,0.00,0.88,-4,0,-2,37,0
'[11:34:01.232 21/01/2026]',-103390,-170010.8,-113629.3,23747.43,-375000,-375000,-146314.9,-125973.2,0.02,0.00,0.88,-4,0,-2,37,0
'[11:34:01.236 21/01/2026]',-104709.1,-171192.5,-115027.3,22123.76,-375000,-375000,-147528.3,-127419.9,0.02,0.00,0.88,-4,0,-2,37,0
'[11:34:01.240 21/01/2026]',-106572,-174013,-116885.5,20365.84,-375000,-375000,-149146,-128892.3,0.02,0.00,0.88,-4,0,-2,37,0
'[11:34:01.244 21/01/2026]',-105454.2,-173173.7,-115698.7,21776.14,-375000,-375000,-148124.5,-127629,0.02,0.00,0.88,-4,0,-2,37,0
'[11:34:01.248 21/01/2026]',-103496,-170298.2,-113749.7,23674.03,-375000,-375000,-146418.9,-126030.1,0.02,0.00,0.88,-4,0,-2,37,0
'[11:34:01.252 21/01/2026]',-104350.9,-170729.1,-114664.6,22512.63,-375000,-375000,-147208.1,-127093.9,0.02,0.00,0.88,-4,0,-2,37,0
'[11:34:01.256 21/01/2026]',-106398.1,-173664.7,-116705,20507.41,-375000,-375000,-149000,-128809.5,0.02,0.00,0.88,-4,0,-2,37,0
'[11:34:01.260 21/01/2026]',-105840.5,-173607.4,-116090.7,21375.33,-375000,-375000,-148455.7,-127989,0.03,-0.02,0.89,-4,0,-2,37,0
'[11:34:01.264 21/01/2026]',-103714.2,-170683.1,-113948.3,23506.39,-375000,-375000,-146585.6,-126160.7,0.03,-0.02,0.89,-4,0,-2,37,0
'[11:34:01.268 21/01/2026]',-103990,-170333.8,-114307,22910.18,-375000,-375000,-146883.5,-126748.9,0.03,-0.02,0.89,-4,0,-2,37,0
'[11:34:01.272 21/01/2026]',-106145.8,-173239.5,-116477.8,20715.37,-375000,-375000,-148781.3,-128626.8,0.03,-0.02,0.89,-4,0,-2,37,0
'[11:34:01.276 21/01/2026]',-106175,-173960,-116439.4,20989,-375000,-375000,-148759.2,-128322.2,0.03,-0.02,0.89,-4,0,-2,37,0
'[11:34:01.280 21/01/2026]',-104020.4,-171177,-114250.8,23212.91,-375000,-375000,-146858.3,-126405.7,0.03,-0.02,0.89,-4,0,-2,37,0
'[11:34:01.284 21/01/2026]',-103681.7,-170030.4,-113969.8,23275.14,-375000,-375000,-146617,-126436.4,0.03,-0.02,0.89,-4,0,-2,37,0
'[11:34:01.288 21/01/2026]',-105812.8,-172718.3,-116136.9,21035.9,-375000,-375000,-148485.2,-128354.5,0.03,-0.02,0.89,-4,0,-2,37,0
'[11:34:01.292 21/01/2026]',-106432.5,-174192,-116705.6,20682.61,-375000,-375000,-148992.9,-128595.2,0.03,-0.02,0.89,-4,0,-2,37,0
'[11:34:01.296 21/01/2026]',-104378.7,-171692.4,-114610,22880.32,-375000,-375000,-147167.5,-126680.2,0.03,-0.02,0.88,-4,0,-2,37,0
'[11:34:01.300 21/01/2026]',-103486.4,-169871.1,-113759.2,23536.52,-375000,-375000,-146427.6,-126179.4,0.03,-0.02,0.88,-4,0,-2,37,0
'[11:34:01.304 21/01/2026]',-105463.2,-172210.9,-115794.8,21359.59,-375000,-375000,-148197.2,-128076.3,0.03,-0.02,0.88,-4,0,-2,37,0
'[11:34:01.308 21/01/2026]',-106608.6,-174293.9,-116903.9,20445.05,-375000,-375000,-149165.8,-128813.3,0.03,-0.02,0.88,-4,0,-2,37,0
'[11:34:01.312 21/01/2026]',-104727.8,-172212.7,-114956.7,22533.29,-375000,-375000,-147474.3,-126970.4,0.03,-0.02,0.88,-4,0,-2,37,0
'[11:34:01.316 21/01/2026]',-103371.3,-169868.2,-113637.4,23706.04,-375000,-375000,-146320.1,-126023.6,0.03,-0.02,0.88,-4,0,-2,37,0
'[11:34:01.320 21/01/2026]',-105084.1,-171669.6,-115408.6,21743.64,-375000,-375000,-147858.9,-127760.1,0.03,-0.02,0.88,-4,0,-2,37,0
'[11:34:01.324 21/01/2026]',-106662.9,-174221.7,-116967.7,20335.66,-375000,-375000,-149214.3,-128904.6,0.03,-0.02,0.88,-4,0,-2,37,0
'[11:34:01.328 21/01/2026]',-105128.8,-172734.1,-115377.1,22131.04,-375000,-375000,-147828.4,-127316.5,0.03,-0.02,0.88,-4,0,-2,37,0
'[11:34:01.332 21/01/2026]',-103390.6,-170026.9,-113655.2,23741.66,-375000,-375000,-146324.5,-125969.6,0.02,0.00,0.88,-4,0,-2,37,0
'[11:34:01.336 21/01/2026]',-104691.9,-171167.9,-115024,22140.21,-375000,-375000,-147509.4,-127396,0.02,0.00,0.88,-4,0,-2,37,0
'[11:34:01.340 21/01/2026]',-106592.2,-174018.1,-116892.7,20351.08,-375000,-375000,-149158.9,-128913.5,0.02,0.00,0.88,-4,0,-2,37,0
'[11:34:01.344 21/01/2026]',-105530.2,-173221.4,-115768.6,21719.1,-375000,-375000,-148177.8,-127682.7,0.02,0.00,0.88,-4,0,-2,37,0
'[11:34:01.348 21/01/2026]',-103522.8,-170339.8,-113779,23648.19,-375000,-375000,-146438.9,-126043.8,0.02,0.00,0.88,-4,0,-2,37,0
'[11:34:01.352 21/01/2026]',-104303.2,-170693.3,-114631.3,22543.7,-375000,-375000,-147171.4,-127044.7,0.02,0.00,0.88,-4,0,-2,37,0
'[11:34:01.356 21/01/2026]',-106402.3,-173637.6,-116723.9,20495.16,-375000,-375000,-148999.6,-128795.8,0.02,0.00,0.88,-4,0,-2,37,0
'[11:34:01.360 21/01/2026]',-105886.1,-173652.5,-116126.3,21329.11,-375000,-375000,-148492.9,-128017,0.02,0.00,0.88,-4,0,-2,37,0
'[11:34:01.364 21/01/2026]',-103748.8,-170733.7,-113978.3,23473.09,-375000,-375000,-146617.3,-126176,0.02,0.00,0.88,-4,0,-2,37,0
'[11:34:01.368 21/01/2026]',-103963.7,-170292.8,-114258.5,22943.53,-375000,-375000,-146864.8,-126709.6,0.03,0.00,0.86,-4,0,-2,37,0
'[11:34:01.372 21/01/2026]',-106131.6,-173195.9,-116448.3,20737.77,-375000,-375000,-148768.5,-128605.2,0.03,0.00,0.86,-4,0,-2,37,0
'[11:34:01.376 21/01/2026]',-106216.4,-174007.7,-116492.8,20947.07,-375000,-375000,-148794.9,-128349.8,0.03,0.00,0.86,-4,0,-2,37,0
'[11:34:01.380 21/01/2026]',-104056,-171224,-114287.8,23187.83,-375000,-375000,-146885.5,-126415,0.03,0.00,0.86,-4,0,-2,37,0
'[11:34:01.384 21/01/2026]',-103665.6,-170000.9,-113947.9,23296.51,-375000,-375000,-146592.7,-126400.3,0.03,0.00,0.86,-4,0,-2,37,0
'[11:34:01.388 21/01/2026]',-105791.5,-172684,-116125.3,21043.14,-375000,-375000,-148472.8,-128342.9,0.03,0.00,0.86,-4,0,-2,37,0
'[11:34:01.392 21/01/2026]',-106476.3,-174239.5,-116768.1,20626.37,-375000,-375000,-149034.6,-128639.4,0.03,0.00,0.86,-4,0,-2,37,0
'[11:34:01.396 21/01/2026]',-104419.7,-171748.6,-114665.6,22840.53,-375000,-375000,-147193.6,-126703.5,0.03,0.00,0.86,-4,0,-2,37,0
'[11:34:01.400 21/01/2026]',-103456,-169853.7,-113730,23574.74,-375000,-375000,-146390.5,-126142.2,0.03,0.00,0.86,-4,0,-2,37,0
'[11:34:01.404 21/01/2026]',-105433.3,-172149.5,-115753.8,21405.64,-375000,-375000,-148150.6,-128037.6,0.03,-0.02,0.88,-4,0,-2,37,0
'[11:34:01.408 21/01/2026]',-106627.5,-174288.6,-116925.2,20428.2,-375000,-375000,-149166.1,-128818.8,0.03,-0.02,0.88,-4,0,-2,37,0
'[11:34:01.412 21/01/2026]',-104786.8,-172288.5,-115020.7,22470.57,-375000,-375000,-147532.1,-127027.2,0.03,-0.02,0.88,-4,0,-2,37,0
'[11:34:01.416 21/01/2026]',-103369.9,-169888.9,-113616.9,23723.47,-375000,-375000,-146310.7,-126006.1,0.03,-0.02,0.88,-4,0,-2,37,0
'[11:34:01.420 21/01/2026]',-105046.6,-171622.8,-115368.8,21787.32,-375000,-375000,-147818.1,-127713.9,0.03,-0.02,0.88,-4,0,-2,37,0
'[11:34:01.424 21/01/2026]',-106659.6,-174211,-116964.2,20333.43,-375000,-375000,-149211,-128926.6,0.03,-0.02,0.88,-4,0,-2,37,0
'[11:34:01.428 21/01/2026]',-105176.4,-172799.9,-115404.7,22095.06,-375000,-375000,-147850.8,-127339.6,0.03,-0.02,0.88,-4,0,-2,37,0
'[11:34:01.432 21/01/2026]',-103417.1,-170059.4,-113663.8,23739.47,-375000,-375000,-146333.5,-125969.2,0.03,-0.02,0.88,-4,0,-2,37,0
'[11:34:01.436 21/01/2026]',-104674.9,-171119.6,-115007.9,22175.3,-375000,-375000,-147489.8,-127376.1,0.03,-0.02,0.88,-4,0,-2,37,0
'[11:34:01.440 21/01/2026]',-106566.5,-173975.7,-116876.1,20373.84,-375000,-375000,-149141.7,-128901.3,0.02,0.00,0.88,-4,0,-2,37,0
'[11:34:01.444 21/01/2026]',-105553.6,-173267.5,-115798.2,21683.61,-375000,-375000,-148210.1,-127712.3,0.02,0.00,0.88,-4,0,-2,37,0
'[11:34:01.448 21/01/2026]',-103552.9,-170371.3,-113797.8,23640.32,-375000,-375000,-146457.9,-126057.7,0.02,0.00,0.88,-4,0,-2,37,0
'[11:34:01.452 21/01/2026]',-104290.2,-170658,-114595.1,22601.19,-375000,-375000,-147135.8,-127012.3,0.02,0.00,0.88,-4,0,-2,37,0
'[11:34:01.456 21/01/2026]',-106400.7,-173635.2,-116698.5,20524.4,-375000,-375000,-148967.1,-128771.4,0.02,0.00,0.88,-4,0,-2,37,0
'[11:34:01.460 21/01/2026]',-105955.9,-173750.8,-116179.1,21279.26,-375000,-375000,-148526.2,-128053.1,0.02,0.00,0.88,-4,0,-2,37,0
'[11:34:01.464 21/01/2026]',-103827.8,-170836.3,-114032.2,23429.54,-375000,-375000,-146649.9,-126207.3,0.02,0.00,0.88,-4,0,-2,37,0
'[11:34:01.468 21/01/2026]',-103991,-170328.3,-114251.7,22961.63,-375000,-375000,-146837.7,-126683.8,0.02,0.00,0.88,-4,0,-2,37,0
'[11:34:01.472 21/01/2026]',-106175.7,-173226.2,-116464.8,20738.13,-375000,-375000,-148739.4,-128582,0.02,0.00,0.88,-4,0,-2,37,0
'[11:34:01.476 21/01/2026]',-106352.5,-174148.3,-116580.4,20856.14,-375000,-375000,-148849.3,-128414.1,0.03,-0.02,0.86,-4,0,-2,37,0
'[11:34:01.480 21/01/2026]',-104194,-171387,-114365.8,23118.14,-375000,-375000,-146923.7,-126448,0.03,-0.02,0.86,-4,0,-2,37,0
'[11:34:01.484 21/01/2026]',-103752.3,-170096.3,-113976.3,23294.41,-375000,-375000,-146575,-126371.4,0.03,-0.02,0.86,-4,0,-2,37,0
'[11:34:01.488 21/01/2026]',-105863.4,-172725.8,-116131.4,21053.06,-375000,-375000,-148443.3,-128308.6,0.03,-0.02,0.86,-4,0,-2,37,0
'[11:34:01.492 21/01/2026]',-106586.7,-174336.6,-116797.7,20584.79,-375000,-375000,-149046.4,-128653.5,0.03,-0.02,0.86,-4,0,-2,37,0
'[11:34:01.496 21/01/2026]',-104561.4,-171919,-114731.5,22762.17,-375000,-375000,-147247.4,-126758.7,0.03,-0.02,0.86,-4,0,-2,37,0
'[11:34:01.500 21/01/2026]',-103559.8,-169962.9,-113781.7,23546.62,-375000,-375000,-146400.1,-126149.5,0.03,-0.02,0.86,-4,0,-2,37,0
'[11:34:01.504 21/01/2026]',-105484,-172196.5,-115765.6,21409.97,-375000,-375000,-148124.5,-128016,0.03,-0.02,0.86,-4,0,-2,37,0
'[11:34:01.508 21/01/2026]',-106691.3,-174369.4,-116921.3,20413.04,-375000,-375000,-149160.7,-128828.3,0.03,-0.02,0.86,-4,0,-2,37,0
'[11:34:01.512 21/01/2026]',-104887.4,-172405.8,-115060.8,22435.52,-375000,-375000,-147543.3,-127046.3,0.03,0.00,0.88,-4,0,-2,37,0
'[11:34:01.516 21/01/2026]',-103449.2,-169991,-113644,23706.39,-375000,-375000,-146315.6,-126013.5,0.03,0.00,0.88,-4,0,-2,37,0
'[11:34:01.520 21/01/2026]',-105103.9,-171677.6,-115368,21794.11,-375000,-375000,-147801.8,-127699.4,0.03,0.00,0.88,-4,0,-2,37,0
'[11:34:01.524 21/01/2026]',-106740.1,-174288.2,-116978,20310.63,-375000,-375000,-149219,-128935.7,0.03,0.00,0.88,-4,0,-2,37,0
'[11:34:01.528 21/01/2026]',-105297.4,-172937.9,-115491.7,22013.7,-375000,-375000,-147919.7,-127417.6,0.03,0.00,0.88,-4,0,-2,37,0
'[11:34:01.532 21/01/2026]',-103488.4,-170163.2,-113686.1,23720.7,-375000,-375000,-146347,-125995.7,0.03,0.00,0.88,-4,0,-2,37,0
'[11:34:01.536 21/01/2026]',-104699.8,-171142,-114958.8,22217.14,-375000,-375000,-147440.1,-127329.7,0.03,0.00,0.88,-4,0,-2,37,0
'[11:34:01.540 21/01/2026]',-106624,-174021.5,-116878.1,20377.77,-375000,-375000,-149121.6,-128885.5,0.03,0.00,0.88,-4,0,-2,37,0
'[11:34:01.544 21/01/2026]',-105683.7,-173421.5,-115876.8,21616.55,-375000,-375000,-148252.7,-127758.2,0.03,0.00,0.88,-4,0,-2,37,0
'[11:34:01.548 21/01/2026]',-103656.1,-170505.2,-113855.3,23599.87,-375000,-375000,-146475.8,-126066.6,0.05,-0.02,0.88,-4,0,-2,37,0
'[11:34:01.552 21/01/2026]',-104323.9,-170684.6,-114561,22631.5,-375000,-375000,-147099,-126975.4,0.05,-0.02,0.88,-4,0,-2,37,0
'[11:34:01.556 21/01/2026]',-106445.1,-173665.2,-116702.4,20521.45,-375000,-375000,-148960.7,-128774.4,0.05,-0.02,0.88,-4,0,-2,37,0
'[11:34:01.560 21/01/2026]',-106043.5,-173843.6,-116224.7,21227.9,-375000,-375000,-148568.3,-128108.8,0.05,-0.02,0.88,-4,0,-2,37,0
'[11:34:01.564 21/01/2026]',-103908.4,-170940.5,-114071,23397.94,-375000,-375000,-146673.3,-126241.8,0.05,-0.02,0.88,-4,0,-2,37,0
'[11:34:01.568 21/01/2026]',-104021.1,-170357.7,-114248.1,22988.19,-375000,-375000,-146804.8,-126651.3,0.05,-0.02,0.88,-4,0,-2,37,0
'[11:34:01.572 21/01/2026]',-106196.7,-173234.7,-116429.7,20764.28,-375000,-375000,-148713.1,-128564.7,0.05,-0.02,0.88,-4,0,-2,37,0
'[11:34:01.576 21/01/2026]',-106429.8,-174212.3,-116600.3,20839.87,-375000,-375000,-148853.1,-128430.3,0.05,-0.02,0.88,-4,0,-2,37,0
'[11:34:01.580 21/01/2026]',-104315.9,-171495.1,-114439,23065.26,-375000,-375000,-146959.5,-126499.4,0.05,-0.02,0.88,-4,0,-2,37,0
'[11:34:01.584 21/01/2026]',-103835.4,-170167.6,-113983.5,23283.9,-375000,-375000,-146574.5,-126380,0.02,-0.02,0.88,-4,0,-2,37,0
'[11:34:01.588 21/01/2026]',-105972.7,-172809.7,-116153.5,21027.76,-375000,-375000,-148442.4,-128318,0.02,-0.02,0.88,-4,0,-2,37,0
'[11:34:01.592 21/01/2026]',-106770,-174489,-116890.3,20503.17,-375000,-375000,-149080.3,-128694.4,0.02,-0.02,0.88,-4,0,-2,37,0
'[11:34:01.596 21/01/2026]',-104787.7,-172120.5,-114832.7,22671.55,-375000,-375000,-147286.6,-126791.6,0.02,-0.02,0.88,-4,0,-2,37,0
'[11:34:01.600 21/01/2026]',-103778.9,-170151.8,-113838.9,23481.58,-375000,-375000,-146408.1,-126150.3,0.02,-0.02,0.88,-4,0,-2,37,0
'[11:34:01.604 21/01/2026]',-105712.1,-172353.9,-115810.6,21363.08,-375000,-375000,-148098.9,-127983,0.02,-0.02,0.88,-4,0,-2,37,0
'[11:34:01.608 21/01/2026]',-107043.8,-174638.3,-117103.4,20252.07,-375000,-375000,-149221.2,-128886.4,0.02,-0.02,0.88,-4,0,-2,37,0
'[11:34:01.612 21/01/2026]',-105280.1,-172735,-115262.4,22256.88,-375000,-375000,-147617,-127109.8,0.02,-0.02,0.88,-4,0,-2,37,0
'[11:34:01.616 21/01/2026]',-103813.4,-170285.6,-113804.3,23568.53,-375000,-375000,-146345.3,-126028.6,0.02,-0.02,0.88,-4,0,-2,37,0
'[11:34:01.620 21/01/2026]',-105442.4,-171924,-115493.3,21686.56,-375000,-375000,-147793.5,-127680.9,0.02,0.00,0.88,-4,0,-2,37,0
'[11:34:01.624 21/01/2026]',-107122.6,-174592.2,-117146.1,20158.9,-375000,-375000,-149247.5,-128956.6,0.02,0.00,0.88,-4,0,-2,37,0
'[11:34:01.628 21/01/2026]',-105730.7,-173314.3,-115700.4,21824.06,-375000,-375000,-147983.3,-127470.2,0.02,0.00,0.88,-4,0,-2,37,0
'[11:34:01.632 21/01/2026]',-103897.2,-170522.3,-113851.8,23563.12,-375000,-375000,-146387.3,-126014.7,0.02,0.00,0.88,-4,0,-2,37,0
'[11:34:01.636 21/01/2026]',-105069.6,-171427.1,-115101.9,22093.89,-375000,-375000,-147448.2,-127327.4,0.02,0.00,0.88,-4,0,-2,37,0
'[11:34:01.640 21/01/2026]',-107011.6,-174316.6,-117038.5,20227.17,-375000,-375000,-149150.7,-128913.3,0.02,0.00,0.88,-4,0,-2,37,0
'[11:34:01.644 21/01/2026]',-106095.1,-173767.9,-116058.1,21447.66,-375000,-375000,-148298.4,-127802.2,0.02,0.00,0.88,-4,0,-2,37,0
'[11:34:01.648 21/01/2026]',-104055,-170846.1,-114023,23449.79,-375000,-375000,-146518.1,-126105.3,0.02,0.00,0.88,-4,0,-2,37,0
'[11:34:01.652 21/01/2026]',-104663.6,-170970.1,-114691.6,22515.18,-375000,-375000,-147113.8,-126981.6,0.02,0.00,0.88,-4,0,-2,37,0
'[11:34:01.656 21/01/2026]',-106758.5,-173910.3,-116814.2,20417.38,-375000,-375000,-148966,-128775.4,0.03,0.00,0.88,-4,0,-2,37,0
'[11:34:01.660 21/01/2026]',-106424.9,-174157.2,-116419.3,21062.27,-375000,-375000,-148625,-128150.9,0.03,0.00,0.88,-4,0,-2,37,0
'[11:34:01.664 21/01/2026]',-104275.6,-171245.3,-114235.3,23258.91,-375000,-375000,-146723.3,-126267.9,0.03,0.00,0.88,-4,0,-2,37,0
'[11:34:01.668 21/01/2026]',-104292.7,-170561,-114322.6,22923.9,-375000,-375000,-146807.5,-126637.1,0.03,0.00,0.88,-4,0,-2,37,0
'[11:34:01.672 21/01/2026]',-106447.8,-173408.1,-116520.9,20693.07,-375000,-375000,-148715.6,-128554.6,0.03,0.00,0.88,-4,0,-2,37,0
'[11:34:01.676 21/01/2026]',-106716.5,-174445.2,-116735.7,20709.38,-375000,-375000,-148909.9,-128477.5,0.03,0.00,0.88,-4,0,-2,37,0
'[11:34:01.680 21/01/2026]',-104543,-171709.6,-114536.4,22975.67,-375000,-375000,-147002,-126524.9,0.03,0.00,0.88,-4,0,-2,37,0
'[11:34:01.684 21/01/2026]',-103952.1,-170252.7,-114011.5,23283.72,-375000,-375000,-146550.3,-126335.9,0.03,0.00,0.88,-4,0,-2,37,0
'[11:34:01.688 21/01/2026]',-106035.7,-172818.3,-116144.7,21054.63,-375000,-375000,-148396.6,-128262.8,0.03,0.00,0.88,-4,0,-2,37,0
'[11:34:01.692 21/01/2026]',-106863.8,-174544.8,-116929.9,20474.15,-375000,-375000,-149098.6,-128713.7,0.03,-0.02,0.88,-4,0,-2,37,0
'[11:34:01.696 21/01/2026]',-104854.4,-172176.8,-114874.5,22656.58,-375000,-375000,-147313.9,-126816.1,0.03,-0.02,0.88,-4,0,-2,37,0
'[11:34:01.700 21/01/2026]',-103760.5,-170133.7,-113816.7,23526.37,-375000,-375000,-146406.2,-126133.8,0.03,-0.02,0.88,-4,0,-2,37,0
'[11:34:01.704 21/01/2026]',-105635,-172257.6,-115757.2,21431.84,-375000,-375000,-148081.6,-127964.9,0.03,-0.02,0.88,-4,0,-2,37,0
'[11:34:01.708 21/01/2026]',-106948.8,-174532.7,-117048.4,20309.15,-375000,-375000,-149213.7,-128883.4,0.03,-0.02,0.88,-4,0,-2,37,0
'[11:34:01.712 21/01/2026]',-105190.8,-172666.4,-115240,22291.48,-375000,-375000,-147643.3,-127137,0.03,-0.02,0.88,-4,0,-2,37,0
'[11:34:01.716 21/01/2026]',-103655.2,-170148,-113731.1,23662.49,-375000,-375000,-146334.7,-126014,0.03,-0.02,0.88,-4,0,-2,37,0
'[11:34:01.720 21/01/2026]',-105211.5,-171709.5,-115359.9,21822.77,-375000,-375000,-147756.7,-127645.3,0.03,-0.02,0.88,-4,0,-2,37,0
'[11:34:01.724 21/01/2026]',-106907.5,-174368,-117046.9,20263.69,-375000,-375000,-149227.1,-128949.7,0.03,-0.02,0.88,-4,0,-2,37,0
'[11:34:01.728 21/01/2026]',-105537.1,-173139.8,-115621,21907.97,-375000,-375000,-147983.8,-127481.3,0.03,0.00,0.88,-4,0,-2,37,0
'[11:34:01.732 21/01/2026]',-103696.2,-170327.1,-113795.5,23662.36,-375000,-375000,-146381.9,-126011.1,0.03,0.00,0.88,-4,0,-2,37,0
'[11:34:01.736 21/01/2026]',-104779.3,-171162.6,-114944.8,22251.12,-375000,-375000,-147407.6,-127297.6,0.03,0.00,0.88,-4,0,-2,37,0
'[11:34:01.740 21/01/2026]',-106736.9,-174052.1,-116912,20360.16,-375000,-375000,-149120,-128895.5,0.03,0.00,0.88,-4,0,-2,37,0
'[11:34:01.744 21/01/2026]',-105887.3,-173581.6,-116017.9,21506.36,-375000,-375000,-148330.5,-127841.1,0.03,0.00,0.88,-4,0,-2,37,0
'[11:34:01.748 21/01/2026]',-103820.5,-170656.1,-113931.4,23545.46,-375000,-375000,-146522.5,-126110,0.03,0.00,0.88,-4,0,-2,37,0
'[11:34:01.752 21/01/2026]',-104351.5,-170677.4,-114537,22685.63,-375000,-375000,-147051.9,-126924.6,0.03,0.00,0.88,-4,0,-2,37,0
'[11:34:01.756 21/01/2026]',-106475.8,-173626.6,-116680.1,20558.78,-375000,-375000,-148916.4,-128740.5,0.03,0.00,0.88,-4,0,-2,37,0
'[11:34:01.760 21/01/2026]',-106209.9,-173952.7,-116352.3,21137.73,-375000,-375000,-148628.6,-128173.6,0.03,0.00,0.88,-4,0,-2,37,0
'[11:34:01.764 21/01/2026]',-104033.9,-171045.1,-114159.3,23350.55,-375000,-375000,-146713.5,-126271.4,0.03,-0.02,0.88,-4,0,-2,37,0
'[11:34:01.768 21/01/2026]',-104006.8,-170300,-114194.2,23070.31,-375000,-375000,-146754.4,-126592.3,0.03,-0.02,0.88,-4,0,-2,37,0
'[11:34:01.772 21/01/2026]',-106168.4,-173137.4,-116388.6,20830.17,-375000,-375000,-148665.8,-128517.1,0.03,-0.02,0.88,-4,0,-2,37,0
'[11:34:01.776 21/01/2026]',-106476.3,-174229.9,-116651.8,20800.35,-375000,-375000,-148902.2,-128480,0.03,-0.02,0.88,-4,0,-2,37,0
'[11:34:01.780 21/01/2026]',-104342.9,-171552.9,-114491.6,23035.39,-375000,-375000,-147016.6,-126539.5,0.03,-0.02,0.88,-4,0,-2,37,0
'[11:34:01.784 21/01/2026]',-103716.9,-170064,-113925.8,23386.27,-375000,-375000,-146533.1,-126317.9,0.03,-0.02,0.88,-4,0,-2,37,0
'[11:34:01.788 21/01/2026]',-105789.9,-172599.2,-116036.1,21166.25,-375000,-375000,-148358.2,-128230.2,0.03,-0.02,0.88,-4,0,-2,37,0
'[11:34:01.792 21/01/2026]',-106688.4,-174390.1,-116886,20522.61,-375000,-375000,-149110.7,-128734.3,0.03,-0.02,0.88,-4,0,-2,37,0
'[11:34:01.796 21/01/2026]',-104691.5,-172064,-114851.8,22691.27,-375000,-375000,-147339.3,-126846.6,0.03,-0.02,0.88,-4,0,-2,37,0
'[11:34:01.800 21/01/2026]',-103541.2,-169955.2,-113742.5,23629.68,-375000,-375000,-146377.1,-126104.3,0.03,0.00,0.89,-4,0,-2,37,0
'[11:34:01.804 21/01/2026]',-105382.6,-172024.3,-115635.5,21567.78,-375000,-375000,-148021.1,-127906.8,0.03,0.00,0.89,-4,0,-2,37,0
'[11:34:01.808 21/01/2026]',-106746.3,-174359.7,-116972.8,20393.46,-375000,-375000,-149192.8,-128874.7,0.03,0.00,0.89,-4,0,-2,37,0
'[11:34:01.812 21/01/2026]',-105043.5,-172568.7,-115209.3,22334.04,-375000,-375000,-147671.8,-127168.6,0.03,0.00,0.89,-4,0,-2,37,0
'[11:34:01.816 21/01/2026]',-103482.4,-170025.7,-113674.4,23743.05,-375000,-375000,-146333.2,-126017,0.03,0.00,0.89,-4,0,-2,37,0
'[11:34:01.820 21/01/2026]',-104987.1,-171495.9,-115240.9,21961.48,-375000,-375000,-147693.8,-127589.6,0.03,0.00,0.89,-4,0,-2,37,0
'[11:34:01.824 21/01/2026]',-106720.6,-174207.4,-116969.2,20350.05,-375000,-375000,-149200.1,-128940.2,0.03,0.00,0.89,-4,0,-2,37,0
'[11:34:01.828 21/01/2026]',-105418.2,-173070,-115602.4,21938.06,-375000,-375000,-148013.8,-127521.8,0.03,0.00,0.89,-4,0,-2,37,0
'[11:34:01.832 21/01/2026]',-103527.1,-170224,-113718.2,23746,-375000,-375000,-146376.7,-126003.8,0.03,0.00,0.89,-4,0,-2,37,0
'[11:34:01.836 21/01/2026]',-104577.9,-170965,-114838.3,22390.14,-375000,-375000,-147341.8,-127232.5,0.03,-0.02,0.88,-4,0,-2,37,0
'[11:34:01.840 21/01/2026]',-106559.1,-173871,-116816.5,20470.44,-375000,-375000,-149071.8,-128853.6,0.03,-0.02,0.88,-4,0,-2,37,0
'[11:34:01.844 21/01/2026]',-105766.3,-173494.9,-115960.8,21565.1,-375000,-375000,-148332.7,-127849.6,0.03,-0.02,0.88,-4,0,-2,37,0
'[11:34:01.848 21/01/2026]',-103703.5,-170579.4,-113891.8,23610.42,-375000,-375000,-146522.7,-126107.9,0.03,-0.02,0.88,-4,0,-2,37,0
'[11:34:01.852 21/01/2026]',-104204.9,-170542.6,-114460.7,22785.68,-375000,-375000,-147024.5,-126890.9,0.03,-0.02,0.88,-4,0,-2,37,0
'[11:34:01.856 21/01/2026]',-106334.4,-173481.1,-116606,20649.84,-375000,-375000,-148885.9,-128714.4,0.03,-0.02,0.88,-4,0,-2,37,0
'[11:34:01.860 21/01/2026]',-106138.9,-173894.4,-116355,21157,-375000,-375000,-148661.8,-128209,0.03,-0.02,0.88,-4,0,-2,37,0
'[11:34:01.864 21/01/2026]',-103968.1,-171027.2,-114152.1,23367.32,-375000,-375000,-146761.3,-126313.2,0.03,-0.02,0.88,-4,0,-2,37,0
'[11:34:01.868 21/01/2026]',-103889.5,-170211.3,-114135.8,23147.87,-375000,-375000,-146746.4,-126574.6,0.03,-0.02,0.88,-4,0,-2,37,0
'[11:34:01.872 21/01/2026]',-106051.1,-173020.2,-116329.2,20908,-375000,-375000,-148648.3,-128503.4,0.03,-0.02,0.86,-4,0,-2,37,0
'[11:34:01.876 21/01/2026]',-106421.4,-174187.4,-116644,20817.12,-375000,-375000,-148931.6,-128511.8,0.03,-0.02,0.86,-4,0,-2,37,0
'[11:34:01.880 21/01/2026]',-104298.9,-171534.2,-114481.4,23062.71,-375000,-375000,-147046.2,-126566.4,0.03,-0.02,0.86,-4,0,-2,37,0
'[11:34:01.884 21/01/2026]',-103647.5,-170000.8,-113882.8,23455.7,-375000,-375000,-146532.4,-126307.6,0.03,-0.02,0.86,-4,0,-2,37,0
'[11:34:01.888 21/01/2026]',-105697.6,-172500.1,-115974.4,21241.13,-375000,-375000,-148355.7,-128225.6,0.03,-0.02,0.86,-4,0,-2,37,0
'[11:34:01.892 21/01/2026]',-106615.1,-174325.5,-116848.9,20564.63,-375000,-375000,-149109.7,-128741.1,0.03,-0.02,0.86,-4,0,-2,37,0
'[11:34:01.896 21/01/2026]',-104663,-172055.3,-114868.8,22699.98,-375000,-375000,-147363.5,-126868.9,0.03,-0.02,0.86,-4,0,-2,37,0
'[11:34:01.900 21/01/2026]',-103473.8,-169911.1,-113696,23685.07,-375000,-375000,-146370.7,-126098,0.03,-0.02,0.86,-4,0,-2,37,0
'[11:34:01.904 21/01/2026]',-105303.3,-171943.7,-115581.9,21628.84,-375000,-375000,-147992.7,-127890.5,0.03,-0.02,0.86,-4,0,-2,37,0
'[11:34:01.908 21/01/2026]',-106718.6,-174332.5,-116974.8,20395.74,-375000,-375000,-149210.7,-128898.9,0.03,-0.02,0.88,-4,0,-2,37,0
'[11:34:01.912 21/01/2026]',-105034.2,-172576.8,-115224,22332.21,-375000,-375000,-147697.8,-127200.6,0.03,-0.02,0.88,-4,0,-2,37,0
'[11:34:01.916 21/01/2026]',-103444.1,-170006.8,-113649.3,23781.76,-375000,-375000,-146333.6,-126005.5,0.03,-0.02,0.88,-4,0,-2,37,0
'[11:34:01.920 21/01/2026]',-104918.5,-171422.6,-115187.2,22028.72,-375000,-375000,-147664.2,-127564.2,0.03,-0.02,0.88,-4,0,-2,37,0
'[11:34:01.924 21/01/2026]',-106680.9,-174158.2,-116942.2,20386.58,-375000,-375000,-149195.5,-128937,0.03,-0.02,0.88,-4,0,-2,37,0
'[11:34:01.928 21/01/2026]',-105414.2,-173081.6,-115616.2,21933.27,-375000,-375000,-148042.9,-127542.9,0.03,-0.02,0.88,-4,0,-2,37,0
'[11:34:01.932 21/01/2026]',-103525.3,-170253.6,-113728.4,23741.04,-375000,-375000,-146404.3,-126026.8,0.03,-0.02,0.88,-4,0,-2,37,0
'[11:34:01.936 21/01/2026]',-104528.6,-170936.7,-114798.8,22429.35,-375000,-375000,-147324.2,-127211.1,0.03,-0.02,0.88,-4,0,-2,37,0
'[11:34:01.940 21/01/2026]',-106528.8,-173854.6,-116797.4,20490.29,-375000,-375000,-149062.3,-128851.2,0.03,-0.02,0.88,-4,0,-2,37,0
'[11:34:01.944 21/01/2026]',-105810.8,-173540.6,-116017.1,21518.96,-375000,-375000,-148385.5,-127906,0.03,0.00,0.88,-4,0,-2,37,0
'[11:34:01.948 21/01/2026]',-103725.8,-170611,-113922.2,23596.02,-375000,-375000,-146554.8,-126133.4,0.03,0.00,0.88,-4,0,-2,37,0
'[11:34:01.952 21/01/2026]',-104141.6,-170475,-114401.3,22857.21,-375000,-375000,-146978.7,-126840.2,0.03,0.00,0.88,-4,0,-2,37,0
'[11:34:01.956 21/01/2026]',-106297.8,-173428.6,-116576.4,20686.23,-375000,-375000,-148875.4,-128702.5,0.03,0.00,0.88,-4,0,-2,37,0
'[11:34:01.960 21/01/2026]',-106149.1,-173920.9,-116374.8,21137.78,-375000,-375000,-148698.4,-128241.4,0.03,0.00,0.88,-4,0,-2,37,0
'[11:34:01.964 21/01/2026]',-103992.9,-171070.3,-114190.1,23348.59,-375000,-375000,-146800.7,-126340.9,0.03,0.00,0.88,-4,0,-2,37,0
'[11:34:01.968 21/01/2026]',-103850,-170174.4,-114096.7,23200.48,-375000,-375000,-146728.8,-126553.6,0.03,0.00,0.88,-4,0,-2,37,0
'[11:34:01.972 21/01/2026]',-106009.8,-172968.5,-116292.5,20951.45,-375000,-375000,-148625.9,-128480.1,0.03,0.00,0.88,-4,0,-2,37,0
'[11:34:01.976 21/01/2026]',-106434.3,-174198.5,-116664.7,20804.64,-375000,-375000,-148952.9,-128535.3,0.03,0.00,0.88,-4,0,-2,37,0
'[11:34:01.980 21/01/2026]',-104323.1,-171579.6,-114515.4,23040.98,-375000,-375000,-147077.6,-126597.2,0.03,-0.02,0.88,-4,0,-2,37,0
'[11:34:01.984 21/01/2026]',-103595.1,-169957.9,-113833.4,23514.66,-375000,-375000,-146491.3,-126262.9,0.03,-0.02,0.88,-4,0,-2,37,0
'[11:34:01.988 21/01/2026]',-105645,-172429.4,-115931.1,21301.44,-375000,-375000,-148307.8,-128184.4,0.03,-0.02,0.88,-4,0,-2,37,0
'[11:34:01.992 21/01/2026]',-106633.9,-174342.9,-116879.1,20547.64,-375000,-375000,-149139.5,-128777.4,0.03,-0.02,0.88,-4,0,-2,37,0
'[11:34:01.996 21/01/2026]',-104681.7,-172096.6,-114874.9,22694.08,-375000,-375000,-147387.2,-126894.7,0.03,-0.02,0.88,-4,0,-2,37,0
'[11:34:02.000 21/01/2026]',-103438.9,-169893,-113666.8,23733.35,-375000,-375000,-146342.5,-126067.3,0.03,-0.02,0.88,-4,0,-2,37,0
'[11:34:02.004 21/01/2026]',-105279.8,-171908.3,-115562.9,21666.93,-375000,-375000,-147976.6,-127872.5,0.03,-0.02,0.88,-4,0,-2,37,0
'[11:34:02.008 21/01/2026]',-106716.8,-174320.3,-116976.6,20411.21,-375000,-375000,-149215.6,-128916.5,0.03,-0.02,0.88,-4,0,-2,37,0
'[11:34:02.012 21/01/2026]',-105074.2,-172634.9,-115271.1,22301.59,-375000,-375000,-147736.5,-127241.1,0.03,-0.02,0.88,-4,0,-2,37,0
'[11:34:02.016 21/01/2026]',-103440.9,-170021.8,-113661.7,23794.24,-375000,-375000,-146331.6,-126001.1,0.02,-0.02,0.88,-4,0,-2,37,0
'[11:34:02.020 21/01/2026]',-104872.2,-171364,-115150.7,22088.48,-375000,-375000,-147616.1,-127514.6,0.02,-0.02,0.88,-4,0,-2,37,0
'[11:34:02.024 21/01/2026]',-106672.6,-174133.9,-116943.9,20408.39,-375000,-375000,-149182.8,-128926.3,0.02,-0.02,0.88,-4,0,-2,37,0
'[11:34:02.028 21/01/2026]',-105442.6,-173116.5,-115645.7,21924.2,-375000,-375000,-148060.3,-127566.2,0.02,-0.02,0.88,-4,0,-2,37,0
'[11:34:02.032 21/01/2026]',-103529.2,-170262.9,-113732.7,23765.4,-375000,-375000,-146391.5,-126010.5,0.02,-0.02,0.88,-4,0,-2,37,0
'[11:34:02.036 21/01/2026]',-104487.7,-170881.6,-114761.5,22490.46,-375000,-375000,-147283.6,-127169,0.02,-0.02,0.88,-4,0,-2,37,0
'[11:34:02.040 21/01/2026]',-106522,-173825.6,-116799.4,20506.12,-375000,-375000,-149066.8,-128860.9,0.02,-0.02,0.88,-4,0,-2,37,0
'[11:34:02.044 21/01/2026]',-105826.5,-173576.7,-116045.3,21511.23,-375000,-375000,-148402.5,-127927.5,0.02,-0.02,0.88,-4,0,-2,37,0
'[11:34:02.048 21/01/2026]',-103725.2,-170646,-113926.9,23605.59,-375000,-375000,-146563.2,-126143.9,0.02,-0.02,0.88,-4,0,-2,37,0
'[11:34:02.052 21/01/2026]',-104117.7,-170462.3,-114382.6,22895.83,-375000,-375000,-146962.4,-126823.9,0.02,0.00,0.88,-4,0,-2,37,0
'[11:34:02.056 21/01/2026]',-106272.8,-173400.2,-116552.4,20724.36,-375000,-375000,-148849.4,-128682.5,0.02,0.00,0.88,-4,0,-2,37,0
'[11:34:02.060 21/01/2026]',-106176,-173952,-116398.5,21123.16,-375000,-375000,-148723.8,-128280.7,0.02,0.00,0.88,-4,0,-2,37,0
'[11:34:02.064 21/01/2026]',-104012.3,-171106.5,-114207.5,23353.15,-375000,-375000,-146801.2,-126349.7,0.02,0.00,0.88,-4,0,-2,37,0
'[11:34:02.068 21/01/2026]',-103810.5,-170130.2,-114063.2,23260.25,-375000,-375000,-146683.6,-126504.7,0.02,0.00,0.88,-4,0,-2,37,0
'[11:34:02.072 21/01/2026]',-105956.4,-172890.6,-116244.4,21015.6,-375000,-375000,-148575.8,-128437.1,0.02,0.00,0.88,-4,0,-2,37,0
'[11:34:02.076 21/01/2026]',-106447.9,-174205,-116686.1,20800.4,-375000,-375000,-148961,-128554.6,0.02,0.00,0.88,-4,0,-2,37,0
'[11:34:02.080 21/01/2026]',-104338,-171610.7,-114531.9,23038.75,-375000,-375000,-147092.9,-126615.6,0.02,0.00,0.88,-4,0,-2,37,0
'[11:34:02.084 21/01/2026]',-103563,-169932.3,-113805.9,23561.24,-375000,-375000,-146465.9,-126242.1,0.02,0.00,0.88,-4,0,-2,37,0
'[11:34:02.088 21/01/2026]',-105583.8,-172357.5,-115870.2,21374.44,-375000,-375000,-148247.7,-128131.7,0.03,-0.02,0.88,-4,0,-2,37,0
'[11:34:02.092 21/01/2026]',-106623,-174328.4,-116871.8,20564.1,-375000,-375000,-149128.4,-128778.6,0.03,-0.02,0.88,-4,0,-2,37,0
'[11:34:02.096 21/01/2026]',-104713.4,-172145.5,-114914.9,22676.29,-375000,-375000,-147421.5,-126931.1,0.03,-0.02,0.88,-4,0,-2,37,0
'[11:34:02.100 21/01/2026]',-103438.7,-169902.3,-113667.2,23756.28,-375000,-375000,-146343,-126061.1,0.03,-0.02,0.88,-4,0,-2,37,0
'[11:34:02.104 21/01/2026]',-105203.4,-171821.7,-115486.4,21754.55,-375000,-375000,-147915.9,-127812.7,0.03,-0.02,0.88,-4,0,-2,37,0
'[11:34:02.108 21/01/2026]',-106693,-174287.5,-116955.1,20438.08,-375000,-375000,-149201.5,-128900.9,0.03,-0.02,0.88,-4,0,-2,37,0
'[11:34:02.112 21/01/2026]',-105075.4,-172654.8,-115277.3,22308.92,-375000,-375000,-147742.5,-127245.3,0.03,-0.02,0.88,-4,0,-2,37,0
'[11:34:02.116 21/01/2026]',-103422.1,-170022,-113640.6,23830.04,-375000,-375000,-146324,-125990.1,0.03,-0.02,0.88,-4,0,-2,37,0
'[11:34:02.120 21/01/2026]',-104823.9,-171307.5,-115105.3,22142.08,-375000,-375000,-147591.8,-127488.6,0.03,-0.02,0.88,-4,0,-2,37,0
'[11:34:02.124 21/01/2026]',-106669.8,-174102.6,-116943,20415.9,-375000,-375000,-149188,-128933.2,0.03,-0.02,0.88,-4,0,-2,37,0
'[11:34:02.128 21/01/2026]',-105511.5,-173183.1,-115717.3,21873.82,-375000,-375000,-148122.9,-127624.1,0.03,-0.02,0.88,-4,0,-2,37,0
'[11:34:02.132 21/01/2026]',-103521.1,-170286.6,-113729.2,23783.02,-375000,-375000,-146412.7,-126024.6,0.03,-0.02,0.88,-4,0,-2,37,0
'[11:34:02.136 21/01/2026]',-104420.3,-170805.1,-114690.8,22576.42,-375000,-375000,-147241.5,-127127.1,0.03,-0.02,0.88,-4,0,-2,37,0
'[11:34:02.140 21/01/2026]',-106472.8,-173752.5,-116746.7,20567.22,-375000,-375000,-149029.7,-128827.9,0.03,-0.02,0.88,-4,0,-2,37,0
'[11:34:02.144 21/01/2026]',-105838.6,-173592.5,-116055.8,21505.19,-375000,-375000,-148433.4,-127959.1,0.03,-0.02,0.88,-4,0,-2,37,0
'[11:34:02.148 21/01/2026]',-103728,-170660.9,-113938.3,23616.49,-375000,-375000,-146579.3,-126154.4,0.03,-0.02,0.88,-4,0,-2,37,0
'[11:34:02.152 21/01/2026]',-104080.5,-170414.3,-114350.7,22951.17,-375000,-375000,-146943.8,-126802,0.03,-0.02,0.88,-4,0,-2,37,0
'[11:34:02.156 21/01/2026]',-106210.8,-173316.2,-116494.3,20793.11,-375000,-375000,-148806,-128645.1,0.03,-0.02,0.88,-4,0,-2,37,0
'[11:34:02.160 21/01/2026]',-106171.2,-173953.2,-116399.3,21131.34,-375000,-375000,-148724.3,-128283.9,0.03,0.00,0.88,-4,0,-2,37,0
'[11:34:02.164 21/01/2026]',-104016.6,-171134.7,-114218.4,23359.05,-375000,-375000,-146816.7,-126359.4,0.03,0.00,0.88,-4,0,-2,37,0
'[11:34:02.168 21/01/2026]',-103775.7,-170112.5,-114033.1,23311.48,-375000,-375000,-146658.6,-126476,0.03,0.00,0.88,-4,0,-2,37,0
'[11:34:02.172 21/01/2026]',-105907.1,-172829,-116196.1,21076.93,-375000,-375000,-148535.3,-128397.9,0.03,0.00,0.88,-4,0,-2,37,0
'[11:34:02.176 21/01/2026]',-106450,-174205.3,-116689.8,20803.8,-375000,-375000,-148969.5,-128570.5,0.03,0.00,0.88,-4,0,-2,37,0
'[11:34:02.180 21/01/2026]',-104353.9,-171639.9,-114558.5,23034.72,-375000,-375000,-147108.3,-126629,0.03,0.00,0.88,-4,0,-2,37,0
'[11:34:02.184 21/01/2026]',-103544.3,-169920.3,-113792.5,23600.85,-375000,-375000,-146448.5,-126211.6,0.03,0.00,0.88,-4,0,-2,37,0
'[11:34:02.188 21/01/2026]',-105557.6,-172310.3,-115852.3,21408.54,-375000,-375000,-148229.4,-128109.8,0.03,0.00,0.88,-4,0,-2,37,0
'[11:34:02.192 21/01/2026]',-106635.7,-174327.2,-116892.4,20557.26,-375000,-375000,-149139.9,-128789.4,0.03,0.00,0.88,-4,0,-2,37,0
'[11:34:02.196 21/01/2026]',-104748,-172192.6,-114958.8,22650.72,-375000,-375000,-147449.5,-126954.3,0.03,-0.02,0.89,-4,0,-2,37,0
'[11:34:02.200 21/01/2026]',-103438.4,-169914.5,-113668.9,23771.75,-375000,-375000,-146343.9,-126052.8,0.03,-0.02,0.89,-4,0,-2,37,0
'[11:34:02.204 21/01/2026]',-105186.2,-171790.9,-115478.4,21784.14,-375000,-375000,-147902.9,-127799.2,0.03,-0.02,0.89,-4,0,-2,37,0
'[11:34:02.208 21/01/2026]',-106686.7,-174278.9,-116947.3,20450.86,-375000,-375000,-149202.8,-128911.2,0.03,-0.02,0.89,-4,0,-2,37,0
'[11:34:02.212 21/01/2026]',-105125.3,-172709.8,-115331.3,22270.61,-375000,-375000,-147786.2,-127286.7,0.03,-0.02,0.89,-4,0,-2,37,0
'[11:34:02.216 21/01/2026]',-103427.8,-170040.4,-113652.8,23839.16,-375000,-375000,-146324.4,-125981.9,0.03,-0.02,0.89,-4,0,-2,37,0
'[11:34:02.220 21/01/2026]',-104788.1,-171265.4,-115075.6,22190.05,-375000,-375000,-147555.7,-127452.4,0.03,-0.02,0.89,-4,0,-2,37,0
'[11:34:02.224 21/01/2026]',-106640.7,-174075.2,-116914.3,20449.88,-375000,-375000,-149166.5,-128924.3,0.03,-0.02,0.89,-4,0,-2,37,0
'[11:34:02.228 21/01/2026]',-105503.2,-173192.5,-115714.8,21880.08,-375000,-375000,-148118.7,-127630,0.03,-0.02,0.89,-4,0,-2,37,0
'[11:34:02.232 21/01/2026]',-103545.5,-170321,-113760.6,23776.8,-375000,-375000,-146417.3,-126031,0.02,0.00,0.88,-4,0,-2,37,0
'[11:34:02.236 21/01/2026]',-104404.2,-170784,-114682.4,22610.09,-375000,-375000,-147217.6,-127100.1,0.02,0.00,0.88,-4,0,-2,37,0
'[11:34:02.240 21/01/2026]',-106464.8,-173732.9,-116743.5,20584.44,-375000,-375000,-149016.2,-128816,0.02,0.00,0.88,-4,0,-2,37,0
'[11:34:02.244 21/01/2026]',-105887.1,-173653.6,-116104.6,21468.31,-375000,-375000,-148462.7,-127987.8,0.02,0.00,0.88,-4,0,-2,37,0
'[11:34:02.248 21/01/2026]',-103766.7,-170732,-113974.4,23592.62,-375000,-375000,-146607.6,-126174.7,0.02,0.00,0.88,-4,0,-2,37,0
'[11:34:02.252 21/01/2026]',-104048.1,-170382.4,-114317.6,23005.35,-375000,-375000,-146905.6,-126753.5,0.02,0.00,0.88,-4,0,-2,37,0
'[11:34:02.256 21/01/2026]',-106205.5,-173283.6,-116489.9,20816.89,-375000,-375000,-148794,-128623.8,0.02,0.00,0.88,-4,0,-2,37,0
'[11:34:02.260 21/01/2026]',-106209.8,-173994.3,-116436.1,21100.31,-375000,-375000,-148766,-128320.2,0.02,0.00,0.88,-4,0,-2,37,0
'[11:34:02.264 21/01/2026]',-104054.3,-171193.3,-114258.6,23331.02,-375000,-375000,-146862.2,-126400.8,0.02,0.00,0.88,-4,0,-2,37,0
'[11:34:02.268 21/01/2026]',-103753.8,-170090.7,-114012.8,23348.27,-375000,-375000,-146658.6,-126471.2,0.03,-0.02,0.88,-4,0,-2,37,0
'[11:34:02.272 21/01/2026]',-105881.1,-172796.5,-116168.6,21114.44,-375000,-375000,-148521.7,-128384.8,0.03,-0.02,0.88,-4,0,-2,37,0
'[11:34:02.276 21/01/2026]',-106474,-174236,-116712.4,20783.68,-375000,-375000,-149000.4,-128604.8,0.03,-0.02,0.88,-4,0,-2,37,0
'[11:34:02.280 21/01/2026]',-104410.6,-171720,-114613.9,22993.15,-375000,-375000,-147163.9,-126683.2,0.03,-0.02,0.88,-4,0,-2,37,0
'[11:34:02.284 21/01/2026]',-103536.2,-169920.2,-113784.3,23630.84,-375000,-375000,-146448.8,-126207.2,0.03,-0.02,0.88,-4,0,-2,37,0
'[11:34:02.288 21/01/2026]',-105528.1,-172267.5,-115815.6,21453.25,-375000,-375000,-148210.3,-128091.3,0.03,-0.02,0.88,-4,0,-2,37,0
'[11:34:02.292 21/01/2026]',-106655.7,-174339.8,-116909.9,20544.47,-375000,-375000,-149170.2,-128824.5,0.03,-0.02,0.88,-4,0,-2,37,0
'[11:34:02.296 21/01/2026]',-104775.3,-172251.2,-114978.5,22633.38,-375000,-375000,-147482.6,-126987.5,0.03,-0.02,0.88,-4,0,-2,37,0
'[11:34:02.300 21/01/2026]',-103438.8,-169916.5,-113676.5,23789.32,-375000,-375000,-146352.2,-126056.3,0.03,-0.02,0.88,-4,0,-2,37,0
'[11:34:02.304 21/01/2026]',-105151.4,-171741.1,-115442.6,21829.83,-375000,-375000,-147883.7,-127776.5,0.02,-0.02,0.88,-4,0,-2,37,0
'[11:34:02.308 21/01/2026]',-106683,-174255,-116944.7,20463.2,-375000,-375000,-149202.5,-128911.2,0.02,-0.02,0.88,-4,0,-2,37,0
'[11:34:02.312 21/01/2026]',-105157.8,-172755.3,-115359,22252.14,-375000,-375000,-147824.4,-127324.5,0.02,-0.02,0.88,-4,0,-2,37,0
'[11:34:02.316 21/01/2026]',-103446.3,-170077.4,-113666.2,23842.43,-375000,-375000,-146352.4,-126002.9,0.02,-0.02,0.88,-4,0,-2,37,0
'[11:34:02.320 21/01/2026]',-104742,-171208,-115023.5,22255.86,-375000,-375000,-147526.7,-127412.8,0.02,-0.02,0.88,-4,0,-2,37,0
'[11:34:02.324 21/01/2026]',-106621.4,-174038.2,-116887.4,20477.37,-375000,-375000,-149154.2,-128911,0.02,-0.02,0.88,-4,0,-2,37,0
'[11:34:02.328 21/01/2026]',-105553.5,-173247.4,-115758.6,21840.25,-375000,-375000,-148165.2,-127670,0.02,-0.02,0.88,-4,0,-2,37,0
'[11:34:02.332 21/01/2026]',-103575.1,-170360,-113786.6,23765.89,-375000,-375000,-146445.2,-126048.2,0.02,-0.02,0.88,-4,0,-2,37,0
'[11:34:02.336 21/01/2026]',-104367.9,-170748,-114645,22657.43,-375000,-375000,-147190.2,-127064.7,0.02,-0.02,0.88,-4,0,-2,37,0
'[11:34:02.340 21/01/2026]',-106438.1,-173685.8,-116719.8,20615.73,-375000,-375000,-148997,-128794.3,0.03,0.00,0.88,-4,0,-2,37,0
'[11:34:02.344 21/01/2026]',-105920.7,-173684.6,-116137.5,21442.61,-375000,-375000,-148490.5,-128020.1,0.03,0.00,0.88,-4,0,-2,37,0
'[11:34:02.348 21/01/2026]',-103808.4,-170778.2,-114007.5,23573.36,-375000,-375000,-146637.4,-126205.3,0.03,0.00,0.88,-4,0,-2,37,0
'[11:34:02.352 21/01/2026]',-104031.5,-170341.7,-114292.8,23044.92,-375000,-375000,-146887,-126738.3,0.03,0.00,0.88,-4,0,-2,37,0
'[11:34:02.356 21/01/2026]',-106180.2,-173243.3,-116459.5,20846.4,-375000,-375000,-148775.4,-128621.2,0.03,0.00,0.88,-4,0,-2,37,0
'[11:34:02.360 21/01/2026]',-106239.7,-174018.9,-116460.1,21084.31,-375000,-375000,-148777.1,-128349.1,0.03,0.00,0.88,-4,0,-2,37,0
'[11:34:02.364 21/01/2026]',-104093.9,-171240.8,-114291.9,23314.93,-375000,-375000,-146878.3,-126417.3,0.03,0.00,0.88,-4,0,-2,37,0
'[11:34:02.368 21/01/2026]',-103740.1,-170070.1,-113996,23388.95,-375000,-375000,-146625.6,-126431.1,0.03,0.00,0.88,-4,0,-2,37,0
'[11:34:02.372 21/01/2026]',-105865.1,-172747.6,-116154.7,21150.7,-375000,-375000,-148493.6,-128357.7,0.03,0.00,0.88,-4,0,-2,37,0
'[11:34:02.376 21/01/2026]',-106503,-174252.9,-116732.8,20769.96,-375000,-375000,-149021.1,-128632.6,0.03,-0.02,0.86,-4,0,-2,37,0
'[11:34:02.380 21/01/2026]',-104440.7,-171760.3,-114633.8,22983.36,-375000,-375000,-147185.8,-126701.9,0.03,-0.02,0.86,-4,0,-2,37,0
'[11:34:02.384 21/01/2026]',-103523.7,-169907.1,-113763.3,23669.33,-375000,-375000,-146432.4,-126184.4,0.03,-0.02,0.86,-4,0,-2,37,0
'[11:34:02.388 21/01/2026]',-105493.1,-172204.4,-115781.4,21504.84,-375000,-375000,-148183.2,-128060.6,0.03,-0.02,0.86,-4,0,-2,37,0
'[11:34:02.392 21/01/2026]',-106644.4,-174299,-116892.3,20564.23,-375000,-375000,-149156.8,-128813.3,0.03,-0.02,0.86,-4,0,-2,37,0
'[11:34:02.396 21/01/2026]',-104818.3,-172290.2,-115016.2,22606.15,-375000,-375000,-147514,-127017.7,0.03,-0.02,0.86,-4,0,-2,37,0
'[11:34:02.400 21/01/2026]',-103446.4,-169953.8,-113672.5,23805.9,-375000,-375000,-146343.8,-126041.7,0.03,-0.02,0.86,-4,0,-2,37,0
'[11:34:02.404 21/01/2026]',-105133.7,-171730.7,-115418,21863,-375000,-375000,-147862.4,-127756,0.03,-0.02,0.86,-4,0,-2,37,0
'[11:34:02.408 21/01/2026]',-106716,-174293.3,-116973,20441.7,-375000,-375000,-149213.3,-128932.2,0.03,-0.02,0.86,-4,0,-2,37,0
'[11:34:02.412 21/01/2026]',-105203,-172826,-115399.1,22222.37,-375000,-375000,-147845.2,-127352.5,0.02,-0.02,0.88,-4,0,-2,37,0
'[11:34:02.416 21/01/2026]',-103441.7,-170101.1,-113656.6,23864.55,-375000,-375000,-146340.4,-125991.1,0.02,-0.02,0.88,-4,0,-2,37,0
'[11:34:02.420 21/01/2026]',-104722.3,-171199.9,-114999.2,22288.53,-375000,-375000,-147503.8,-127400.3,0.02,-0.02,0.88,-4,0,-2,37,0
'[11:34:02.424 21/01/2026]',-106618,-174051.5,-116880,20490.74,-375000,-375000,-149148.1,-128915.5,0.02,-0.02,0.88,-4,0,-2,37,0
'[11:34:02.428 21/01/2026]',-105595.4,-173313.8,-115804,21810.47,-375000,-375000,-148204.8,-127717.5,0.02,-0.02,0.88,-4,0,-2,37,0
'[11:34:02.432 21/01/2026]',-103587,-170410,-113793.4,23769.34,-375000,-375000,-146460.5,-126064.6,0.02,-0.02,0.88,-4,0,-2,37,0
'[11:34:02.436 21/01/2026]',-104327.5,-170712.6,-114595.6,22719.12,-375000,-375000,-147157.9,-127032.1,0.02,-0.02,0.88,-4,0,-2,37,0
'[11:34:02.440 21/01/2026]',-106429.4,-173677.6,-116697.3,20638.17,-375000,-375000,-148994.8,-128803.6,0.02,-0.02,0.88,-4,0,-2,37,0
'[11:34:02.444 21/01/2026]',-105954,-173733.5,-116164.9,21415.7,-375000,-375000,-148530.6,-128069.1,0.02,-0.02,0.88,-4,0,-2,37,0
'[11:34:02.448 21/01/2026]',-103819.4,-170825.1,-114024.4,23573.45,-375000,-375000,-146660.3,-126226,0.03,-0.02,0.86,-4,0,-2,37,0
'[11:34:02.452 21/01/2026]',-103995.8,-170346.8,-114260.8,23091.99,-375000,-375000,-146867.8,-126713.8,0.03,-0.02,0.86,-4,0,-2,37,0
'[11:34:02.456 21/01/2026]',-106145.7,-173223.8,-116422.9,20892.58,-375000,-375000,-148749.5,-128592,0.03,-0.02,0.86,-4,0,-2,37,0
'[11:34:02.460 21/01/2026]',-106268.7,-174067.5,-116488.6,21059.86,-375000,-375000,-148815.3,-128383.3,0.03,-0.02,0.86,-4,0,-2,37,0
'[11:34:02.464 21/01/2026]',-104128.8,-171309.3,-114330.1,23286.98,-375000,-375000,-146926.5,-126463.2,0.03,-0.02,0.86,-4,0,-2,37,0
'[11:34:02.468 21/01/2026]',-103714.1,-170069.4,-113970.9,23425.48,-375000,-375000,-146622.3,-126421.8,0.03,-0.02,0.86,-4,0,-2,37,0
'[11:34:02.472 21/01/2026]',-105807.5,-172721.6,-116088.2,21204.38,-375000,-375000,-148463.6,-128329.5,0.03,-0.02,0.86,-4,0,-2,37,0
'[11:34:02.476 21/01/2026]',-106516.5,-174288.3,-116748.7,20756.81,-375000,-375000,-149034.8,-128654.6,0.03,-0.02,0.86,-4,0,-2,37,0
'[11:34:02.480 21/01/2026]',-104480.3,-171836.1,-114679.4,22948.63,-375000,-375000,-147230.1,-126759.1,0.03,-0.02,0.86,-4,0,-2,37,0
'[11:34:02.484 21/01/2026]',-103503.3,-169932.3,-113740.2,23701.07,-375000,-375000,-146425.1,-126184.4,0.03,-0.02,0.88,-4,0,-2,37,0
'[11:34:02.488 21/01/2026]',-105434.8,-172169.2,-115717.3,21572.25,-375000,-375000,-148135.8,-128028.1,0.03,-0.02,0.88,-4,0,-2,37,0
'[11:34:02.492 21/01/2026]',-106654.6,-174338.9,-116900.8,20559,-375000,-375000,-149172.4,-128847.4,0.03,-0.02,0.88,-4,0,-2,37,0
'[11:34:02.496 21/01/2026]',-104849.9,-172356.8,-115057,22583.58,-375000,-375000,-147550.7,-127060.9,0.03,-0.02,0.88,-4,0,-2,37,0
'[11:34:02.500 21/01/2026]',-103422.1,-169955.8,-113654.2,23838.04,-375000,-375000,-146341.7,-126040.3,0.03,-0.02,0.88,-4,0,-2,37,0
'[11:34:02.504 21/01/2026]',-105055.3,-171645.3,-115337.7,21948.88,-375000,-375000,-147803,-127699,0.03,-0.02,0.88,-4,0,-2,37,0
'[11:34:02.508 21/01/2026]',-106677.3,-174240.8,-116935,20479.61,-375000,-375000,-149202.4,-128931.2,0.03,-0.02,0.88,-4,0,-2,37,0
'[11:34:02.512 21/01/2026]',-105244.2,-172887.7,-115443.2,22182.05,-375000,-375000,-147904.8,-127411.6,0.03,-0.02,0.88,-4,0,-2,37,0
'[11:34:02.516 21/01/2026]',-103450,-170128.1,-113680,23863.79,-375000,-375000,-146360.2,-126002.5,0.03,-0.02,0.88,-4,0,-2,37,0
'[11:34:02.520 21/01/2026]',-104654.4,-171129.3,-114945.8,22357.69,-375000,-375000,-147463.6,-127354.8,0.03,-0.02,0.88,-4,0,-2,37,0
'[11:34:02.524 21/01/2026]',-106574.9,-173979.1,-116836.6,20538.62,-375000,-375000,-149119.9,-128882.8,0.03,-0.02,0.88,-4,0,-2,37,0
'[11:34:02.528 21/01/2026]',-105616.7,-173345.6,-115818.8,21794.47,-375000,-375000,-148237.3,-127750,0.03,-0.02,0.88,-4,0,-2,37,0
'[11:34:02.532 21/01/2026]',-103605.6,-170457.2,-113812.8,23764.55,-375000,-375000,-146489.9,-126088.8,0.03,-0.02,0.88,-4,0,-2,37,0
'[11:34:02.536 21/01/2026]',-104283.6,-170673.4,-114558.1,22771.42,-375000,-375000,-147133.9,-127007.9,0.03,-0.02,0.88,-4,0,-2,37,0
'[11:34:02.540 21/01/2026]',-106376.8,-173623.3,-116650.7,20691.63,-375000,-375000,-148962.2,-128773.3,0.03,-0.02,0.88,-4,0,-2,37,0
'[11:34:02.544 21/01/2026]',-105975.7,-173761.1,-116193.1,21396.16,-375000,-375000,-148563.5,-128102.6,0.03,-0.02,0.88,-4,0,-2,37,0
'[11:34:02.548 21/01/2026]',-103840.6,-170862,-114051,23561.6,-375000,-375000,-146693.2,-126252.9,0.03,-0.02,0.88,-4,0,-2,37,0
'[11:34:02.552 21/01/2026]',-103963.8,-170305.7,-114232.3,23139.15,-375000,-375000,-146850.2,-126689.8,0.03,-0.02,0.88,-4,0,-2,37,0
'[11:34:02.556 21/01/2026]',-106112.3,-173170.8,-116401.5,20919.85,-375000,-375000,-148737.3,-128577.3,0.03,-0.02,0.88,-4,0,-2,37,0
'[11:34:02.560 21/01/2026]',-106276.7,-174078.9,-116499.7,21048.19,-375000,-375000,-148837.4,-128407,0.03,-0.02,0.88,-4,0,-2,37,0
'[11:34:02.564 21/01/2026]',-104152.9,-171347.9,-114354.7,23274.6,-375000,-375000,-146954.5,-126487,0.03,-0.02,0.88,-4,0,-2,37,0
'[11:34:02.568 21/01/2026]',-103671.6,-170032.3,-113929.7,23479.75,-375000,-375000,-146599,-126391.2,0.03,-0.02,0.88,-4,0,-2,37,0
'[11:34:02.572 21/01/2026]',-105774.4,-172654.7,-116065,21244.39,-375000,-375000,-148442.1,-128304.4,0.03,-0.02,0.88,-4,0,-2,37,0
'[11:34:02.576 21/01/2026]',-106535.7,-174293.8,-116773.2,20731.69,-375000,-375000,-149070.1,-128681.7,0.03,-0.02,0.88,-4,0,-2,37,0
'[11:34:02.580 21/01/2026]',-104521.3,-171889.5,-114720.4,22910.49,-375000,-375000,-147280.2,-126785.1,0.03,-0.02,0.88,-4,0,-2,37,0
'[11:34:02.584 21/01/2026]',-103501.6,-169931,-113747.6,23707.96,-375000,-375000,-146438.9,-126177.1,0.03,-0.02,0.88,-4,0,-2,37,0
'[11:34:02.588 21/01/2026]',-105409.3,-172134.8,-115703.6,21595.09,-375000,-375000,-148121.2,-128004.9,0.03,-0.02,0.88,-4,0,-2,37,0
'[11:34:02.592 21/01/2026]',-106668,-174340.1,-116921,20541.43,-375000,-375000,-149193.1,-128859.2,0.02,-0.02,0.88,-4,0,-2,37,0
'[11:34:02.596 21/01/2026]',-104894.5,-172412.2,-115100,22542.49,-375000,-375000,-147598.5,-127094.9,0.02,-0.02,0.88,-4,0,-2,37,0
'[11:34:02.600 21/01/2026]',-103431,-169972.7,-113664.6,23845.55,-375000,-375000,-146358,-126040.8,0.02,-0.02,0.88,-4,0,-2,37,0
'[11:34:02.604 21/01/2026]',-105023.9,-171602,-115308.5,21990,-375000,-375000,-147787.8,-127677.9,0.02,-0.02,0.88,-4,0,-2,37,0
'[11:34:02.608 21/01/2026]',-106670.2,-174222.2,-116931.3,20488.19,-375000,-375000,-149205.9,-128929.7,0.02,-0.02,0.88,-4,0,-2,37,0
'[11:34:02.612 21/01/2026]',-105276.7,-172916.5,-115482.8,22152.86,-375000,-375000,-147938.9,-127442.6,0.02,-0.02,0.88,-4,0,-2,37,0
'[11:34:02.616 21/01/2026]',-103477.1,-170161.1,-113705.6,23850.25,-375000,-375000,-146384.9,-126017.1,0.02,-0.02,0.88,-4,0,-2,37,0
'[11:34:02.620 21/01/2026]',-104645.5,-171095.7,-114931.4,22385.99,-375000,-375000,-147449.6,-127333.5,0.02,-0.02,0.88,-4,0,-2,37,0
'[11:34:02.624 21/01/2026]',-106578.1,-173971.4,-116852.7,20529.9,-375000,-375000,-149129.3,-128901.3,0.02,-0.02,0.88,-4,0,-2,37,0
'[11:34:02.628 21/01/2026]',-105659.6,-173394.3,-115879.6,21748.2,-375000,-375000,-148269.4,-127783.2,0.02,-0.02,0.88,-4,0,-2,37,0
'[11:34:02.632 21/01/2026]',-103633.9,-170489.9,-113840.2,23751.01,-375000,-375000,-146496.5,-126089.7,0.02,-0.02,0.88,-4,0,-2,37,0
'[11:34:02.636 21/01/2026]',-104265.9,-170638.2,-114532.2,22807.99,-375000,-375000,-147103.1,-126975.9,0.02,-0.02,0.88,-4,0,-2,37,0
'[11:34:02.640 21/01/2026]',-106366.9,-173582.4,-116635,20711.04,-375000,-375000,-148944.9,-128764.9,0.02,-0.02,0.88,-4,0,-2,37,0
'[11:34:02.644 21/01/2026]',-106013.6,-173802.4,-116227.3,21367.28,-375000,-375000,-148586.2,-128132.3,0.02,-0.02,0.88,-4,0,-2,37,0
'[11:34:02.648 21/01/2026]',-103870.9,-170906,-114073.3,23545.91,-375000,-375000,-146706.9,-126270,0.02,-0.02,0.88,-4,0,-2,37,0
'[11:34:02.652 21/01/2026]',-103925.3,-170266.2,-114185.1,23193.15,-375000,-375000,-146810.2,-126651.2,0.02,-0.02,0.88,-4,0,-2,37,0
'[11:34:02.656 21/01/2026]',-106084.1,-173125.7,-116359,20968.97,-375000,-375000,-148699,-128556.1,0.02,-0.02,0.88,-4,0,-2,37,0
'[11:34:02.660 21/01/2026]',-106325.8,-174124.5,-116546.1,21009.88,-375000,-375000,-148864.8,-128450.1,0.02,-0.02,0.88,-4,0,-2,37,0
'[11:34:02.664 21/01/2026]',-104195,-171412.8,-114389.8,23246.84,-375000,-375000,-146979.2,-126516,0.03,0.00,0.88,-4,0,-2,37,0
'[11:34:02.668 21/01/2026]',-103659.7,-170022.3,-113908.6,23517.79,-375000,-375000,-146568.6,-126365,0.03,0.00,0.88,-4,0,-2,37,0
'[11:34:02.672 21/01/2026]',-105743.6,-172610.2,-116023.9,21289.5,-375000,-375000,-148403.2,-128275.1,0.03,0.00,0.88,-4,0,-2,37,0
'[11:34:02.676 21/01/2026]',-106559,-174316.5,-116793.2,20720.33,-375000,-375000,-149078.8,-128706.9,0.03,0.00,0.88,-4,0,-2,37,0
'[11:34:02.680 21/01/2026]',-104542.4,-171930.7,-114741.9,22904.32,-375000,-375000,-147288.4,-126806.8,0.03,0.00,0.88,-4,0,-2,37,0
'[11:34:02.684 21/01/2026]',-103480.5,-169919.5,-113725.7,23751.68,-375000,-375000,-146410.7,-126150.9,0.03,0.00,0.88,-4,0,-2,37,0
'[11:34:02.688 21/01/2026]',-105383.3,-172086.3,-115669.2,21639.17,-375000,-375000,-148101.6,-127994.2,0.03,0.00,0.88,-4,0,-2,37,0
'[11:34:02.692 21/01/2026]',-106694.9,-174353.1,-116955.3,20525.56,-375000,-375000,-149212.9,-128895.5,0.03,0.00,0.88,-4,0,-2,37,0
'[11:34:02.696 21/01/2026]',-104916.4,-172451.5,-115125.4,22528.01,-375000,-375000,-147630.6,-127139.6,0.03,0.00,0.88,-4,0,-2,37,0
'[11:34:02.700 21/01/2026]',-103402.3,-169960.1,-113636.7,23879.71,-375000,-375000,-146349.3,-126038.6,0.03,0.00,0.88,-4,0,-2,37,0
'[11:34:02.704 21/01/2026]',-105004.2,-171552.1,-115279.9,22033.86,-375000,-375000,-147755,-127655.5,0.03,0.00,0.88,-4,0,-2,37,0
'[11:34:02.708 21/01/2026]',-106693.4,-174213.3,-116936.4,20488.55,-375000,-375000,-149206.5,-128942.3,0.03,0.00,0.88,-4,0,-2,37,0
'[11:34:02.712 21/01/2026]',-105315.1,-172955.9,-115507.4,22141.91,-375000,-375000,-147955.5,-127463.5,0.03,0.00,0.88,-4,0,-2,37,0
'[11:34:02.716 21/01/2026]',-103483.9,-170166.5,-113695.9,23880.33,-375000,-375000,-146376.6,-126012.9,0.03,0.00,0.88,-4,0,-2,37,0
'[11:34:02.720 21/01/2026]',-104608,-171032.7,-114872.2,22458.76,-375000,-375000,-147399.9,-127290.1,0.03,0.00,0.88,-4,0,-2,37,0
'[11:34:02.724 21/01/2026]',-106576.6,-173935.1,-116829.8,20559.04,-375000,-375000,-149110.1,-128889.5,0.03,0.00,0.88,-4,0,-2,37,0
'[11:34:02.728 21/01/2026]',-105719.8,-173456.8,-115914.4,21715.61,-375000,-375000,-148308.7,-127825.8,0.03,0.00,0.88,-4,0,-2,37,0
'[11:34:02.732 21/01/2026]',-103653.7,-170516.7,-113855.5,23755.84,-375000,-375000,-146511.5,-126101.7,0.03,0.00,0.88,-4,0,-2,37,0
'[11:34:02.736 21/01/2026]',-104252.6,-170594.9,-114524.2,22848.22,-375000,-375000,-147087,-126955.1,0.02,-0.02,0.88,-4,0,-2,37,0
'[11:34:02.740 21/01/2026]',-106364.5,-173555.8,-116628.3,20729.14,-375000,-375000,-148937.7,-128765.1,0.02,-0.02,0.88,-4,0,-2,37,0
'[11:34:02.744 21/01/2026]',-106072.1,-173853.8,-116281.9,21324.41,-375000,-375000,-148634,-128186,0.02,-0.02,0.88,-4,0,-2,37,0
'[11:34:02.748 21/01/2026]',-103910.6,-170959,-114105.4,23525.57,-375000,-375000,-146735.2,-126295.3,0.02,-0.02,0.88,-4,0,-2,37,0
'[11:34:02.752 21/01/2026]',-103916.1,-170251.5,-114171.4,23226.72,-375000,-375000,-146789.4,-126627.2,0.02,-0.02,0.88,-4,0,-2,37,0
'[11:34:02.756 21/01/2026]',-106058.6,-173077,-116329.2,21007.91,-375000,-375000,-148668.2,-128524.5,0.02,-0.02,0.88,-4,0,-2,37,0
'[11:34:02.760 21/01/2026]',-106364.3,-174145,-116583.1,20983.5,-375000,-375000,-148893.5,-128485.6,0.02,-0.02,0.88,-4,0,-2,37,0
'[11:34:02.764 21/01/2026]',-104233.7,-171455.4,-114426.3,23228.33,-375000,-375000,-147001.1,-126541.6,0.02,-0.02,0.88,-4,0,-2,37,0
'[11:34:02.768 21/01/2026]',-103656.5,-170021.6,-113904,23539.47,-375000,-375000,-146549.9,-126341.4,0.02,-0.02,0.88,-4,0,-2,37,0
'[11:34:02.772 21/01/2026]',-105739.9,-172567.6,-116022.2,21316.32,-375000,-375000,-148392.3,-128267.3,0.03,0.00,0.88,-4,0,-2,37,0
'[11:34:02.776 21/01/2026]',-106584.5,-174320.8,-116813.3,20707.46,-375000,-375000,-149098.9,-128732.9,0.03,0.00,0.88,-4,0,-2,37,0
'[11:34:02.780 21/01/2026]',-104595.9,-171986.7,-114785.2,22876.96,-375000,-375000,-147325.4,-126847.9,0.03,0.00,0.88,-4,0,-2,37,0
'[11:34:02.784 21/01/2026]',-103479.5,-169907.2,-113713.1,23784,-375000,-375000,-146391.5,-126126.6,0.03,0.00,0.88,-4,0,-2,37,0
'[11:34:02.788 21/01/2026]',-105361,-172030.8,-115639.4,21684.41,-375000,-375000,-148063.6,-127954.8,0.03,0.00,0.88,-4,0,-2,37,0
'[11:34:02.792 21/01/2026]',-106695.8,-174337.2,-116936.9,20541.21,-375000,-375000,-149198.3,-128885,0.03,0.00,0.88,-4,0,-2,37,0
'[11:34:02.796 21/01/2026]',-104969.3,-172507.7,-115166.6,22499.58,-375000,-375000,-147650.4,-127159.2,0.03,0.00,0.88,-4,0,-2,37,0
'[11:34:02.800 21/01/2026]',-103432.4,-169977.7,-113662.4,23885.7,-375000,-375000,-146340.9,-126025.1,0.03,0.00,0.88,-4,0,-2,37,0
'[11:34:02.804 21/01/2026]',-104958.1,-171500.1,-115236,22090.23,-375000,-375000,-147712.4,-127612.4,0.03,0.00,0.88,-4,0,-2,37,0
'[11:34:02.808 21/01/2026]',-106674.9,-174197.4,-116935.9,20502.9,-375000,-375000,-149189.1,-128934.3,0.03,-0.02,0.88,-4,0,-2,37,0
'[11:34:02.812 21/01/2026]',-105348.1,-173010.5,-115551.6,22111.15,-375000,-375000,-147981,-127498.6,0.03,-0.02,0.88,-4,0,-2,37,0
'[11:34:02.816 21/01/2026]',-103488.3,-170193.5,-113699.7,23884.54,-375000,-375000,-146375.3,-126016,0.03,-0.02,0.88,-4,0,-2,37,0
'[11:34:02.820 21/01/2026]',-104593.6,-171005.6,-114872.2,22475.62,-375000,-375000,-147391.7,-127288.5,0.03,-0.02,0.88,-4,0,-2,37,0
'[11:34:02.824 21/01/2026]',-106570.4,-173910.1,-116831.9,20569.24,-375000,-375000,-149104.8,-128891.5,0.03,-0.02,0.88,-4,0,-2,37,0
'[11:34:02.828 21/01/2026]',-105741.8,-173487.8,-115940.2,21699.92,-375000,-375000,-148330.9,-127857.8,0.03,-0.02,0.88,-4,0,-2,37,0
'[11:34:02.832 21/01/2026]',-103673.4,-170566.4,-113885.4,23738.13,-375000,-375000,-146539.1,-126130.9,0.03,-0.02,0.88,-4,0,-2,37,0
'[11:34:02.836 21/01/2026]',-104187.2,-170556.7,-114469.1,22906.07,-375000,-375000,-147046.3,-126920.9,0.03,-0.02,0.88,-4,0,-2,37,0
'[11:34:02.840 21/01/2026]',-106325.9,-173508.6,-116601,20771.43,-375000,-375000,-148901.1,-128732.4,0.03,-0.02,0.88,-4,0,-2,37,0
'[11:34:02.844 21/01/2026]',-106083.7,-173869.9,-116293.7,21323.29,-375000,-375000,-148635.3,-128187.6,0.03,-0.02,0.88,-4,0,-2,37,0
'[11:34:02.848 21/01/2026]',-103929.2,-170988.4,-114127.4,23523.47,-375000,-375000,-146750.4,-126305.5,0.03,-0.02,0.88,-4,0,-2,37,0
'[11:34:02.852 21/01/2026]',-103866.8,-170192,-114128.9,23284.04,-375000,-375000,-146767.9,-126603.7,0.03,-0.02,0.88,-4,0,-2,37,0
'[11:34:02.856 21/01/2026]',-106030.7,-173027.3,-116316.8,21037.95,-375000,-375000,-148664.7,-128521.8,0.03,-0.02,0.88,-4,0,-2,37,0
'[11:34:02.860 21/01/2026]',-106403.2,-174206.4,-116612.6,20963.03,-375000,-375000,-148909.7,-128501.7,0.03,-0.02,0.88,-4,0,-2,37,0
'[11:34:02.864 21/01/2026]',-104287.9,-171544.6,-114462.5,23199.05,-375000,-375000,-147034.1,-126570.4,0.03,-0.02,0.88,-4,0,-2,37,0
'[11:34:02.868 21/01/2026]',-103644.1,-170025.4,-113870.7,23585.07,-375000,-375000,-146526.5,-126314.4,0.03,-0.02,0.88,-4,0,-2,37,0
'[11:34:02.872 21/01/2026]',-105719.2,-172562.2,-115972.3,21364.29,-375000,-375000,-148347.3,-128232,0.03,-0.02,0.88,-4,0,-2,37,0
'[11:34:02.876 21/01/2026]',-106644.7,-174402.2,-116846.5,20680.32,-375000,-375000,-149118,-128765,0.03,-0.02,0.88,-4,0,-2,37,0
'[11:34:02.880 21/01/2026]',-104683,-172107.9,-114844.6,22826.63,-375000,-375000,-147366.1,-126887.6,0.03,-0.02,0.88,-4,0,-2,37,0
'[11:34:02.884 21/01/2026]',-103533.5,-170001.1,-113734.3,23776.18,-375000,-375000,-146397.3,-126134.6,0.03,-0.02,0.88,-4,0,-2,37,0
'[11:34:02.888 21/01/2026]',-105383.6,-172071.5,-115626.9,21702.74,-375000,-375000,-148043.6,-127946.5,0.03,-0.02,0.88,-4,0,-2,37,0
'[11:34:02.892 21/01/2026]',-106765.6,-174415,-116979.9,20501.06,-375000,-375000,-149227,-128927.6,0.03,-0.02,0.88,-4,0,-2,37,0
'[11:34:02.896 21/01/2026]',-105070.3,-172627.5,-115237.7,22445.13,-375000,-375000,-147699.4,-127214.4,0.03,-0.02,0.88,-4,0,-2,37,0
'[11:34:02.900 21/01/2026]',-103475.3,-170067.3,-113666.4,23882.97,-375000,-375000,-146355.8,-126040.4,0.03,-0.02,0.88,-4,0,-2,37,0
'[11:34:02.904 21/01/2026]',-104964.2,-171513.6,-115213.6,22119.78,-375000,-375000,-147691.6,-127596.4,0.03,-0.02,0.88,-4,0,-2,37,0
'[11:34:02.908 21/01/2026]',-106714.5,-174234.8,-116953.2,20488.05,-375000,-375000,-149208.7,-128960.8,0.03,-0.02,0.88,-4,0,-2,37,0
'[11:34:02.912 21/01/2026]',-105430.3,-173115.4,-115595.8,22065.64,-375000,-375000,-148037.8,-127556.3,0.03,-0.02,0.88,-4,0,-2,37,0
'[11:34:02.916 21/01/2026]',-103547.7,-170282.9,-113728.8,23869.38,-375000,-375000,-146403.4,-126037.3,0.03,0.00,0.88,-4,0,-2,37,0
'[11:34:02.920 21/01/2026]',-104591.9,-171027.2,-114844.2,22514.06,-375000,-375000,-147373.2,-127265.3,0.03,0.00,0.88,-4,0,-2,37,0
'[11:34:02.924 21/01/2026]',-106587.7,-173948.4,-116831.6,20572.46,-375000,-375000,-149115.3,-128911.5,0.03,0.00,0.88,-4,0,-2,37,0
'[11:34:02.928 21/01/2026]',-105817.4,-173591.5,-115991.9,21647.93,-375000,-375000,-148397.6,-127929.6,0.03,0.00,0.88,-4,0,-2,37,0
'[11:34:02.932 21/01/2026]',-103745.8,-170663.7,-113928.5,23703.8,-375000,-375000,-146587,-126177.8,0.03,0.00,0.88,-4,0,-2,37,0
'[11:34:02.936 21/01/2026]',-104226.7,-170601,-114472.1,22906.83,-375000,-375000,-147067.1,-126933.9,0.03,0.00,0.88,-4,0,-2,37,0
'[11:34:02.940 21/01/2026]',-106369.4,-173545.9,-116615.8,20756.28,-375000,-375000,-148934,-128767.6,0.03,0.00,0.88,-4,0,-2,37,0
'[11:34:02.944 21/01/2026]',-106168,-173980.8,-116360.8,21258.92,-375000,-375000,-148710.7,-128267.7,0.03,0.00,0.88,-4,0,-2,37,0
'[11:34:02.948 21/01/2026]',-103984.7,-171085.3,-114175.4,23487.17,-375000,-375000,-146797.7,-126348.5,0.03,0.00,0.88,-4,0,-2,37,0
'[11:34:02.952 21/01/2026]',-103883,-170242,-114133.7,23291.14,-375000,-375000,-146780.2,-126605.3,0.02,-0.02,0.88,-4,0,-2,37,0
'[11:34:02.956 21/01/2026]',-106042.9,-173063.2,-116303.6,21047.07,-375000,-375000,-148670.9,-128532.5,0.02,-0.02,0.88,-4,0,-2,37,0
'[11:34:02.960 21/01/2026]',-106443.6,-174237.7,-116645.7,20929.59,-375000,-375000,-148979.6,-128576.3,0.02,-0.02,0.88,-4,0,-2,37,0
'[11:34:02.964 21/01/2026]',-104323.1,-171584.8,-114495.8,23178.04,-375000,-375000,-147095.7,-126628.4,0.02,-0.02,0.88,-4,0,-2,37,0
'[11:34:02.968 21/01/2026]',-103640.2,-170014.7,-113872,23604.34,-375000,-375000,-146556.2,-126346.6,0.02,-0.02,0.88,-4,0,-2,37,0
'[11:34:02.972 21/01/2026]',-105677.7,-172501.7,-115956.9,21398.17,-375000,-375000,-148356.5,-128248.4,0.02,-0.02,0.88,-4,0,-2,37,0
'[11:34:02.976 21/01/2026]',-106628.7,-174365,-116848.6,20687.39,-375000,-375000,-149142.3,-128797.6,0.02,-0.02,0.88,-4,0,-2,37,0
'[11:34:02.980 21/01/2026]',-104662,-172103.6,-114852.5,22832.62,-375000,-375000,-147395.2,-126924,0.02,-0.02,0.88,-4,0,-2,37,0
'[11:34:02.984 21/01/2026]',-103484.3,-169963.5,-113711.4,23814.58,-375000,-375000,-146396.9,-126138.5,0.02,-0.02,0.88,-4,0,-2,37,0
'[11:34:02.988 21/01/2026]',-105300.1,-171952.5,-115562.1,21781.82,-375000,-375000,-148007.2,-127910.6,0.03,-0.02,0.86,-4,0,-2,37,0
'[11:34:02.992 21/01/2026]',-106737.1,-174362,-116968.2,20528.15,-375000,-375000,-149240.3,-128944.6,0.03,-0.02,0.86,-4,0,-2,37,0
'[11:34:02.996 21/01/2026]',-105076.5,-172651.7,-115257,22429.48,-375000,-375000,-147746,-127264.3,0.03,-0.02,0.86,-4,0,-2,37,0
'[11:34:03.000 21/01/2026]',-103460.6,-170060.9,-113667.2,23902.55,-375000,-375000,-146367.7,-126050.2,0.03,-0.02,0.86,-4,0,-2,37,0
'[11:34:03.004 21/01/2026]',-104924.6,-171450.3,-115190.2,22159.56,-375000,-375000,-147684.2,-127589.7,0.03,-0.02,0.86,-4,0,-2,37,0
'[11:34:03.008 21/01/2026]',-106708.6,-174204.4,-116956.3,20489.89,-375000,-375000,-149232.7,-128988.2,0.03,-0.02,0.86,-4,0,-2,37,0
'[11:34:03.012 21/01/2026]',-105485.9,-173185.6,-115673,22001.09,-375000,-375000,-148107.9,-127623,0.03,-0.02,0.86,-4,0,-2,37,0
'[11:34:03.016 21/01/2026]',-103569.9,-170327.3,-113771.3,23845.78,-375000,-375000,-146446.7,-126072.9,0.03,-0.02,0.86,-4,0,-2,37,0
'[11:34:03.020 21/01/2026]',-104534.9,-170953.7,-114799.6,22566.9,-375000,-375000,-147349.4,-127236,0.03,-0.02,0.86,-4,0,-2,37,0
'[11:34:03.024 21/01/2026]',-106571.6,-173896.4,-116836.8,20581.22,-375000,-375000,-149117.9,-128906.8,0.03,0.00,0.86,-4,0,-2,37,0
'[11:34:03.028 21/01/2026]',-105858.8,-173627.4,-116061.3,21602.42,-375000,-375000,-148446.9,-127965.8,0.03,0.00,0.86,-4,0,-2,37,0
'[11:34:03.032 21/01/2026]',-103759.5,-170689.9,-113950.6,23694.5,-375000,-375000,-146611.1,-126192.9,0.03,0.00,0.86,-4,0,-2,37,0
'[11:34:03.036 21/01/2026]',-104189.3,-170567.5,-114445.2,22947.15,-375000,-375000,-147049,-126913.2,0.03,0.00,0.86,-4,0,-2,37,0
'[11:34:03.040 21/01/2026]',-106326.4,-173479.6,-116595,20790.03,-375000,-375000,-148918.1,-128752.7,0.03,0.00,0.86,-4,0,-2,37,0
'[11:34:03.044 21/01/2026]',-106185.9,-173989.9,-116392.8,21234.87,-375000,-375000,-148741.5,-128295.4,0.03,0.00,0.86,-4,0,-2,37,0
'[11:34:03.048 21/01/2026]',-104028.2,-171138,-114211.2,23456.28,-375000,-375000,-146839.9,-126385.3,0.03,0.00,0.86,-4,0,-2,37,0
'[11:34:03.052 21/01/2026]',-103856.4,-170208.1,-114099.8,23338.04,-375000,-375000,-146747.4,-126569.7,0.03,0.00,0.86,-4,0,-2,37,0
'[11:34:03.056 21/01/2026]',-106014.2,-172992,-116279.2,21085.79,-375000,-375000,-148639.9,-128500.5,0.03,0.00,0.86,-4,0,-2,37,0
'[11:34:03.060 21/01/2026]',-106466,-174264.7,-116679.5,20907.78,-375000,-375000,-148990.9,-128589.1,0.03,0.00,0.86,-4,0,-2,37,0
'[11:34:03.064 21/01/2026]',-104367.5,-171662.8,-114553.9,23135.04,-375000,-375000,-147135.5,-126663.7,0.03,0.00,0.86,-4,0,-2,37,0
'[11:34:03.068 21/01/2026]',-103628.1,-170027.3,-113868,23625.57,-375000,-375000,-146548.2,-126327.3,0.03,0.00,0.86,-4,0,-2,37,0
'[11:34:03.072 21/01/2026]',-105644.9,-172465.8,-115907,21447.62,-375000,-375000,-148321.9,-128211.6,0.03,0.00,0.86,-4,0,-2,37,0
'[11:34:03.076 21/01/2026]',-106656.4,-174402,-116883.1,20658.73,-375000,-375000,-149177.7,-128829.1,0.03,0.00,0.86,-4,0,-2,37,0
'[11:34:03.080 21/01/2026]',-104723.3,-172172.2,-114916.1,22782.37,-375000,-375000,-147459.5,-126968.9,0.03,0.00,0.86,-4,0,-2,37,0
'[11:34:03.084 21/01/2026]',-103484.6,-169977,-113718,23822.18,-375000,-375000,-146430.8,-126147.1,0.03,0.00,0.86,-4,0,-2,37,0
'[11:34:03.088 21/01/2026]',-105284.5,-171935.1,-115561.1,21795.23,-375000,-375000,-148021.1,-127916.4,0.03,0.00,0.86,-4,0,-2,37,0
'[11:34:03.092 21/01/2026]',-106742.7,-174366.4,-116975.7,20526.23,-375000,-375000,-149257.4,-128961.1,0.03,0.00,0.86,-4,0,-2,37,0
'[11:34:03.096 21/01/2026]',-105095.5,-172675.8,-115275.8,22424.57,-375000,-375000,-147770.7,-127275.6,0.03,-0.02,0.88,-4,0,-2,37,0
'[11:34:03.100 21/01/2026]',-103442.1,-170042.9,-113652,23941.94,-375000,-375000,-146357.6,-126026,0.03,-0.02,0.88,-4,0,-2,37,0
'[11:34:03.104 21/01/2026]',-104871.3,-171380.8,-115140.8,22227.83,-375000,-375000,-147656.3,-127555.9,0.03,-0.02,0.88,-4,0,-2,37,0
'[11:34:03.108 21/01/2026]',-106673.4,-174148.2,-116927.4,20535.71,-375000,-375000,-149218,-128971.8,0.03,-0.02,0.88,-4,0,-2,37,0
'[11:34:03.112 21/01/2026]',-105487.4,-173165.4,-115691.1,22018.66,-375000,-375000,-148113.6,-127618.7,0.03,-0.02,0.88,-4,0,-2,37,0
'[11:34:03.116 21/01/2026]',-103536.1,-170298.7,-113742.3,23889.81,-375000,-375000,-146435.3,-126054.7,0.03,-0.02,0.88,-4,0,-2,37,0
'[11:34:03.120 21/01/2026]',-104475.5,-170882.8,-114747.2,22642.72,-375000,-375000,-147305.8,-127190.9,0.03,-0.02,0.88,-4,0,-2,37,0
'[11:34:03.124 21/01/2026]',-106500,-173818.8,-116760.8,20661.68,-375000,-375000,-149074.3,-128873.5,0.03,-0.02,0.88,-4,0,-2,37,0
'[11:34:03.128 21/01/2026]',-105860.7,-173634.7,-116060.4,21607.79,-375000,-375000,-148462.4,-127992.2,0.03,-0.02,0.88,-4,0,-2,37,0
'[11:34:03.132 21/01/2026]',-103756.1,-170692.9,-113954.3,23712.12,-375000,-375000,-146611.5,-126191.4,0.03,-0.02,0.88,-4,0,-2,37,0
'[11:34:03.136 21/01/2026]',-104120.2,-170472.9,-114393,23034.19,-375000,-375000,-146986,-126847.1,0.03,-0.02,0.88,-4,0,-2,37,0
'[11:34:03.140 21/01/2026]',-106252.8,-173387.5,-116518.2,20879.21,-375000,-375000,-148846.9,-128694.8,0.03,-0.02,0.88,-4,0,-2,37,0
'[11:34:03.144 21/01/2026]',-106179.7,-173977.7,-116384.9,21253.16,-375000,-375000,-148733.5,-128301.2,0.03,-0.02,0.88,-4,0,-2,37,0
'[11:34:03.148 21/01/2026]',-104031.9,-171148.7,-114224.4,23469.51,-375000,-375000,-146839.4,-126390,0.03,-0.02,0.88,-4,0,-2,37,0
'[11:34:03.152 21/01/2026]',-103807,-170146.5,-114054.8,23407.69,-375000,-375000,-146705.8,-126529.2,0.03,-0.02,0.88,-4,0,-2,37,0
'[11:34:03.156 21/01/2026]',-105939.4,-172891.8,-116213.5,21165.27,-375000,-375000,-148586.7,-128453.7,0.03,-0.02,0.88,-4,0,-2,37,0
'[11:34:03.160 21/01/2026]',-106456.8,-174248.7,-116684.4,20916.27,-375000,-375000,-148998.2,-128602.1,0.03,-0.02,0.88,-4,0,-2,37,0
'[11:34:03.164 21/01/2026]',-104371.2,-171666.8,-114568.3,23141.16,-375000,-375000,-147142.3,-126668,0.03,-0.02,0.88,-4,0,-2,37,0
'[11:34:03.168 21/01/2026]',-103577.6,-169960.3,-113809.9,23700.49,-375000,-375000,-146492.9,-126268.4,0.03,-0.02,0.88,-4,0,-2,37,0
'[11:34:03.172 21/01/2026]',-105579.7,-172359.5,-115857,21517.76,-375000,-375000,-148274.2,-128159.8,0.03,-0.02,0.88,-4,0,-2,37,0
'[11:34:03.176 21/01/2026]',-106622.6,-174350.6,-116866,20686.05,-375000,-375000,-149159.5,-128816.1,0.03,-0.02,0.88,-4,0,-2,37,0
'[11:34:03.180 21/01/2026]',-104722.5,-172182.1,-114914.1,22794.67,-375000,-375000,-147451.4,-126969.4,0.03,-0.02,0.88,-4,0,-2,37,0
'[11:34:03.184 21/01/2026]',-103444.8,-169918,-113666.7,23891.6,-375000,-375000,-146367.3,-126088.8,0.03,-0.02,0.88,-4,0,-2,37,0
'[11:34:03.188 21/01/2026]',-105195.1,-171824.1,-115462.3,21904.22,-375000,-375000,-147925.8,-127829.3,0.03,-0.02,0.88,-4,0,-2,37,0
'[11:34:03.192 21/01/2026]',-106711.1,-174308,-116946.3,20561.5,-375000,-375000,-149228.1,-128944.2,0.03,-0.02,0.88,-4,0,-2,37,0
'[11:34:03.196 21/01/2026]',-105152.5,-172726.9,-115340.4,22385.09,-375000,-375000,-147803.7,-127319,0.03,-0.02,0.88,-4,0,-2,37,0
'[11:34:03.200 21/01/2026]',-103446.8,-170051,-113662.9,23952.53,-375000,-375000,-146353,-126028.3,0.03,-0.02,0.88,-4,0,-2,37,0
'[11:34:03.204 21/01/2026]',-104803.2,-171302,-115074.7,22300.07,-375000,-375000,-147585,-127495.5,0.03,0.00,0.88,-4,0,-2,37,0
'[11:34:03.208 21/01/2026]',-106643.2,-174118.9,-116897.4,20559.98,-375000,-375000,-149182.4,-128951.9,0.03,0.00,0.88,-4,0,-2,37,0
'[11:34:03.212 21/01/2026]',-105484.3,-173184.1,-115676.7,22020.85,-375000,-375000,-148112.3,-127631.5,0.03,0.00,0.88,-4,0,-2,37,0
'[11:34:03.216 21/01/2026]',-103567.5,-170332.1,-113776.8,23878.5,-375000,-375000,-146448,-126071.1,0.03,0.00,0.88,-4,0,-2,37,0
'[11:34:03.220 21/01/2026]',-104437.8,-170825.8,-114703.6,22693.9,-375000,-375000,-147261.6,-127151.1,0.03,0.00,0.88,-4,0,-2,37,0
'[11:34:03.224 21/01/2026]',-106473.6,-173761.6,-116732,20697.8,-375000,-375000,-149038.1,-128849.2,0.03,0.00,0.88,-4,0,-2,37,0
'[11:34:03.228 21/01/2026]',-105875.8,-173633.5,-116074.3,21604.12,-375000,-375000,-148461.8,-128004.5,0.03,0.00,0.88,-4,0,-2,37,0
'[11:34:03.232 21/01/2026]',-103750.9,-170695.9,-113943.1,23729.1,-375000,-375000,-146603.5,-126184.7,0.03,0.00,0.88,-4,0,-2,37,0
'[11:34:03.236 21/01/2026]',-104068.1,-170422.9,-114339,23089.66,-375000,-375000,-146945.3,-126801.2,0.03,0.00,0.88,-4,0,-2,37,0
'[11:34:03.240 21/01/2026]',-106246,-173360.8,-116526.4,20884.4,-375000,-375000,-148849.1,-128689.7,0.02,-0.02,0.88,-4,0,-2,37,0
'[11:34:03.244 21/01/2026]',-106218.2,-174007.8,-116424.7,21215.29,-375000,-375000,-148772.2,-128337.2,0.02,-0.02,0.88,-4,0,-2,37,0
'[11:34:03.248 21/01/2026]',-104059.9,-171180,-114247.1,23449.26,-375000,-375000,-146865.8,-126408.4,0.02,-0.02,0.88,-4,0,-2,37,0
'[11:34:03.252 21/01/2026]',-103779.9,-170112.9,-114023.5,23442.87,-375000,-375000,-146684.9,-126493.2,0.02,-0.02,0.88,-4,0,-2,37,0
'[11:34:03.256 21/01/2026]',-105917.1,-172839.3,-116189.2,21195.31,-375000,-375000,-148561,-128425.3,0.02,-0.02,0.88,-4,0,-2,37,0
'[11:34:03.260 21/01/2026]',-106466,-174239.8,-116693.4,20905.27,-375000,-375000,-148998.8,-128606.7,0.02,-0.02,0.88,-4,0,-2,37,0
'[11:34:03.264 21/01/2026]',-104397,-171695.4,-114582,23128.24,-375000,-375000,-147154.8,-126683.5,0.02,-0.02,0.88,-4,0,-2,37,0
'[11:34:03.268 21/01/2026]',-103551.6,-169938.7,-113786,23733.48,-375000,-375000,-146467.8,-126237.8,0.02,-0.02,0.88,-4,0,-2,37,0
'[11:34:03.272 21/01/2026]',-105538.1,-172301.4,-115818.6,21555.8,-375000,-375000,-148226.9,-128112.1,0.02,-0.02,0.88,-4,0,-2,37,0
'[11:34:03.276 21/01/2026]',-106633.6,-174346.4,-116883.6,20670.8,-375000,-375000,-149161.6,-128822.2,0.03,0.00,0.88,-4,0,-2,37,0
'[11:34:03.280 21/01/2026]',-104757.3,-172234.6,-114962.6,22756.67,-375000,-375000,-147480.3,-126993.2,0.03,0.00,0.88,-4,0,-2,37,0
'[11:34:03.284 21/01/2026]',-103431.9,-169921.8,-113659.8,23908.01,-375000,-375000,-146357.6,-126068.3,0.03,0.00,0.88,-4,0,-2,37,0
'[11:34:03.288 21/01/2026]',-105172.5,-171768,-115444.2,21928.13,-375000,-375000,-147905.2,-127800.6,0.03,0.00,0.88,-4,0,-2,37,0
'[11:34:03.292 21/01/2026]',-106719.3,-174288.6,-116950.1,20552.7,-375000,-375000,-149220.7,-128936.3,0.03,0.00,0.88,-4,0,-2,37,0
'[11:34:03.296 21/01/2026]',-105161,-172743.5,-115334.7,22374.63,-375000,-375000,-147812.5,-127316.5,0.03,0.00,0.88,-4,0,-2,37,0
'[11:34:03.300 21/01/2026]',-103446.9,-170071.2,-113652.2,23961.2,-375000,-375000,-146349.8,-126007.9,0.03,0.00,0.88,-4,0,-2,37,0
'[11:34:03.304 21/01/2026]',-104773.2,-171247,-115045.1,22340.34,-375000,-375000,-147557.4,-127457.7,0.03,0.00,0.88,-4,0,-2,37,0
'[11:34:03.308 21/01/2026]',-106636.7,-174068.5,-116887.4,20580.73,-375000,-375000,-149174.2,-128939.2,0.03,0.00,0.88,-4,0,-2,37,0
'[11:34:03.312 21/01/2026]',-105553.7,-173248.2,-115749.6,21961.21,-375000,-375000,-148174.8,-127686.8,0.03,0.00,0.86,-4,0,-2,37,0
'[11:34:03.316 21/01/2026]',-103581.9,-170359,-113784.9,23883.2,-375000,-375000,-146448.4,-126056.3,0.03,0.00,0.86,-4,0,-2,37,0
'[11:34:03.320 21/01/2026]',-104387.3,-170790.7,-114648.4,22753.94,-375000,-375000,-147213.2,-127096.7,0.03,0.00,0.86,-4,0,-2,37,0
'[11:34:03.324 21/01/2026]',-106455.5,-173717.8,-116715.3,20716.71,-375000,-375000,-149020.2,-128831.7,0.03,0.00,0.86,-4,0,-2,37,0
'[11:34:03.328 21/01/2026]',-105902.7,-173670,-116103.4,21576.05,-375000,-375000,-148483.7,-128019.7,0.03,0.00,0.86,-4,0,-2,37,0
'[11:34:03.332 21/01/2026]',-103791.9,-170763.9,-113996.2,23689.36,-375000,-375000,-146642.6,-126216.8,0.03,0.00,0.86,-4,0,-2,37,0
'[11:34:03.336 21/01/2026]',-104043.6,-170376.7,-114306.2,23136.02,-375000,-375000,-146912.7,-126768.3,0.03,0.00,0.86,-4,0,-2,37,0
'[11:34:03.340 21/01/2026]',-106198.7,-173286.5,-116450.2,20947.56,-375000,-375000,-148796,-128643.6,0.03,0.00,0.86,-4,0,-2,37,0
'[11:34:03.344 21/01/2026]',-106255.8,-174050.7,-116454.2,21182.79,-375000,-375000,-148803,-128374.4,0.03,0.00,0.86,-4,0,-2,37,0
'[11:34:03.348 21/01/2026]',-104086.7,-171238.9,-114269.2,23431.69,-375000,-375000,-146879,-126432.1,0.03,0.00,0.88,-4,0,-2,37,0
'[11:34:03.352 21/01/2026]',-103747,-170088.4,-113990,23491.5,-375000,-375000,-146638.1,-126457.4,0.03,0.00,0.88,-4,0,-2,37,0
'[11:34:03.356 21/01/2026]',-105874.2,-172785.3,-116138.9,21252.53,-375000,-375000,-148507.7,-128389.2,0.03,0.00,0.88,-4,0,-2,37,0
'[11:34:03.360 21/01/2026]',-106507,-174274,-116726.8,20880.11,-375000,-375000,-149022.7,-128648.5,0.03,0.00,0.88,-4,0,-2,37,0
'[11:34:03.364 21/01/2026]',-104427.7,-171750.1,-114613.7,23107.59,-375000,-375000,-147173.8,-126704.5,0.03,0.00,0.88,-4,0,-2,37,0
'[11:34:03.368 21/01/2026]',-103510.1,-169924.4,-113745.3,23779.93,-375000,-375000,-146431,-126200,0.03,0.00,0.88,-4,0,-2,37,0
'[11:34:03.372 21/01/2026]',-105515.6,-172260.9,-115784.4,21597.69,-375000,-375000,-148203,-128099.9,0.03,0.00,0.88,-4,0,-2,37,0
'[11:34:03.376 21/01/2026]',-106679.2,-174368.6,-116908.1,20651.98,-375000,-375000,-149185.8,-128854.3,0.03,0.00,0.88,-4,0,-2,37,0
'[11:34:03.380 21/01/2026]',-104802.6,-172291.9,-114976.3,22743.3,-375000,-375000,-147500.7,-127019.8,0.03,0.00,0.88,-4,0,-2,37,0
'[11:34:03.384 21/01/2026]',-103427.8,-169929.8,-113640.8,23939.57,-375000,-375000,-146338.9,-126050,0.03,0.00,0.88,-4,0,-2,37,0
'[11:34:03.388 21/01/2026]',-105123.5,-171719.5,-115396.2,21988.62,-375000,-375000,-147857.6,-127761.4,0.03,0.00,0.88,-4,0,-2,37,0
'[11:34:03.392 21/01/2026]',-106707,-174277.2,-116945.1,20564.99,-375000,-375000,-149223.9,-128947.7,0.03,0.00,0.88,-4,0,-2,37,0
'[11:34:03.396 21/01/2026]',-105184.6,-172788.9,-115364.5,22357.2,-375000,-375000,-147840.8,-127350.9,0.03,0.00,0.88,-4,0,-2,37,0
'[11:34:03.400 21/01/2026]',-103445.2,-170095.6,-113648.8,23976.18,-375000,-375000,-146345.5,-125999.7,0.03,0.00,0.88,-4,0,-2,37,0
'[11:34:03.404 21/01/2026]',-104742.2,-171216,-115008.4,22383.44,-375000,-375000,-147531,-127428.2,0.03,0.00,0.88,-4,0,-2,37,0
'[11:34:03.408 21/01/2026]',-106630.5,-174051.4,-116886.3,20592.17,-375000,-375000,-149167.1,-128941.2,0.03,0.00,0.88,-4,0,-2,37,0
'[11:34:03.412 21/01/2026]',-105584.2,-173304.7,-115779.4,21931.13,-375000,-375000,-148206.5,-127729.4,0.03,0.00,0.88,-4,0,-2,37,0
'[11:34:03.416 21/01/2026]',-103589,-170410.4,-113801.9,23874.03,-375000,-375000,-146472.3,-126082.9,0.03,0.00,0.88,-4,0,-2,37,0
'[11:34:03.420 21/01/2026]',-104358.7,-170757.2,-114632.3,22793.95,-375000,-375000,-147200.8,-127087.8,0.02,0.00,0.88,-4,0,-2,37,0
'[11:34:03.424 21/01/2026]',-106445.4,-173702.2,-116699.3,20738.22,-375000,-375000,-149013.6,-128834.4,0.02,0.00,0.88,-4,0,-2,37,0
'[11:34:03.428 21/01/2026]',-105940.3,-173711.1,-116136.7,21550.66,-375000,-375000,-148517.2,-128062.1,0.02,0.00,0.88,-4,0,-2,37,0
'[11:34:03.432 21/01/2026]',-103810.6,-170805.7,-114021.4,23689.09,-375000,-375000,-146653.2,-126229.8,0.02,0.00,0.88,-4,0,-2,37,0
'[11:34:03.436 21/01/2026]',-103995.6,-170354.1,-114272.6,23177.91,-375000,-375000,-146888.3,-126746.6,0.02,0.00,0.88,-4,0,-2,37,0
'[11:34:03.440 21/01/2026]',-106173.8,-173248.6,-116445.9,20966.56,-375000,-375000,-148781.4,-128635.4,0.02,0.00,0.88,-4,0,-2,37,0
'[11:34:03.444 21/01/2026]',-106269.5,-174058.3,-116479.3,21177.29,-375000,-375000,-148812.7,-128393,0.02,0.00,0.88,-4,0,-2,37,0
'[11:34:03.448 21/01/2026]',-104111.9,-171278.5,-114299,23420.11,-375000,-375000,-146907.8,-126452.4,0.02,0.00,0.88,-4,0,-2,37,0
'[11:34:03.452 21/01/2026]',-103725.5,-170070,-113969,23530.31,-375000,-375000,-146623.8,-126425.4,0.02,0.00,0.88,-4,0,-2,37,0
'[11:34:03.456 21/01/2026]',-105852.4,-172736.4,-116125.5,21285.03,-375000,-375000,-148489.4,-128362.2,0.05,-0.02,0.88,-4,0,-2,37,0
'[11:34:03.460 21/01/2026]',-106528.5,-174283.8,-116744.9,20866.34,-375000,-375000,-149040.3,-128663.1,0.05,-0.02,0.88,-4,0,-2,37,0
'[11:34:03.464 21/01/2026]',-104478.2,-171810.5,-114655.5,23075.98,-375000,-375000,-147212.3,-126740.1,0.05,-0.02,0.88,-4,0,-2,37,0
'[11:34:03.468 21/01/2026]',-103534.4,-169932.9,-113767.2,23782.34,-375000,-375000,-146444.3,-126206.9,0.05,-0.02,0.88,-4,0,-2,37,0
'[11:34:03.472 21/01/2026]',-105497.4,-172223.4,-115776.8,21618.29,-375000,-375000,-148184.2,-128079.2,0.05,-0.02,0.88,-4,0,-2,37,0
'[11:34:03.476 21/01/2026]',-106684.3,-174363.8,-116918.9,20642.42,-375000,-375000,-149193.6,-128868.8,0.05,-0.02,0.88,-4,0,-2,37,0
'[11:34:03.480 21/01/2026]',-104850,-172341,-115034.4,22699.22,-375000,-375000,-147544.5,-127064.2,0.05,-0.02,0.88,-4,0,-2,37,0
'[11:34:03.484 21/01/2026]',-103447.9,-169956.1,-113663.8,23929.82,-375000,-375000,-146351.8,-126058.5,0.05,-0.02,0.88,-4,0,-2,37,0
'[11:34:03.488 21/01/2026]',-105104.4,-171676.6,-115378.1,22015.62,-375000,-375000,-147840.1,-127743.8,0.05,-0.02,0.88,-4,0,-2,37,0
'[11:34:03.492 21/01/2026]',-106708.3,-174264.6,-116953.7,20566.64,-375000,-375000,-149222.3,-128951.1,0.03,0.00,0.88,-4,0,-2,37,0
'[11:34:03.496 21/01/2026]',-105235.1,-172857.6,-115420.9,22312.67,-375000,-375000,-147882.7,-127393.7,0.03,0.00,0.88,-4,0,-2,37,0
'[11:34:03.500 21/01/2026]',-103470.9,-170121.7,-113680.3,23963.84,-375000,-375000,-146363.4,-126014.8,0.03,0.00,0.88,-4,0,-2,37,0
'[11:34:03.504 21/01/2026]',-104703.5,-171154.9,-114986.3,22422.29,-375000,-375000,-147501.9,-127403.8,0.03,0.00,0.88,-4,0,-2,37,0
'[11:34:03.508 21/01/2026]',-106612.7,-174010.9,-116874.5,20600.89,-375000,-375000,-149162,-128942.6,0.03,0.00,0.88,-4,0,-2,37,0
'[11:34:03.512 21/01/2026]',-105620.8,-173339.6,-115825.8,21893.44,-375000,-375000,-148240.1,-127757.7,0.03,0.00,0.88,-4,0,-2,37,0
'[11:34:03.516 21/01/2026]',-103609.6,-170451,-113825,23857.49,-375000,-375000,-146491.5,-126096.1,0.03,0.00,0.88,-4,0,-2,37,0
'[11:34:03.520 21/01/2026]',-104339.7,-170719.3,-114606.9,22826.67,-375000,-375000,-147179,-127061.9,0.03,0.00,0.88,-4,0,-2,37,0
'[11:34:03.524 21/01/2026]',-106421.4,-173659,-116691.5,20761.24,-375000,-375000,-148992.3,-128815,0.03,0.00,0.88,-4,0,-2,37,0
'[11:34:03.528 21/01/2026]',-105977.4,-173758.5,-116186.4,21512.7,-375000,-375000,-148547.8,-128097.2,0.03,-0.02,0.86,-4,0,-2,37,0
'[11:34:03.532 21/01/2026]',-103860,-170879.3,-114050.6,23655.52,-375000,-375000,-146686.4,-126258.8,0.03,-0.02,0.86,-4,0,-2,37,0
'[11:34:03.536 21/01/2026]',-104008.3,-170351.4,-114260.9,23203.97,-375000,-375000,-146875.5,-126726.1,0.03,-0.02,0.86,-4,0,-2,37,0
'[11:34:03.540 21/01/2026]',-106146.2,-173197.8,-116401.3,21015.51,-375000,-375000,-148747.3,-128607,0.03,-0.02,0.86,-4,0,-2,37,0
'[11:34:03.544 21/01/2026]',-106310.9,-174100.5,-116513.7,21139.92,-375000,-375000,-148839.1,-128428.5,0.03,-0.02,0.86,-4,0,-2,37,0
'[11:34:03.548 21/01/2026]',-104170.4,-171342.7,-114355.9,23373.49,-375000,-375000,-146946.5,-126499.4,0.03,-0.02,0.86,-4,0,-2,37,0
'[11:34:03.552 21/01/2026]',-103712,-170049.6,-113949.1,23559.36,-375000,-375000,-146600.8,-126418.3,0.03,-0.02,0.86,-4,0,-2,37,0
'[11:34:03.556 21/01/2026]',-105822,-172687.5,-116094.6,21327.1,-375000,-375000,-148451,-128337.7,0.03,-0.02,0.86,-4,0,-2,37,0
'[11:34:03.560 21/01/2026]',-106564.8,-174311.7,-116789.5,20834.42,-375000,-375000,-149067.4,-128705,0.03,-0.02,0.86,-4,0,-2,37,0
'[11:34:03.564 21/01/2026]',-104509.2,-171872.8,-114688.5,23045.01,-375000,-375000,-147249.3,-126777.3,0.03,-0.02,0.88,-4,0,-2,37,0
'[11:34:03.568 21/01/2026]',-103514.4,-169934.8,-113748.6,23812.12,-375000,-375000,-146427.2,-126188.6,0.03,-0.02,0.88,-4,0,-2,37,0
'[11:34:03.572 21/01/2026]',-105439.1,-172149.6,-115707.9,21692.72,-375000,-375000,-148130.3,-128033.9,0.03,-0.02,0.88,-4,0,-2,37,0
'[11:34:03.576 21/01/2026]',-106687.4,-174357.1,-116918.3,20648.72,-375000,-375000,-149194.8,-128880.8,0.03,-0.02,0.88,-4,0,-2,37,0
'[11:34:03.580 21/01/2026]',-104885.1,-172396.9,-115070.3,22669,-375000,-375000,-147577.6,-127093.2,0.03,-0.02,0.88,-4,0,-2,37,0
'[11:34:03.584 21/01/2026]',-103430.1,-169957.2,-113646.1,23963.13,-375000,-375000,-146334.1,-126042.9,0.03,-0.02,0.88,-4,0,-2,37,0
'[11:34:03.588 21/01/2026]',-105070.7,-171636.7,-115343.5,22060.19,-375000,-375000,-147809,-127718.3,0.03,-0.02,0.88,-4,0,-2,37,0
'[11:34:03.592 21/01/2026]',-106708.6,-174236.4,-116949.8,20572.23,-375000,-375000,-149220.4,-128958,0.03,-0.02,0.88,-4,0,-2,37,0
'[11:34:03.596 21/01/2026]',-105260.9,-172895.6,-115460.4,22281.6,-375000,-375000,-147910.6,-127428.1,0.03,-0.02,0.88,-4,0,-2,37,0
'[11:34:03.600 21/01/2026]',-103462.8,-170138.1,-113678.1,23972.2,-375000,-375000,-146368.6,-126026.6,0.03,-0.02,0.88,-4,0,-2,37,0
'[11:34:03.604 21/01/2026]',-104680.8,-171115.1,-114946.5,22470.92,-375000,-375000,-147462.8,-127367.3,0.03,-0.02,0.88,-4,0,-2,37,0
'[11:34:03.608 21/01/2026]',-106615.1,-174002.2,-116867.7,20618.28,-375000,-375000,-149146.3,-128930.3,0.03,-0.02,0.88,-4,0,-2,37,0
'[11:34:03.612 21/01/2026]',-105664.2,-173393,-115859.7,21863.76,-375000,-375000,-148273.3,-127799.3,0.03,-0.02,0.88,-4,0,-2,37,0
'[11:34:03.616 21/01/2026]',-103631.5,-170467.6,-113826.6,23857.94,-375000,-375000,-146501.5,-126106.4,0.03,-0.02,0.88,-4,0,-2,37,0
'[11:34:03.620 21/01/2026]',-104307.9,-170671.1,-114566.9,22869.63,-375000,-375000,-147147.2,-127028,0.03,-0.02,0.88,-4,0,-2,37,0
'[11:34:03.624 21/01/2026]',-106407.8,-173628.6,-116662.2,20784.17,-375000,-375000,-148980.8,-128805.1,0.03,-0.02,0.88,-4,0,-2,37,0
'[11:34:03.628 21/01/2026]',-106034.8,-173813.9,-116224.6,21469.07,-375000,-375000,-148599.9,-128139.8,0.03,-0.02,0.88,-4,0,-2,37,0
'[11:34:03.632 21/01/2026]',-103885,-170887.6,-114072.5,23648.1,-375000,-375000,-146710.2,-126267.4,0.03,-0.02,0.88,-4,0,-2,37,0
'[11:34:03.636 21/01/2026]',-103966.5,-170291.9,-114217.4,23260.52,-375000,-375000,-146841.2,-126685.5,0.05,0.00,0.88,-4,0,-2,37,0
'[11:34:03.640 21/01/2026]',-106118.6,-173148.4,-116370.2,21053.06,-375000,-375000,-148728.3,-128576.1,0.05,0.00,0.88,-4,0,-2,37,0
'[11:34:03.644 21/01/2026]',-106339.3,-174121.3,-116540.7,21118.91,-375000,-375000,-148880.5,-128456.3,0.05,0.00,0.88,-4,0,-2,37,0
'[11:34:03.648 21/01/2026]',-104188.7,-171378.2,-114370.5,23364.77,-375000,-375000,-146974.2,-126515.2,0.05,0.00,0.88,-4,0,-2,37,0
'[11:34:03.652 21/01/2026]',-103694.7,-170040.1,-113938.5,23585.74,-375000,-375000,-146602.8,-126406.8,0.05,0.00,0.88,-4,0,-2,37,0
'[11:34:03.656 21/01/2026]',-105778.2,-172633.1,-116047.8,21368.49,-375000,-375000,-148428.8,-128303.4,0.05,0.00,0.88,-4,0,-2,37,0
'[11:34:03.660 21/01/2026]',-106563.8,-174309.5,-116782.4,20836.56,-375000,-375000,-149076.3,-128703,0.05,0.00,0.88,-4,0,-2,37,0
'[11:34:03.664 21/01/2026]',-104547.9,-171914.5,-114725.4,23020.91,-375000,-375000,-147290.2,-126811.3,0.05,0.00,0.88,-4,0,-2,37,0
'[11:34:03.668 21/01/2026]',-103502.7,-169925.8,-113723.8,23843.23,-375000,-375000,-146430.7,-126178.7,0.05,0.00,0.88,-4,0,-2,37,0
