'Time and date','Fp1','Fp2','F3','Fz','F4','P3','Pz','P4','AccX','AccY','AccZ','GyroX','GyroY','GyroZ','Battery','Event'
'[hh:mm:ss.mmm dd/mm/yyyy]','uV','uV','uV','uV','uV','uV','uV','uV','G','G','G','Deg/s','Deg/s','Deg/s','%','Button'
'[14:17:00.000 20/01/2026]',-111277.7,-161152,-90613.52,-102225.1,-375000,-375000,-195122,-123841,0.03,0.00,0.88,-4,0,-2,39,0
'[14:17:00.004 20/01/2026]',-111624.9,-161572.5,-91016.16,-102323.6,-375000,-375000,-193190.8,-124237.3,0.03,0.00,0.88,-4,0,-2,39,0
'[14:17:00.008 20/01/2026]',-111879,-161788.3,-91231.46,-102690.4,-375000,-375000,-193311.1,-124494.7,0.03,0.00,0.88,-4,0,-2,39,0
'[14:17:00.012 20/01/2026]',-111470.9,-161304.2,-90775.35,-102565.9,-375000,-375000,-195460.4,-124031.7,0.03,0.00,0.88,-4,0,-2,39,0
'[14:17:00.016 20/01/2026]',-111261.8,-161124.9,-90608.2,-102239.2,-375000,-375000,-195302.3,-123819.1,0.03,0.00,0.88,-4,0,-2,39,0
'[14:17:00.020 20/01/2026]',-111546.1,-161472.6,-90954.92,-102275.4,-375000,-375000,-193433.7,-124148.5,0.03,0.00,0.88,-4,0,-2,39,0
'[14:17:00.024 20/01/2026]',-111853.6,-161763.9,-91261.63,-102641.4,-375000,-375000,-192984,-124509.3,0.03,0.00,0.88,-4,0,-2,39,0
'[14:17:00.028 20/01/2026]',-111521.8,-161323.5,-90869.98,-102638.1,-375000,-375000,-195220.9,-124137.4,0.03,0.00,0.88,-4,0,-2,39,0
'[14:17:00.032 20/01/2026]',-111236.4,-161070.2,-90604.4,-102291.3,-375000,-375000,-195561.8,-123827,0.03,0.00,0.88,-4,0,-2,39,0
'[14:17:00.036 20/01/2026]',-111485.3,-161417,-90890.59,-102261.8,-375000,-375000,-193840.7,-124085.3,0.03,0.00,0.88,-4,0,-2,39,0
'[14:17:00.040 20/01/2026]',-111903.1,-161859.6,-91285.15,-102610.6,-375000,-375000,-192850.1,-124513.9,0.03,0.00,0.88,-4,0,-2,39,0
'[14:17:00.044 20/01/2026]',-111683,-161557.5,-90981.97,-102717,-375000,-375000,-194902.6,-124245.8,0.03,0.00,0.88,-4,0,-2,39,0
'[14:17:00.048 20/01/2026]',-111314,-161196.7,-90611.6,-102351.6,-375000,-375000,-195677.9,-123845.8,0.03,0.00,0.88,-4,0,-2,39,0
'[14:17:00.052 20/01/2026]',-111459.5,-161412.5,-90806.46,-102240.5,-375000,-375000,-194127.6,-124010.9,0.03,0.00,0.88,-4,0,-2,39,0
'[14:17:00.056 20/01/2026]',-111885,-161883.8,-91255.91,-102552.8,-375000,-375000,-192752.6,-124481.7,0.03,0.00,0.88,-4,0,-2,39,0
'[14:17:00.060 20/01/2026]',-111776.5,-161696.3,-91068.16,-102760.7,-375000,-375000,-194521.9,-124334,0.03,0.00,0.88,-4,0,-2,39,0
'[14:17:00.064 20/01/2026]',-111347,-161242.4,-90643.52,-102415.7,-375000,-375000,-195763.1,-123871.8,0.03,0.00,0.88,-4,0,-2,39,0
'[14:17:00.068 20/01/2026]',-111383.1,-161342.7,-90742.31,-102223.9,-375000,-375000,-194442.8,-123944.3,0.03,0.00,0.88,-4,0,-2,39,0
'[14:17:00.072 20/01/2026]',-111816.1,-161821.1,-91203.07,-102483.1,-375000,-375000,-192802.1,-124421.7,0.03,0.00,0.88,-4,0,-2,39,0
'[14:17:00.076 20/01/2026]',-111835.5,-161771.2,-91145.98,-102777,-375000,-375000,-194155.3,-124421.7,0.03,0.00,0.88,-4,0,-2,39,0
'[14:17:00.080 20/01/2026]',-111384.5,-161268.9,-90661.66,-102467.4,-375000,-375000,-195769.9,-123915.4,0.03,0.00,0.88,-4,0,-2,39,0
'[14:17:00.084 20/01/2026]',-111350.5,-161278.9,-90675.08,-102218.4,-375000,-375000,-194789.7,-123886.6,0.03,0.00,0.88,-4,0,-2,39,0
'[14:17:00.088 20/01/2026]',-111758.8,-161750.9,-91133.96,-102413.4,-375000,-375000,-192937.8,-124344.9,0.03,0.00,0.88,-4,0,-2,39,0
'[14:17:00.092 20/01/2026]',-111899.5,-161857.8,-91234.09,-102773,-375000,-375000,-193684.2,-124494.3,0.03,0.00,0.88,-4,0,-2,39,0
'[14:17:00.096 20/01/2026]',-111446.5,-161353.2,-90751.79,-102557.9,-375000,-375000,-195653.3,-124002.8,0.03,0.00,0.88,-4,0,-2,39,0
'[14:17:00.100 20/01/2026]',-111319.5,-161263.1,-90659.88,-102269,-375000,-375000,-195118.1,-123877.3,0.03,0.00,0.88,-4,0,-2,39,0
'[14:17:00.104 20/01/2026]',-111677.4,-161682.2,-91067.89,-102372.7,-375000,-375000,-193203.4,-124271.9,0.03,0.00,0.88,-4,0,-2,39,0
'[14:17:00.108 20/01/2026]',-111920.1,-161903.6,-91271.96,-102741,-375000,-375000,-193331,-124525,0.05,0.00,0.89,-4,0,-2,39,0
'[14:17:00.112 20/01/2026]',-111516.9,-161428.9,-90821.8,-102623,-375000,-375000,-195489.4,-124075.9,0.05,0.00,0.89,-4,0,-2,39,0
'[14:17:00.116 20/01/2026]',-111293.2,-161234.6,-90633.64,-102282.1,-375000,-375000,-195330.1,-123852.2,0.05,0.00,0.89,-4,0,-2,39,0
'[14:17:00.120 20/01/2026]',-111569.3,-161588,-90968.83,-102308.9,-375000,-375000,-193445.8,-124177.3,0.05,0.00,0.89,-4,0,-2,39,0
'[14:17:00.124 20/01/2026]',-111901.8,-161919.3,-91280.77,-102686.7,-375000,-375000,-193026.3,-124535.3,0.05,0.00,0.89,-4,0,-2,39,0
'[14:17:00.128 20/01/2026]',-111576.8,-161507.5,-90902.13,-102678.8,-375000,-375000,-195244.3,-124155.5,0.05,0.00,0.89,-4,0,-2,39,0
'[14:17:00.132 20/01/2026]',-111270.7,-161216,-90632.7,-102311.3,-375000,-375000,-195525.1,-123843,0.05,0.00,0.89,-4,0,-2,39,0
'[14:17:00.136 20/01/2026]',-111502.3,-161497.3,-90901.91,-102269.9,-375000,-375000,-193774,-124099.3,0.05,0.00,0.89,-4,0,-2,39,0
'[14:17:00.140 20/01/2026]',-111896.9,-161910.1,-91264.77,-102625.1,-375000,-375000,-192852.1,-124529.9,0.05,0.00,0.89,-4,0,-2,39,0
'[14:17:00.144 20/01/2026]',-111654.4,-161594,-90961.31,-102722.5,-375000,-375000,-194923.6,-124254,0.03,0.00,0.88,-4,0,-2,39,0
'[14:17:00.148 20/01/2026]',-111286.5,-161214.4,-90624.83,-102353.1,-375000,-375000,-195671,-123851.5,0.03,0.00,0.88,-4,0,-2,39,0
'[14:17:00.152 20/01/2026]',-111437.3,-161424.3,-90827.47,-102259.3,-375000,-375000,-194176.7,-124026.4,0.03,0.00,0.88,-4,0,-2,39,0
'[14:17:00.156 20/01/2026]',-111850.9,-161882.2,-91267.22,-102556,-375000,-375000,-192789.1,-124487.5,0.03,0.00,0.88,-4,0,-2,39,0
'[14:17:00.160 20/01/2026]',-111733.3,-161679.4,-91072.98,-102751.2,-375000,-375000,-194535.8,-124334.1,0.03,0.00,0.88,-4,0,-2,39,0
'[14:17:00.164 20/01/2026]',-111311.1,-161231.7,-90643.96,-102407.5,-375000,-375000,-195777.1,-123877,0.03,0.00,0.88,-4,0,-2,39,0
'[14:17:00.168 20/01/2026]',-111359.3,-161336.8,-90753.71,-102227.3,-375000,-375000,-194469.3,-123952.3,0.03,0.00,0.88,-4,0,-2,39,0
'[14:17:00.172 20/01/2026]',-111793.3,-161820,-91209.95,-102486.2,-375000,-375000,-192787.5,-124433.2,0.03,0.00,0.88,-4,0,-2,39,0
'[14:17:00.176 20/01/2026]',-111807.2,-161777.5,-91148.66,-102776.7,-375000,-375000,-194105.2,-124430,0.03,0.00,0.88,-4,0,-2,39,0
'[14:17:00.180 20/01/2026]',-111352,-161280.5,-90679.59,-102482.4,-375000,-375000,-195763.9,-123931.7,0.05,-0.02,0.88,-4,0,-2,39,0
'[14:17:00.184 20/01/2026]',-111326.3,-161304.4,-90709.91,-102244.2,-375000,-375000,-194798.8,-123917.8,0.05,-0.02,0.88,-4,0,-2,39,0
'[14:17:00.188 20/01/2026]',-111733.3,-161774.3,-91156.27,-102432.1,-375000,-375000,-192948.1,-124370.3,0.05,-0.02,0.88,-4,0,-2,39,0
'[14:17:00.192 20/01/2026]',-111867.2,-161853.3,-91226.9,-102766.9,-375000,-375000,-193668.7,-124493,0.05,-0.02,0.88,-4,0,-2,39,0
'[14:17:00.196 20/01/2026]',-111419.5,-161343.5,-90743.92,-102555.7,-375000,-375000,-195681.1,-123999.1,0.05,-0.02,0.88,-4,0,-2,39,0
'[14:17:00.200 20/01/2026]',-111294.1,-161261.7,-90659.74,-102265.2,-375000,-375000,-195113.8,-123883.7,0.05,-0.02,0.88,-4,0,-2,39,0
'[14:17:00.204 20/01/2026]',-111651.7,-161686.7,-91070.88,-102378.9,-375000,-375000,-193219.5,-124283.8,0.05,-0.02,0.88,-4,0,-2,39,0
'[14:17:00.208 20/01/2026]',-111898.1,-161912.5,-91282.29,-102751.8,-375000,-375000,-193380.5,-124541.9,0.05,-0.02,0.88,-4,0,-2,39,0
'[14:17:00.212 20/01/2026]',-111491,-161430.5,-90828.19,-102621.7,-375000,-375000,-195531.9,-124079,0.05,-0.02,0.88,-4,0,-2,39,0
'[14:17:00.216 20/01/2026]',-111276.7,-161235.1,-90641.87,-102274,-375000,-375000,-195337.9,-123853.1,0.03,0.00,0.89,-4,0,-2,39,0
'[14:17:00.220 20/01/2026]',-111582,-161600.3,-90982.95,-102307.5,-375000,-375000,-193443.7,-124191.6,0.03,0.00,0.89,-4,0,-2,39,0
'[14:17:00.224 20/01/2026]',-111906.2,-161930.5,-91286.71,-102686.6,-375000,-375000,-193026,-124552.3,0.03,0.00,0.89,-4,0,-2,39,0
'[14:17:00.228 20/01/2026]',-111573,-161511.5,-90892.2,-102680.6,-375000,-375000,-195275.3,-124168.5,0.03,0.00,0.89,-4,0,-2,39,0
'[14:17:00.232 20/01/2026]',-111276.9,-161219.5,-90614.02,-102316.5,-375000,-375000,-195574.9,-123847.6,0.03,0.00,0.89,-4,0,-2,39,0
'[14:17:00.236 20/01/2026]',-111501.1,-161506.7,-90888.49,-102281.2,-375000,-375000,-193812.6,-124105.3,0.03,0.00,0.89,-4,0,-2,39,0
'[14:17:00.240 20/01/2026]',-111889.8,-161922.9,-91295.52,-102636.6,-375000,-375000,-192885.5,-124538.9,0.03,0.00,0.89,-4,0,-2,39,0
'[14:17:00.244 20/01/2026]',-111651.3,-161599.1,-90980.27,-102719.7,-375000,-375000,-194921.6,-124254.8,0.03,0.00,0.89,-4,0,-2,39,0
'[14:17:00.248 20/01/2026]',-111274.2,-161217.1,-90618.3,-102350.3,-375000,-375000,-195679.5,-123854.4,0.03,0.00,0.89,-4,0,-2,39,0
'[14:17:00.252 20/01/2026]',-111415.1,-161417.3,-90813.88,-102244.3,-375000,-375000,-194142,-124024.4,0.03,-0.02,0.88,-4,0,-2,39,0
'[14:17:00.256 20/01/2026]',-111839,-161889,-91256.89,-102560.7,-375000,-375000,-192782.1,-124498.2,0.03,-0.02,0.88,-4,0,-2,39,0
'[14:17:00.260 20/01/2026]',-111727.9,-161702.9,-91061.63,-102762.2,-375000,-375000,-194544,-124350.8,0.03,-0.02,0.88,-4,0,-2,39,0
'[14:17:00.264 20/01/2026]',-111304.1,-161248.6,-90628.68,-102409.6,-375000,-375000,-195747.8,-123886.1,0.03,-0.02,0.88,-4,0,-2,39,0
'[14:17:00.268 20/01/2026]',-111348.3,-161347.5,-90735.16,-102224.2,-375000,-375000,-194446.2,-123950.3,0.03,-0.02,0.88,-4,0,-2,39,0
'[14:17:00.272 20/01/2026]',-111777.7,-161825.2,-91194.35,-102484.4,-375000,-375000,-192799.3,-124429,0.03,-0.02,0.88,-4,0,-2,39,0
'[14:17:00.276 20/01/2026]',-111788.4,-161776.3,-91146.3,-102770.9,-375000,-375000,-194123.5,-124423.7,0.03,-0.02,0.88,-4,0,-2,39,0
'[14:17:00.280 20/01/2026]',-111348.3,-161295.7,-90692.2,-102480.9,-375000,-375000,-195767.3,-123941.2,0.03,-0.02,0.88,-4,0,-2,39,0
'[14:17:00.284 20/01/2026]',-111332.2,-161324.3,-90717.55,-102250.2,-375000,-375000,-194787.4,-123937.2,0.03,-0.02,0.88,-4,0,-2,39,0
'[14:17:00.288 20/01/2026]',-111726.3,-161779.6,-91154.79,-102432.3,-375000,-375000,-192954.6,-124377.4,0.03,0.00,0.89,-4,0,-2,39,0
'[14:17:00.292 20/01/2026]',-111846.9,-161866.7,-91225.96,-102772.8,-375000,-375000,-193716.3,-124510.9,0.03,0.00,0.89,-4,0,-2,39,0
'[14:17:00.296 20/01/2026]',-111404.1,-161363.1,-90744.32,-102558.5,-375000,-375000,-195719.7,-124016.5,0.03,0.00,0.89,-4,0,-2,39,0
'[14:17:00.300 20/01/2026]',-111290.8,-161272.8,-90660.77,-102251.9,-375000,-375000,-195100.1,-123885.7,0.03,0.00,0.89,-4,0,-2,39,0
'[14:17:00.304 20/01/2026]',-111649.4,-161690.9,-91066.95,-102364.2,-375000,-375000,-193175.5,-124283.4,0.03,0.00,0.89,-4,0,-2,39,0
'[14:17:00.308 20/01/2026]',-111880.4,-161905.6,-91263.42,-102739.8,-375000,-375000,-193382.2,-124528.4,0.03,0.00,0.89,-4,0,-2,39,0
'[14:17:00.312 20/01/2026]',-111458.9,-161414.2,-90795.55,-102601.9,-375000,-375000,-195505.8,-124059.2,0.03,0.00,0.89,-4,0,-2,39,0
'[14:17:00.316 20/01/2026]',-111246.2,-161221.5,-90624.12,-102259.2,-375000,-375000,-195295.9,-123841,0.03,0.00,0.89,-4,0,-2,39,0
'[14:17:00.320 20/01/2026]',-111551.2,-161591.6,-90978.93,-102297.1,-375000,-375000,-193406.5,-124177.8,0.03,0.00,0.89,-4,0,-2,39,0
'[14:17:00.324 20/01/2026]',-111885,-161917.6,-91275.45,-102680.8,-375000,-375000,-193053,-124530.6,0.05,-0.02,0.89,-4,0,-2,39,0
'[14:17:00.328 20/01/2026]',-111561.4,-161514.3,-90894.53,-102673.9,-375000,-375000,-195251.8,-124161.6,0.05,-0.02,0.89,-4,0,-2,39,0
'[14:17:00.332 20/01/2026]',-111266.6,-161228,-90628.9,-102309.3,-375000,-375000,-195516.1,-123846.9,0.05,-0.02,0.89,-4,0,-2,39,0
'[14:17:00.336 20/01/2026]',-111486.4,-161510.3,-90901.37,-102275.3,-375000,-375000,-193788.6,-124101.2,0.05,-0.02,0.89,-4,0,-2,39,0
'[14:17:00.340 20/01/2026]',-111873,-161924.1,-91284.92,-102630.2,-375000,-375000,-192861.6,-124526,0.05,-0.02,0.89,-4,0,-2,39,0
'[14:17:00.344 20/01/2026]',-111635.8,-161602.8,-90971.51,-102717.3,-375000,-375000,-194912.3,-124244.1,0.05,-0.02,0.89,-4,0,-2,39,0
'[14:17:00.348 20/01/2026]',-111268.1,-161224.2,-90617.37,-102341.8,-375000,-375000,-195634,-123848.3,0.05,-0.02,0.89,-4,0,-2,39,0
'[14:17:00.352 20/01/2026]',-111399,-161421.9,-90809.28,-102229.2,-375000,-375000,-194080.4,-124010.9,0.05,-0.02,0.89,-4,0,-2,39,0
'[14:17:00.356 20/01/2026]',-111820.2,-161882,-91248.71,-102540.3,-375000,-375000,-192742.5,-124478.1,0.05,-0.02,0.89,-4,0,-2,39,0
'[14:17:00.360 20/01/2026]',-111716.6,-161687.7,-91053.45,-102743.8,-375000,-375000,-194536.9,-124332.6,0.03,0.00,0.89,-4,0,-2,39,0
'[14:17:00.364 20/01/2026]',-111279.2,-161237.6,-90625.15,-102400,-375000,-375000,-195757.1,-123878.6,0.03,0.00,0.89,-4,0,-2,39,0
'[14:17:00.368 20/01/2026]',-111347,-161360.5,-90752.28,-102233.6,-375000,-375000,-194466.2,-123968.9,0.03,0.00,0.89,-4,0,-2,39,0
'[14:17:00.372 20/01/2026]',-111790.7,-161837.7,-91212.68,-102486.8,-375000,-375000,-192809.3,-124438.7,0.03,0.00,0.89,-4,0,-2,39,0
'[14:17:00.376 20/01/2026]',-111796.3,-161769.8,-91137.76,-102754.9,-375000,-375000,-194137.5,-124410.2,0.03,0.00,0.89,-4,0,-2,39,0
'[14:17:00.380 20/01/2026]',-111325.2,-161259.9,-90647.98,-102435.5,-375000,-375000,-195731,-123900.8,0.03,0.00,0.89,-4,0,-2,39,0
'[14:17:00.384 20/01/2026]',-111292.2,-161280.3,-90672.75,-102204.9,-375000,-375000,-194754.7,-123887,0.03,0.00,0.89,-4,0,-2,39,0
'[14:17:00.388 20/01/2026]',-111702.2,-161759.6,-91132.35,-102412.7,-375000,-375000,-192941.9,-124346.8,0.03,0.00,0.89,-4,0,-2,39,0
'[14:17:00.392 20/01/2026]',-111849.6,-161866,-91220.2,-102778.1,-375000,-375000,-193796.6,-124493.8,0.03,0.00,0.89,-4,0,-2,39,0
'[14:17:00.396 20/01/2026]',-111406.3,-161359.2,-90729.39,-102533.4,-375000,-375000,-195662.1,-123994.9,0.03,0.00,0.88,-4,0,-2,39,0
'[14:17:00.400 20/01/2026]',-111282.6,-161271.9,-90645.71,-102243.3,-375000,-375000,-195037.3,-123875.2,0.03,0.00,0.88,-4,0,-2,39,0
'[14:17:00.404 20/01/2026]',-111644.7,-161691.9,-91057.83,-102366.8,-375000,-375000,-193187.5,-124278.2,0.03,0.00,0.88,-4,0,-2,39,0
'[14:17:00.408 20/01/2026]',-111887.4,-161907.6,-91252.73,-102734.7,-375000,-375000,-193394.7,-124525.6,0.03,0.00,0.88,-4,0,-2,39,0
'[14:17:00.412 20/01/2026]',-111473.8,-161425.8,-90792.25,-102599.4,-375000,-375000,-195502.3,-124061.7,0.03,0.00,0.88,-4,0,-2,39,0
'[14:17:00.416 20/01/2026]',-111255,-161238,-90614.46,-102261.9,-375000,-375000,-195291,-123837.3,0.03,0.00,0.88,-4,0,-2,39,0
'[14:17:00.420 20/01/2026]',-111558.8,-161603.3,-90968.11,-102310.9,-375000,-375000,-193450.1,-124174.4,0.03,0.00,0.88,-4,0,-2,39,0
'[14:17:00.424 20/01/2026]',-111890.9,-161936.3,-91281.8,-102693.1,-375000,-375000,-193080.3,-124534.4,0.03,0.00,0.88,-4,0,-2,39,0
'[14:17:00.428 20/01/2026]',-111553.1,-161517.5,-90885.19,-102672.2,-375000,-375000,-195252.1,-124148.4,0.03,0.00,0.88,-4,0,-2,39,0
'[14:17:00.432 20/01/2026]',-111269.5,-161238.4,-90618.35,-102312.6,-375000,-375000,-195534.3,-123842.6,0.03,0.00,0.88,-4,0,-2,39,0
'[14:17:00.436 20/01/2026]',-111509.5,-161534.8,-90896,-102282.9,-375000,-375000,-193776.9,-124107.5,0.03,0.00,0.88,-4,0,-2,39,0
'[14:17:00.440 20/01/2026]',-111901.6,-161947.1,-91301.33,-102653.1,-375000,-375000,-192913.3,-124540.4,0.03,0.00,0.88,-4,0,-2,39,0
'[14:17:00.444 20/01/2026]',-111661.3,-161619.2,-90987.87,-102727.4,-375000,-375000,-194941.8,-124249.3,0.03,0.00,0.88,-4,0,-2,39,0
'[14:17:00.448 20/01/2026]',-111290,-161238.9,-90619.87,-102344.9,-375000,-375000,-195626.5,-123841.5,0.03,0.00,0.88,-4,0,-2,39,0
'[14:17:00.452 20/01/2026]',-111435.1,-161441.7,-90802.75,-102243,-375000,-375000,-194086.5,-124011.8,0.03,0.00,0.88,-4,0,-2,39,0
'[14:17:00.456 20/01/2026]',-111848.2,-161896.5,-91219.08,-102555.9,-375000,-375000,-192771.5,-124471.5,0.03,0.00,0.88,-4,0,-2,39,0
'[14:17:00.460 20/01/2026]',-111726.9,-161706.2,-91023.63,-102748.5,-375000,-375000,-194516,-124324.2,0.03,0.00,0.88,-4,0,-2,39,0
'[14:17:00.464 20/01/2026]',-111298.2,-161256.3,-90593,-102406.1,-375000,-375000,-195720.7,-123868.3,0.03,0.00,0.88,-4,0,-2,39,0
'[14:17:00.468 20/01/2026]',-111363.5,-161376.1,-90703.47,-102233.7,-375000,-375000,-194411.5,-123951.5,0.03,-0.02,0.89,-4,0,-2,39,0
'[14:17:00.472 20/01/2026]',-111787.5,-161842.3,-91147.82,-102489.2,-375000,-375000,-192782,-124421.3,0.03,-0.02,0.89,-4,0,-2,39,0
'[14:17:00.476 20/01/2026]',-111790.9,-161776.3,-91089.79,-102768,-375000,-375000,-194135,-124405.7,0.03,-0.02,0.89,-4,0,-2,39,0
'[14:17:00.480 20/01/2026]',-111333.5,-161282.6,-90623.67,-102463.4,-375000,-375000,-195722.2,-123911.5,0.03,-0.02,0.89,-4,0,-2,39,0
'[14:17:00.484 20/01/2026]',-111312.6,-161300.7,-90647.36,-102229.3,-375000,-375000,-194755.2,-123896.4,0.03,-0.02,0.89,-4,0,-2,39,0
'[14:17:00.488 20/01/2026]',-111723,-161764.5,-91077.45,-102422.7,-375000,-375000,-192949.5,-124344.1,0.03,-0.02,0.89,-4,0,-2,39,0
'[14:17:00.492 20/01/2026]',-111850.5,-161854.7,-91146.66,-102770.5,-375000,-375000,-193766.3,-124474.9,0.03,-0.02,0.89,-4,0,-2,39,0
'[14:17:00.496 20/01/2026]',-111408.3,-161356.4,-90678.07,-102543.9,-375000,-375000,-195671,-123983.8,0.03,-0.02,0.89,-4,0,-2,39,0
'[14:17:00.500 20/01/2026]',-111289.4,-161279.1,-90620.77,-102259.5,-375000,-375000,-195050.5,-123872.4,0.03,-0.02,0.89,-4,0,-2,39,0
'[14:17:00.504 20/01/2026]',-111659.7,-161711.4,-91038.38,-102395.8,-375000,-375000,-193191.8,-124288.7,0.05,-0.02,0.89,-4,0,-2,39,0
'[14:17:00.508 20/01/2026]',-111920.1,-161928.1,-91230.16,-102763.2,-375000,-375000,-193413.8,-124541.3,0.05,-0.02,0.89,-4,0,-2,39,0
'[14:17:00.512 20/01/2026]',-111514.2,-161447.2,-90759.12,-102617.1,-375000,-375000,-195502.1,-124069.5,0.05,-0.02,0.89,-4,0,-2,39,0
'[14:17:00.516 20/01/2026]',-111293.8,-161258.2,-90580.27,-102282.8,-375000,-375000,-195293.4,-123853.6,0.05,-0.02,0.89,-4,0,-2,39,0
'[14:17:00.520 20/01/2026]',-111582.5,-161625.4,-90927.16,-102329.3,-375000,-375000,-193438.4,-124195.3,0.05,-0.02,0.89,-4,0,-2,39,0
'[14:17:00.524 20/01/2026]',-111899.3,-161944.9,-91227.13,-102709.8,-375000,-375000,-193075.1,-124553.5,0.05,-0.02,0.89,-4,0,-2,39,0
'[14:17:00.528 20/01/2026]',-111542.2,-161496.5,-90811.52,-102676.4,-375000,-375000,-195254.1,-124163,0.05,-0.02,0.89,-4,0,-2,39,0
'[14:17:00.532 20/01/2026]',-111245.2,-161209,-90526.13,-102309.7,-375000,-375000,-195558.2,-123839.9,0.05,-0.02,0.89,-4,0,-2,39,0
'[14:17:00.536 20/01/2026]',-111499.6,-161522.9,-90814.95,-102272.9,-375000,-375000,-193796.3,-124090.4,0.05,-0.02,0.89,-4,0,-2,39,0
'[14:17:00.540 20/01/2026]',-111900.7,-161929.1,-91218.63,-102629.7,-375000,-375000,-192870.1,-124515.4,0.03,0.00,0.88,-4,0,-2,39,0
'[14:17:00.544 20/01/2026]',-111648.3,-161578,-90897.52,-102711.9,-375000,-375000,-194969.5,-124225.7,0.03,0.00,0.88,-4,0,-2,39,0
'[14:17:00.548 20/01/2026]',-111277.4,-161185.6,-90534.4,-102322.4,-375000,-375000,-195623.2,-123826,0.03,0.00,0.88,-4,0,-2,39,0
'[14:17:00.552 20/01/2026]',-111434.7,-161386.1,-90742.31,-102229.9,-375000,-375000,-194077.5,-124012,0.03,0.00,0.88,-4,0,-2,39,0
'[14:17:00.556 20/01/2026]',-111855.9,-161838.3,-91178.66,-102551.4,-375000,-375000,-192778.9,-124480.9,0.03,0.00,0.88,-4,0,-2,39,0
'[14:17:00.560 20/01/2026]',-111721.1,-161621.9,-90965.12,-102727.5,-375000,-375000,-194516.1,-124312,0.03,0.00,0.88,-4,0,-2,39,0
'[14:17:00.564 20/01/2026]',-111298.2,-161164.4,-90535.11,-102370.3,-375000,-375000,-195655,-123850.4,0.03,0.00,0.88,-4,0,-2,39,0
'[14:17:00.568 20/01/2026]',-111364,-161279.2,-90644.55,-102203.5,-375000,-375000,-194383.5,-123935.2,0.03,0.00,0.88,-4,0,-2,39,0
'[14:17:00.572 20/01/2026]',-111784.2,-161749.6,-91088.98,-102464.2,-375000,-375000,-192777.7,-124408.8,0.03,0.00,0.88,-4,0,-2,39,0
'[14:17:00.576 20/01/2026]',-111774.6,-161681,-90996.01,-102723.7,-375000,-375000,-194075,-124377.2,0.03,-0.02,0.88,-4,0,-2,39,0
'[14:17:00.580 20/01/2026]',-111324,-161186.2,-90515.66,-102426,-375000,-375000,-195701.5,-123883.9,0.03,-0.02,0.88,-4,0,-2,39,0
'[14:17:00.584 20/01/2026]',-111295.4,-161205.1,-90537.03,-102192.7,-375000,-375000,-194717.8,-123879.2,0.03,-0.02,0.88,-4,0,-2,39,0
'[14:17:00.588 20/01/2026]',-111707.4,-161680.1,-90976.88,-102399.1,-375000,-375000,-192921.2,-124339.8,0.03,-0.02,0.88,-4,0,-2,39,0
'[14:17:00.592 20/01/2026]',-111828.9,-161756.7,-91031.19,-102725.3,-375000,-375000,-193697.4,-124457.9,0.03,-0.02,0.88,-4,0,-2,39,0
'[14:17:00.596 20/01/2026]',-111378.8,-161244.5,-90541.68,-102494.9,-375000,-375000,-195628.3,-123962.1,0.03,-0.02,0.88,-4,0,-2,39,0
'[14:17:00.600 20/01/2026]',-111254.3,-161161.9,-90465.64,-102207.1,-375000,-375000,-195039.2,-123840.8,0.03,-0.02,0.88,-4,0,-2,39,0
'[14:17:00.604 20/01/2026]',-111618.1,-161583.8,-90882.37,-102325.3,-375000,-375000,-193137.7,-124240.5,0.03,-0.02,0.88,-4,0,-2,39,0
'[14:17:00.608 20/01/2026]',-111859.9,-161799.8,-91079.96,-102696.6,-375000,-375000,-193341.2,-124492.5,0.03,-0.02,0.88,-4,0,-2,39,0
'[14:17:00.612 20/01/2026]',-111444,-161320.4,-90607.66,-102562.1,-375000,-375000,-195461.4,-124038.6,0.03,0.00,0.89,-4,0,-2,39,0
'[14:17:00.616 20/01/2026]',-111240.7,-161131.6,-90427.65,-102223.9,-375000,-375000,-195257.9,-123827,0.03,0.00,0.89,-4,0,-2,39,0
'[14:17:00.620 20/01/2026]',-111553.4,-161508.1,-90787.15,-102274.8,-375000,-375000,-193404.5,-124174.3,0.03,0.00,0.89,-4,0,-2,39,0
'[14:17:00.624 20/01/2026]',-111878.3,-161829.3,-91085.1,-102654.5,-375000,-375000,-193063.3,-124526.6,0.03,0.00,0.89,-4,0,-2,39,0
'[14:17:00.628 20/01/2026]',-111527.5,-161395.7,-90668.64,-102614.7,-375000,-375000,-195235.7,-124128.9,0.03,0.00,0.89,-4,0,-2,39,0
'[14:17:00.632 20/01/2026]',-111223.3,-161117.7,-90392.15,-102247.7,-375000,-375000,-195450.1,-123816.4,0.03,0.00,0.89,-4,0,-2,39,0
'[14:17:00.636 20/01/2026]',-111460.7,-161416.3,-90691.93,-102225.7,-375000,-375000,-193700.7,-124084.2,0.03,0.00,0.89,-4,0,-2,39,0
'[14:17:00.640 20/01/2026]',-111857,-161820.8,-91083.63,-102586.9,-375000,-375000,-192831,-124506.5,0.03,0.00,0.89,-4,0,-2,39,0
'[14:17:00.644 20/01/2026]',-111604.3,-161487.4,-90762.88,-102671.8,-375000,-375000,-194942.4,-124214.3,0.03,0.00,0.89,-4,0,-2,39,0
'[14:17:00.648 20/01/2026]',-111238.1,-161111.1,-90406.73,-102291.9,-375000,-375000,-195606.3,-123818.3,0.03,-0.02,0.89,-4,0,-2,39,0
'[14:17:00.652 20/01/2026]',-111392.9,-161321.7,-90606.28,-102197.4,-375000,-375000,-194059.1,-123996.4,0.03,-0.02,0.89,-4,0,-2,39,0
'[14:17:00.656 20/01/2026]',-111815.8,-161778.2,-91041.29,-102514.6,-375000,-375000,-192772.7,-124463,0.03,-0.02,0.89,-4,0,-2,39,0
'[14:17:00.660 20/01/2026]',-111691.1,-161576.1,-90837.4,-102698.1,-375000,-375000,-194531.7,-124309.3,0.03,-0.02,0.89,-4,0,-2,39,0
'[14:17:00.664 20/01/2026]',-111271.5,-161132.9,-90410.03,-102345.4,-375000,-375000,-195662.7,-123855.4,0.03,-0.02,0.89,-4,0,-2,39,0
'[14:17:00.668 20/01/2026]',-111336.4,-161258.7,-90531.22,-102183,-375000,-375000,-194379,-123943.5,0.03,-0.02,0.89,-4,0,-2,39,0
'[14:17:00.672 20/01/2026]',-111745.4,-161736.3,-91000.79,-102450.7,-375000,-375000,-192787,-124417.4,0.03,-0.02,0.89,-4,0,-2,39,0
'[14:17:00.676 20/01/2026]',-111752.9,-161667.8,-90928.37,-102725.8,-375000,-375000,-194180.4,-124396.2,0.03,-0.02,0.89,-4,0,-2,39,0
'[14:17:00.680 20/01/2026]',-111302.7,-161166.5,-90443.78,-102400.8,-375000,-375000,-195682.9,-123894.5,0.03,-0.02,0.89,-4,0,-2,39,0
'[14:17:00.684 20/01/2026]',-111277.4,-161192,-90467.3,-102173.4,-375000,-375000,-194676.6,-123880.8,0.03,0.00,0.88,-4,0,-2,39,0
'[14:17:00.688 20/01/2026]',-111692.6,-161670.3,-90931.54,-102380.7,-375000,-375000,-192908.9,-124339.9,0.03,0.00,0.88,-4,0,-2,39,0
'[14:17:00.692 20/01/2026]',-111835.3,-161755.1,-91004.9,-102719.7,-375000,-375000,-193718.2,-124465.9,0.03,0.00,0.88,-4,0,-2,39,0
'[14:17:00.696 20/01/2026]',-111378.4,-161234.4,-90509.45,-102475.9,-375000,-375000,-195611.8,-123959.2,0.03,0.00,0.88,-4,0,-2,39,0
'[14:17:00.700 20/01/2026]',-111246.5,-161144.4,-90423.89,-102178.5,-375000,-375000,-194960.5,-123836.4,0.03,0.00,0.88,-4,0,-2,39,0
'[14:17:00.704 20/01/2026]',-111590.8,-161570.2,-90829.75,-102302.9,-375000,-375000,-193074.6,-124238.5,0.03,0.00,0.88,-4,0,-2,39,0
'[14:17:00.708 20/01/2026]',-111831,-161782.9,-91026.27,-102681.2,-375000,-375000,-193322.3,-124487.2,0.03,0.00,0.88,-4,0,-2,39,0
'[14:17:00.712 20/01/2026]',-111424.5,-161293.7,-90566.09,-102540.6,-375000,-375000,-195439.9,-124023.9,0.03,0.00,0.88,-4,0,-2,39,0
'[14:17:00.716 20/01/2026]',-111221,-161115.6,-90404.09,-102213.3,-375000,-375000,-195259.8,-123816,0.03,0.00,0.88,-4,0,-2,39,0
'[14:17:00.720 20/01/2026]',-111517.1,-161485.6,-90749.51,-102260.3,-375000,-375000,-193396.7,-124156.1,0.03,-0.02,0.89,-4,0,-2,39,0
'[14:17:00.724 20/01/2026]',-111836.2,-161807.9,-91050.9,-102641.8,-375000,-375000,-193063.6,-124507,0.03,-0.02,0.89,-4,0,-2,39,0
'[14:17:00.728 20/01/2026]',-111503.1,-161385,-90653.35,-102604,-375000,-375000,-195200.2,-124114.6,0.03,-0.02,0.89,-4,0,-2,39,0
'[14:17:00.732 20/01/2026]',-111217.5,-161104.1,-90390.85,-102245.4,-375000,-375000,-195444.3,-123803.9,0.03,-0.02,0.89,-4,0,-2,39,0
'[14:17:00.736 20/01/2026]',-111446.1,-161401.5,-90673.02,-102217.3,-375000,-375000,-193692.6,-124067.3,0.03,-0.02,0.89,-4,0,-2,39,0
'[14:17:00.740 20/01/2026]',-111831.7,-161804.5,-91046.2,-102576.8,-375000,-375000,-192832.3,-124485.5,0.03,-0.02,0.89,-4,0,-2,39,0
'[14:17:00.744 20/01/2026]',-111589.9,-161477.8,-90727.2,-102651.1,-375000,-375000,-194851.4,-124198.9,0.03,-0.02,0.89,-4,0,-2,39,0
'[14:17:00.748 20/01/2026]',-111222.5,-161109,-90376.55,-102289.4,-375000,-375000,-195598.4,-123814,0.03,-0.02,0.89,-4,0,-2,39,0
'[14:17:00.752 20/01/2026]',-111372.2,-161319.8,-90590.37,-102184.5,-375000,-375000,-194026.4,-123992.9,0.03,-0.02,0.89,-4,0,-2,39,0
'[14:17:00.756 20/01/2026]',-111793,-161770.9,-91020.15,-102509.7,-375000,-375000,-192742.6,-124456.7,0.03,0.00,0.88,-4,0,-2,39,0
'[14:17:00.760 20/01/2026]',-111662,-161562.2,-90810.04,-102686.5,-375000,-375000,-194518.9,-124291.7,0.03,0.00,0.88,-4,0,-2,39,0
'[14:17:00.764 20/01/2026]',-111246.7,-161124.8,-90394.74,-102336.9,-375000,-375000,-195662.3,-123842.6,0.03,0.00,0.88,-4,0,-2,39,0
'[14:17:00.768 20/01/2026]',-111317.7,-161249,-90516.83,-102167.5,-375000,-375000,-194353.3,-123929.1,0.03,0.00,0.88,-4,0,-2,39,0
'[14:17:00.772 20/01/2026]',-111753,-161731.9,-90980.72,-102442.4,-375000,-375000,-192766.3,-124407.6,0.03,0.00,0.88,-4,0,-2,39,0
'[14:17:00.776 20/01/2026]',-111741.4,-161663.6,-90899.94,-102713.4,-375000,-375000,-194120.9,-124385.8,0.03,0.00,0.88,-4,0,-2,39,0
'[14:17:00.780 20/01/2026]',-111286.7,-161172.1,-90435.73,-102400.1,-375000,-375000,-195652.5,-123888.3,0.03,0.00,0.88,-4,0,-2,39,0
'[14:17:00.784 20/01/2026]',-111277.7,-161196.1,-90467.88,-102170,-375000,-375000,-194636.1,-123877.7,0.03,0.00,0.88,-4,0,-2,39,0
'[14:17:00.788 20/01/2026]',-111677.7,-161661.5,-90909.33,-102381.6,-375000,-375000,-192890,-124327.1,0.03,0.00,0.88,-4,0,-2,39,0
'[14:17:00.792 20/01/2026]',-111797.7,-161733.6,-90962.3,-102712,-375000,-375000,-193760.2,-124439.7,0.03,-0.02,0.89,-4,0,-2,39,0
'[14:17:00.796 20/01/2026]',-111354.8,-161229.3,-90479.14,-102460.8,-375000,-375000,-195609.1,-123939.8,0.03,-0.02,0.89,-4,0,-2,39,0
'[14:17:00.800 20/01/2026]',-111244.4,-161155.6,-90416.78,-102175.9,-375000,-375000,-194949.4,-123831.3,0.03,-0.02,0.89,-4,0,-2,39,0
'[14:17:00.804 20/01/2026]',-111615.8,-161586.3,-90836.32,-102313.6,-375000,-375000,-193093,-124243.9,0.03,-0.02,0.89,-4,0,-2,39,0
'[14:17:00.808 20/01/2026]',-111843.8,-161792,-91022.83,-102686,-375000,-375000,-193356,-124486,0.03,-0.02,0.89,-4,0,-2,39,0
'[14:17:00.812 20/01/2026]',-111426,-161305.6,-90555.32,-102534.8,-375000,-375000,-195445.8,-124019.4,0.03,-0.02,0.89,-4,0,-2,39,0
'[14:17:00.816 20/01/2026]',-111220.3,-161128.6,-90385.45,-102203.2,-375000,-375000,-195187,-123816.3,0.03,-0.02,0.89,-4,0,-2,39,0
'[14:17:00.820 20/01/2026]',-111527.2,-161497,-90745.13,-102264.5,-375000,-375000,-193379.5,-124164.2,0.03,-0.02,0.89,-4,0,-2,39,0
'[14:17:00.824 20/01/2026]',-111860.9,-161822.5,-91054.56,-102646.4,-375000,-375000,-193065.9,-124517.4,0.03,-0.02,0.89,-4,0,-2,39,0
'[14:17:00.828 20/01/2026]',-111524.7,-161391.1,-90642.76,-102598.9,-375000,-375000,-195188.2,-124116.9,0.03,-0.02,0.89,-4,0,-2,39,0
'[14:17:00.832 20/01/2026]',-111229.5,-161106.3,-90374.45,-102233.6,-375000,-375000,-195381.6,-123807.6,0.03,-0.02,0.89,-4,0,-2,39,0
'[14:17:00.836 20/01/2026]',-111462.2,-161412.5,-90668.1,-102227,-375000,-375000,-193692,-124083,0.03,-0.02,0.89,-4,0,-2,39,0
'[14:17:00.840 20/01/2026]',-111844.9,-161814.7,-91042.32,-102584.8,-375000,-375000,-192834.6,-124500.9,0.03,-0.02,0.89,-4,0,-2,39,0
'[14:17:00.844 20/01/2026]',-111575.6,-161474.2,-90716.97,-102649.6,-375000,-375000,-194881.5,-124198.2,0.03,-0.02,0.89,-4,0,-2,39,0
'[14:17:00.848 20/01/2026]',-111226,-161116.5,-90380.39,-102281.8,-375000,-375000,-195533.4,-123815.8,0.03,-0.02,0.89,-4,0,-2,39,0
'[14:17:00.852 20/01/2026]',-111396.6,-161339.2,-90594.26,-102196.7,-375000,-375000,-193975.9,-124005.9,0.03,-0.02,0.89,-4,0,-2,39,0
'[14:17:00.856 20/01/2026]',-111817.8,-161788.8,-91025.46,-102520.6,-375000,-375000,-192736.2,-124463.5,0.03,-0.02,0.89,-4,0,-2,39,0
'[14:17:00.860 20/01/2026]',-111680.4,-161575.4,-90821.21,-102700.1,-375000,-375000,-194526.8,-124297.2,0.03,-0.02,0.89,-4,0,-2,39,0
'[14:17:00.864 20/01/2026]',-111257,-161133,-90396.13,-102345.7,-375000,-375000,-195651.1,-123843.3,0.05,-0.02,0.88,-4,0,-2,39,0
'[14:17:00.868 20/01/2026]',-111327.7,-161258.9,-90510.62,-102179.6,-375000,-375000,-194349.6,-123929.7,0.05,-0.02,0.88,-4,0,-2,39,0
'[14:17:00.872 20/01/2026]',-111756.6,-161723.8,-90973.92,-102444,-375000,-375000,-192752.5,-124399.1,0.05,-0.02,0.88,-4,0,-2,39,0
'[14:17:00.876 20/01/2026]',-111751,-161650.8,-90895.42,-102712.5,-375000,-375000,-194117.6,-124370,0.05,-0.02,0.88,-4,0,-2,39,0
'[14:17:00.880 20/01/2026]',-111292.7,-161164.4,-90421.84,-102403,-375000,-375000,-195656.2,-123878.8,0.05,-0.02,0.88,-4,0,-2,39,0
'[14:17:00.884 20/01/2026]',-111276.3,-161193.1,-90456.48,-102185.6,-375000,-375000,-194682.6,-123884.3,0.05,-0.02,0.88,-4,0,-2,39,0
'[14:17:00.888 20/01/2026]',-111692.5,-161659.4,-90918.09,-102385.3,-375000,-375000,-192878.2,-124341.9,0.05,-0.02,0.88,-4,0,-2,39,0
'[14:17:00.892 20/01/2026]',-111819.4,-161742,-90983.53,-102727.6,-375000,-375000,-193742.5,-124457.4,0.05,-0.02,0.88,-4,0,-2,39,0
'[14:17:00.896 20/01/2026]',-111370.6,-161233.9,-90496.66,-102484.4,-375000,-375000,-195634,-123954.6,0.05,-0.02,0.88,-4,0,-2,39,0
'[14:17:00.900 20/01/2026]',-111256.9,-161159.1,-90426.44,-102188.2,-375000,-375000,-194928.4,-123841.5,0.02,-0.02,0.89,-4,0,-2,39,0
'[14:17:00.904 20/01/2026]',-111631.8,-161590,-90842.94,-102321.7,-375000,-375000,-193045,-124255.3,0.02,-0.02,0.89,-4,0,-2,39,0
'[14:17:00.908 20/01/2026]',-111866.5,-161794.9,-91029.4,-102701.9,-375000,-375000,-193338.2,-124503.3,0.02,-0.02,0.89,-4,0,-2,39,0
'[14:17:00.912 20/01/2026]',-111451.8,-161313.6,-90553.8,-102557.4,-375000,-375000,-195475.3,-124039.4,0.02,-0.02,0.89,-4,0,-2,39,0
'[14:17:00.916 20/01/2026]',-111235.9,-161123.5,-90374.23,-102214.5,-375000,-375000,-195221.2,-123822.6,0.02,-0.02,0.89,-4,0,-2,39,0
'[14:17:00.920 20/01/2026]',-111542,-161491.2,-90744.77,-102266.1,-375000,-375000,-193360.9,-124165.3,0.02,-0.02,0.89,-4,0,-2,39,0
'[14:17:00.924 20/01/2026]',-111867.3,-161812.9,-91055.77,-102646.4,-375000,-375000,-193041.1,-124510.7,0.02,-0.02,0.89,-4,0,-2,39,0
'[14:17:00.928 20/01/2026]',-111525.9,-161391.4,-90644.19,-102611,-375000,-375000,-195205.3,-124118.8,0.02,-0.02,0.89,-4,0,-2,39,0
'[14:17:00.932 20/01/2026]',-111245,-161118.6,-90381.51,-102246.5,-375000,-375000,-195366.1,-123816.6,0.02,-0.02,0.89,-4,0,-2,39,0
'[14:17:00.936 20/01/2026]',-111486.5,-161419.5,-90676.82,-102246,-375000,-375000,-193710.8,-124093.6,0.03,-0.02,0.89,-4,0,-2,39,0
'[14:17:00.940 20/01/2026]',-111868.1,-161824.7,-91058.73,-102599.5,-375000,-375000,-192857.8,-124517.5,0.03,-0.02,0.89,-4,0,-2,39,0
'[14:17:00.944 20/01/2026]',-111600.6,-161483.6,-90720.5,-102663.4,-375000,-375000,-194911.4,-124215.5,0.03,-0.02,0.89,-4,0,-2,39,0
'[14:17:00.948 20/01/2026]',-111223.3,-161108.2,-90371.9,-102287.7,-375000,-375000,-195558.4,-123823.3,0.03,-0.02,0.89,-4,0,-2,39,0
'[14:17:00.952 20/01/2026]',-111389.4,-161328.5,-90584.2,-102193.7,-375000,-375000,-193990.7,-124005,0.03,-0.02,0.89,-4,0,-2,39,0
'[14:17:00.956 20/01/2026]',-111823,-161789.7,-91028.51,-102520,-375000,-375000,-192708.1,-124470.5,0.03,-0.02,0.89,-4,0,-2,39,0
'[14:17:00.960 20/01/2026]',-111684.6,-161572.1,-90808.52,-102692.3,-375000,-375000,-194487.2,-124295.7,0.03,-0.02,0.89,-4,0,-2,39,0
'[14:17:00.964 20/01/2026]',-111262.2,-161131.8,-90382.49,-102339.8,-375000,-375000,-195598.8,-123846.3,0.03,-0.02,0.89,-4,0,-2,39,0
'[14:17:00.968 20/01/2026]',-111336,-161262.9,-90507.4,-102181.5,-375000,-375000,-194298.8,-123943.6,0.03,-0.02,0.89,-4,0,-2,39,0
'[14:17:00.972 20/01/2026]',-111768.1,-161741.7,-90976.83,-102458.1,-375000,-375000,-192741.6,-124421.3,0.02,-0.02,0.89,-4,0,-2,39,0
'[14:17:00.976 20/01/2026]',-111753.9,-161659.6,-90897.43,-102726.9,-375000,-375000,-194186,-124385.4,0.02,-0.02,0.89,-4,0,-2,39,0
'[14:17:00.980 20/01/2026]',-111306.3,-161176,-90432.38,-102407,-375000,-375000,-195684.6,-123897.6,0.02,-0.02,0.89,-4,0,-2,39,0
'[14:17:00.984 20/01/2026]',-111275.4,-161199.4,-90456.26,-102172.4,-375000,-375000,-194638.8,-123890,0.02,-0.02,0.89,-4,0,-2,39,0
'[14:17:00.988 20/01/2026]',-111687.3,-161656.4,-90901.28,-102372.4,-375000,-375000,-192856.6,-124339.2,0.02,-0.02,0.89,-4,0,-2,39,0
'[14:17:00.992 20/01/2026]',-111802.6,-161720.8,-90956.71,-102703.6,-375000,-375000,-193718.6,-124446.3,0.02,-0.02,0.89,-4,0,-2,39,0
'[14:17:00.996 20/01/2026]',-111353.3,-161215.6,-90477.63,-102463.3,-375000,-375000,-195584.7,-123950.3,0.02,-0.02,0.89,-4,0,-2,39,0
'[14:17:01.000 20/01/2026]',-111256.3,-161153.9,-90418.7,-102188.6,-375000,-375000,-194936.5,-123853,0.02,-0.02,0.89,-4,0,-2,39,0
'[14:17:01.004 20/01/2026]',-111626.8,-161579.4,-90833.77,-102317.3,-375000,-375000,-193062.9,-124260.4,0.02,-0.02,0.89,-4,0,-2,39,0
'[14:17:01.008 20/01/2026]',-111850.4,-161773.6,-91011.43,-102680.7,-375000,-375000,-193342.7,-124492.7,0.03,0.00,0.89,-4,0,-2,39,0
'[14:17:01.012 20/01/2026]',-111431.6,-161278.5,-90537.13,-102517.1,-375000,-375000,-195405.6,-124018.3,0.03,0.00,0.89,-4,0,-2,39,0
'[14:17:01.016 20/01/2026]',-111230.2,-161100.1,-90374.54,-102192.3,-375000,-375000,-195173.5,-123814.8,0.03,0.00,0.89,-4,0,-2,39,0
'[14:17:01.020 20/01/2026]',-111530.6,-161481.4,-90747.45,-102256.9,-375000,-375000,-193353.5,-124167.1,0.03,0.00,0.89,-4,0,-2,39,0
'[14:17:01.024 20/01/2026]',-111845.4,-161795.6,-91048.22,-102637.7,-375000,-375000,-193076.2,-124512.5,0.03,0.00,0.89,-4,0,-2,39,0
'[14:17:01.028 20/01/2026]',-111510.7,-161363.1,-90627.34,-102586.8,-375000,-375000,-195208.1,-124112.5,0.03,0.00,0.89,-4,0,-2,39,0
'[14:17:01.032 20/01/2026]',-111221.9,-161083.9,-90357.41,-102220.6,-375000,-375000,-195377.1,-123808.6,0.03,0.00,0.89,-4,0,-2,39,0
'[14:17:01.036 20/01/2026]',-111465.4,-161390,-90649.15,-102207.3,-375000,-375000,-193607.5,-124085.9,0.03,0.00,0.89,-4,0,-2,39,0
'[14:17:01.040 20/01/2026]',-111861.8,-161796.9,-91033.38,-102592.3,-375000,-375000,-192873.1,-124515.9,0.03,0.00,0.89,-4,0,-2,39,0
'[14:17:01.044 20/01/2026]',-111602.4,-161462.6,-90706.82,-102651.5,-375000,-375000,-194919.5,-124214.4,0.02,-0.02,0.86,-4,0,-2,39,0
'[14:17:01.048 20/01/2026]',-111225.6,-161090.5,-90354.78,-102267.6,-375000,-375000,-195530.9,-123818.9,0.02,-0.02,0.86,-4,0,-2,39,0
'[14:17:01.052 20/01/2026]',-111378.6,-161313.2,-90577.94,-102182.7,-375000,-375000,-193970.8,-124002.5,0.02,-0.02,0.86,-4,0,-2,39,0
'[14:17:01.056 20/01/2026]',-111803.5,-161764.6,-91016.3,-102510,-375000,-375000,-192722,-124460.4,0.02,-0.02,0.86,-4,0,-2,39,0
'[14:17:01.060 20/01/2026]',-111658,-161539.5,-90788,-102679,-375000,-375000,-194544.5,-124281.7,0.02,-0.02,0.86,-4,0,-2,39,0
'[14:17:01.064 20/01/2026]',-111250.4,-161111.8,-90371.5,-102329.7,-375000,-375000,-195645.8,-123842.3,0.02,-0.02,0.86,-4,0,-2,39,0
'[14:17:01.068 20/01/2026]',-111332.9,-161245.9,-90510.75,-102176.7,-375000,-375000,-194322,-123944.4,0.02,-0.02,0.86,-4,0,-2,39,0
'[14:17:01.072 20/01/2026]',-111751.3,-161719.1,-90966.05,-102441.6,-375000,-375000,-192725.7,-124411.6,0.02,-0.02,0.86,-4,0,-2,39,0
'[14:17:01.076 20/01/2026]',-111734.3,-161634,-90884.24,-102707.9,-375000,-375000,-194142.1,-124375.7,0.02,-0.02,0.86,-4,0,-2,39,0
'[14:17:01.080 20/01/2026]',-111279.9,-161137.5,-90412.63,-102384.8,-375000,-375000,-195662,-123876,0.05,-0.02,0.88,-4,0,-2,39,0
'[14:17:01.084 20/01/2026]',-111266,-161178,-90446.87,-102162,-375000,-375000,-194634.2,-123878.5,0.05,-0.02,0.88,-4,0,-2,39,0
'[14:17:01.088 20/01/2026]',-111685.4,-161655.9,-90901.37,-102378.2,-375000,-375000,-192861.3,-124339.3,0.05,-0.02,0.88,-4,0,-2,39,0
'[14:17:01.092 20/01/2026]',-111801.8,-161715.1,-90948.71,-102705.2,-375000,-375000,-193730.9,-124440.9,0.05,-0.02,0.88,-4,0,-2,39,0
'[14:17:01.096 20/01/2026]',-111346.4,-161205.5,-90460.95,-102455.7,-375000,-375000,-195587.2,-123943.8,0.05,-0.02,0.88,-4,0,-2,39,0
'[14:17:01.100 20/01/2026]',-111230.9,-161133,-90395.01,-102166.3,-375000,-375000,-194885.5,-123836.7,0.05,-0.02,0.88,-4,0,-2,39,0
'[14:17:01.104 20/01/2026]',-111592.2,-161560.6,-90812.5,-102305.1,-375000,-375000,-193039.7,-124247.7,0.05,-0.02,0.88,-4,0,-2,39,0
'[14:17:01.108 20/01/2026]',-111823.5,-161758.2,-90994.58,-102671,-375000,-375000,-193331.1,-124476.1,0.05,-0.02,0.88,-4,0,-2,39,0
'[14:17:01.112 20/01/2026]',-111411.5,-161269.7,-90522.05,-102517.3,-375000,-375000,-195431.1,-124003.8,0.05,-0.02,0.88,-4,0,-2,39,0
'[14:17:01.116 20/01/2026]',-111215.3,-161101.8,-90371.95,-102188.4,-375000,-375000,-195161.5,-123802.9,0.03,-0.02,0.89,-4,0,-2,39,0
'[14:17:01.120 20/01/2026]',-111537.1,-161482.4,-90748.13,-102254.6,-375000,-375000,-193306.1,-124159.6,0.03,-0.02,0.89,-4,0,-2,39,0
'[14:17:01.124 20/01/2026]',-111862.4,-161798.6,-91042.45,-102639.9,-375000,-375000,-193041.8,-124502.8,0.03,-0.02,0.89,-4,0,-2,39,0
'[14:17:01.128 20/01/2026]',-111516.3,-161370.4,-90620.59,-102594.6,-375000,-375000,-195200.4,-124102.5,0.03,-0.02,0.89,-4,0,-2,39,0
'[14:17:01.132 20/01/2026]',-111229.8,-161100.7,-90362.47,-102235.5,-375000,-375000,-195348.8,-123806.2,0.03,-0.02,0.89,-4,0,-2,39,0
'[14:17:01.136 20/01/2026]',-111469.2,-161407.9,-90655.37,-102225,-375000,-375000,-193603.2,-124079,0.03,-0.02,0.89,-4,0,-2,39,0
'[14:17:01.140 20/01/2026]',-111856,-161806.8,-91030.88,-102592.3,-375000,-375000,-192834,-124491.1,0.03,-0.02,0.89,-4,0,-2,39,0
'[14:17:01.144 20/01/2026]',-111581.6,-161458,-90692.91,-102642,-375000,-375000,-194889.1,-124180.2,0.03,-0.02,0.89,-4,0,-2,39,0
'[14:17:01.148 20/01/2026]',-111208.8,-161089.2,-90353.08,-102272,-375000,-375000,-195547.2,-123793.7,0.03,-0.02,0.89,-4,0,-2,39,0
'[14:17:01.152 20/01/2026]',-111369.7,-161301.4,-90564.62,-102180,-375000,-375000,-194002.4,-123973.1,0.03,-0.02,0.88,-4,0,-2,39,0
'[14:17:01.156 20/01/2026]',-111774.3,-161735.8,-90984.52,-102484.4,-375000,-375000,-192702.6,-124421.5,0.03,-0.02,0.88,-4,0,-2,39,0
'[14:17:01.160 20/01/2026]',-111635.2,-161519.6,-90768.24,-102659.1,-375000,-375000,-194499.3,-124249.2,0.03,-0.02,0.88,-4,0,-2,39,0
'[14:17:01.164 20/01/2026]',-111229.8,-161087.5,-90357.55,-102306.7,-375000,-375000,-195588.1,-123807.4,0.03,-0.02,0.88,-4,0,-2,39,0
'[14:17:01.168 20/01/2026]',-111328.9,-161229.6,-90497.43,-102157.5,-375000,-375000,-194256.9,-123915.8,0.03,-0.02,0.88,-4,0,-2,39,0
'[14:17:01.172 20/01/2026]',-111769.1,-161711.6,-90951.8,-102437.8,-375000,-375000,-192686.6,-124397.4,0.03,-0.02,0.88,-4,0,-2,39,0
'[14:17:01.176 20/01/2026]',-111757.2,-161631.4,-90865.91,-102716.1,-375000,-375000,-194136.7,-124367.9,0.03,-0.02,0.88,-4,0,-2,39,0
'[14:17:01.180 20/01/2026]',-111304.8,-161146.3,-90414.28,-102402.8,-375000,-375000,-195671.7,-123882.2,0.03,-0.02,0.88,-4,0,-2,39,0
'[14:17:01.184 20/01/2026]',-111293.4,-161191.6,-90464.66,-102177.5,-375000,-375000,-194599.5,-123886.5,0.03,-0.02,0.88,-4,0,-2,39,0
'[14:17:01.188 20/01/2026]',-111708.1,-161645.3,-90910.98,-102389.9,-375000,-375000,-192869,-124337.3,0.03,-0.02,0.89,-4,0,-2,39,0
'[14:17:01.192 20/01/2026]',-111802,-161671.7,-90949.2,-102709.6,-375000,-375000,-193754.6,-124443.6,0.03,-0.02,0.89,-4,0,-2,39,0
'[14:17:01.196 20/01/2026]',-111338.9,-161156.7,-90459.34,-102460.6,-375000,-375000,-195587.6,-123956.6,0.03,-0.02,0.89,-4,0,-2,39,0
'[14:17:01.200 20/01/2026]',-111248.9,-161128.7,-90413.52,-102188.2,-375000,-375000,-194895.8,-123856,0.03,-0.02,0.89,-4,0,-2,39,0
'[14:17:01.204 20/01/2026]',-111643.8,-161609.7,-90829.53,-102328.8,-375000,-375000,-193036.7,-124258.9,0.03,-0.02,0.89,-4,0,-2,39,0
'[14:17:01.208 20/01/2026]',-111878.8,-161817.8,-91004.27,-102695.7,-375000,-375000,-193356.4,-124479.9,0.03,-0.02,0.89,-4,0,-2,39,0
'[14:17:01.212 20/01/2026]',-111467.7,-161342.4,-90541.91,-102539.3,-375000,-375000,-195431.6,-124013.3,0.03,-0.02,0.89,-4,0,-2,39,0
'[14:17:01.216 20/01/2026]',-111283.1,-161200.7,-90383.43,-102218.1,-375000,-375000,-195139.6,-123822.4,0.03,-0.02,0.89,-4,0,-2,39,0
'[14:17:01.220 20/01/2026]',-111605,-161589,-90744.32,-102277.6,-375000,-375000,-193283.9,-124167.2,0.03,-0.02,0.89,-4,0,-2,39,0
'[14:17:01.224 20/01/2026]',-111913.8,-161900.3,-91022.38,-102648.9,-375000,-375000,-192996.4,-124496.8,0.02,0.00,0.88,-4,0,-2,39,0
'[14:17:01.228 20/01/2026]',-111548.8,-161458,-90601.85,-102607.3,-375000,-375000,-195226.2,-124094.8,0.02,0.00,0.88,-4,0,-2,39,0
'[14:17:01.232 20/01/2026]',-111269.8,-161195,-90352.63,-102248.1,-375000,-375000,-195388.2,-123810.9,0.02,0.00,0.88,-4,0,-2,39,0
'[14:17:01.236 20/01/2026]',-111514.1,-161508.6,-90666.54,-102239,-375000,-375000,-193596.5,-124094.6,0.02,0.00,0.88,-4,0,-2,39,0
'[14:17:01.240 20/01/2026]',-111886.4,-161889.1,-91045.98,-102598,-375000,-375000,-192794.3,-124494.4,0.02,0.00,0.88,-4,0,-2,39,0
'[14:17:01.244 20/01/2026]',-111637.4,-161551.8,-90721.03,-102671,-375000,-375000,-194894.6,-124197.9,0.02,0.00,0.88,-4,0,-2,39,0
'[14:17:01.248 20/01/2026]',-111284.6,-161193.7,-90378.78,-102309.1,-375000,-375000,-195527.8,-123832.1,0.02,0.00,0.88,-4,0,-2,39,0
'[14:17:01.252 20/01/2026]',-111453.7,-161415.3,-90592.78,-102217.4,-375000,-375000,-193935.8,-124021.6,0.02,0.00,0.88,-4,0,-2,39,0
'[14:17:01.256 20/01/2026]',-111867.2,-161863.7,-91018.49,-102543,-375000,-375000,-192750.5,-124474.2,0.02,0.00,0.88,-4,0,-2,39,0
'[14:17:01.260 20/01/2026]',-111721,-161632.9,-90788.89,-102700.5,-375000,-375000,-194558.6,-124283.6,0.03,-0.02,0.88,-4,0,-2,39,0
'[14:17:01.264 20/01/2026]',-111314.9,-161203.1,-90378.7,-102351,-375000,-375000,-195614,-123841,0.03,-0.02,0.88,-4,0,-2,39,0
'[14:17:01.268 20/01/2026]',-111393,-161346.2,-90513.84,-102207.2,-375000,-375000,-194287.8,-123946.3,0.03,-0.02,0.88,-4,0,-2,39,0
'[14:17:01.272 20/01/2026]',-111822.2,-161832.7,-90980.67,-102488.7,-375000,-375000,-192751.5,-124428.4,0.03,-0.02,0.88,-4,0,-2,39,0
'[14:17:01.276 20/01/2026]',-111806.6,-161744.6,-90891.17,-102744.3,-375000,-375000,-194170.1,-124386.8,0.03,-0.02,0.88,-4,0,-2,39,0
'[14:17:01.280 20/01/2026]',-111358.8,-161251.7,-90427.87,-102425.2,-375000,-375000,-195668.1,-123894.8,0.03,-0.02,0.88,-4,0,-2,39,0
'[14:17:01.284 20/01/2026]',-111338.6,-161290.5,-90458.85,-102201,-375000,-375000,-194604.4,-123893.4,0.03,-0.02,0.88,-4,0,-2,39,0
'[14:17:01.288 20/01/2026]',-111741.2,-161755.8,-90907.05,-102421.5,-375000,-375000,-192857.5,-124352.1,0.03,-0.02,0.88,-4,0,-2,39,0
'[14:17:01.292 20/01/2026]',-111853.3,-161806.6,-90958.23,-102745.1,-375000,-375000,-193799.5,-124448,0.03,-0.02,0.88,-4,0,-2,39,0
'[14:17:01.296 20/01/2026]',-111405.7,-161303.1,-90465.11,-102480.1,-375000,-375000,-195593.8,-123949.9,0.03,0.00,0.88,-4,0,-2,39,0
'[14:17:01.300 20/01/2026]',-111303.4,-161242.9,-90399.52,-102201.6,-375000,-375000,-194915.5,-123855.9,0.03,0.00,0.88,-4,0,-2,39,0
'[14:17:01.304 20/01/2026]',-111677.7,-161672.7,-90832.7,-102340.7,-375000,-375000,-193051.2,-124268.5,0.03,0.00,0.88,-4,0,-2,39,0
'[14:17:01.308 20/01/2026]',-111898.4,-161862.5,-91016.13,-102708.3,-375000,-375000,-193361.8,-124492.3,0.03,0.00,0.88,-4,0,-2,39,0
'[14:17:01.312 20/01/2026]',-111481,-161378.7,-90538.95,-102555.9,-375000,-375000,-195463.9,-124022.3,0.03,0.00,0.88,-4,0,-2,39,0
'[14:17:01.316 20/01/2026]',-111283,-161212.9,-90373.06,-102226.8,-375000,-375000,-195176.1,-123824.8,0.03,0.00,0.88,-4,0,-2,39,0
'[14:17:01.320 20/01/2026]',-111596.7,-161597.4,-90739.09,-102294.1,-375000,-375000,-193301.5,-124182.8,0.03,0.00,0.88,-4,0,-2,39,0
'[14:17:01.324 20/01/2026]',-111908.9,-161897.7,-91027.12,-102671.1,-375000,-375000,-193068.1,-124509.7,0.03,0.00,0.88,-4,0,-2,39,0
'[14:17:01.328 20/01/2026]',-111542.8,-161452.6,-90604.18,-102606.8,-375000,-375000,-195222,-124091,0.03,0.00,0.88,-4,0,-2,39,0
'[14:17:01.332 20/01/2026]',-111269.2,-161184.1,-90350.66,-102256.2,-375000,-375000,-195405.2,-123801.3,0.03,-0.02,0.88,-4,0,-2,39,0
'[14:17:01.336 20/01/2026]',-111515.7,-161498.5,-90653.45,-102245.7,-375000,-375000,-193638.5,-124087.5,0.03,-0.02,0.88,-4,0,-2,39,0
'[14:17:01.340 20/01/2026]',-111904.2,-161894.7,-91030.6,-102613.4,-375000,-375000,-192857.6,-124508,0.03,-0.02,0.88,-4,0,-2,39,0
'[14:17:01.344 20/01/2026]',-111630.7,-161545.9,-90689.02,-102662.4,-375000,-375000,-194931.6,-124192.9,0.03,-0.02,0.88,-4,0,-2,39,0
'[14:17:01.348 20/01/2026]',-111261.2,-161182.1,-90348.52,-102290.7,-375000,-375000,-195506.2,-123814.2,0.03,-0.02,0.88,-4,0,-2,39,0
'[14:17:01.352 20/01/2026]',-111448.1,-161409.6,-90574.05,-102210.8,-375000,-375000,-193922.8,-124010.5,0.03,-0.02,0.88,-4,0,-2,39,0
'[14:17:01.356 20/01/2026]',-111879.8,-161862.1,-91013.57,-102545.6,-375000,-375000,-192729.2,-124474.2,0.03,-0.02,0.88,-4,0,-2,39,0
'[14:17:01.360 20/01/2026]',-111726.5,-161627.6,-90794.98,-102698.1,-375000,-375000,-194553.2,-124282.6,0.03,-0.02,0.88,-4,0,-2,39,0
'[14:17:01.364 20/01/2026]',-111311.1,-161195.5,-90384.95,-102342.5,-375000,-375000,-195601.8,-123839.1,0.03,-0.02,0.88,-4,0,-2,39,0
'[14:17:01.368 20/01/2026]',-111401.7,-161334.5,-90517.32,-102202.8,-375000,-375000,-194319.5,-123949.4,0.02,0.00,0.88,-4,0,-2,39,0
'[14:17:01.372 20/01/2026]',-111834.1,-161815,-90973.61,-102476.2,-375000,-375000,-192747.8,-124421.6,0.02,0.00,0.88,-4,0,-2,39,0
'[14:17:01.376 20/01/2026]',-111795.9,-161715.3,-90866.72,-102727.1,-375000,-375000,-194167.9,-124368.1,0.02,0.00,0.88,-4,0,-2,39,0
'[14:17:01.380 20/01/2026]',-111351.2,-161232.6,-90409.23,-102413.3,-375000,-375000,-195630,-123887.1,0.02,0.00,0.88,-4,0,-2,39,0
'[14:17:01.384 20/01/2026]',-111346.2,-161280.2,-90464.75,-102200.4,-375000,-375000,-194569.3,-123896.8,0.02,0.00,0.88,-4,0,-2,39,0
'[14:17:01.388 20/01/2026]',-111751.3,-161742.2,-90908.52,-102408.9,-375000,-375000,-192809.4,-124344.1,0.02,0.00,0.88,-4,0,-2,39,0
'[14:17:01.392 20/01/2026]',-111844.6,-161793,-90938.96,-102726.6,-375000,-375000,-193729,-124432.6,0.02,0.00,0.88,-4,0,-2,39,0
'[14:17:01.396 20/01/2026]',-111392,-161284.6,-90472.3,-102475.9,-375000,-375000,-195603.1,-123935.8,0.02,0.00,0.88,-4,0,-2,39,0
'[14:17:01.400 20/01/2026]',-111296.1,-161229.9,-90418.21,-102194.9,-375000,-375000,-194866.3,-123844.7,0.02,0.00,0.88,-4,0,-2,39,0
'[14:17:01.404 20/01/2026]',-111663.5,-161668.4,-90831.49,-102341.3,-375000,-375000,-192994.4,-124261.9,0.02,-0.02,0.88,-4,0,-2,39,0
'[14:17:01.408 20/01/2026]',-111888.7,-161854.1,-91009.2,-102711.2,-375000,-375000,-193367.2,-124484.4,0.02,-0.02,0.88,-4,0,-2,39,0
'[14:17:01.412 20/01/2026]',-111472.2,-161358.3,-90527.29,-102537.8,-375000,-375000,-195429,-124001.6,0.02,-0.02,0.88,-4,0,-2,39,0
'[14:17:01.416 20/01/2026]',-111283.2,-161197.2,-90370.38,-102217.5,-375000,-375000,-195130.3,-123812.4,0.02,-0.02,0.88,-4,0,-2,39,0
'[14:17:01.420 20/01/2026]',-111604.2,-161584.8,-90750.8,-102298.8,-375000,-375000,-193289.4,-124180.5,0.02,-0.02,0.88,-4,0,-2,39,0
'[14:17:01.424 20/01/2026]',-111909.5,-161883.9,-91032.48,-102681,-375000,-375000,-193086.4,-124514.5,0.02,-0.02,0.88,-4,0,-2,39,0
'[14:17:01.428 20/01/2026]',-111528.5,-161431.9,-90600.38,-102600.8,-375000,-375000,-195213.6,-124096.3,0.02,-0.02,0.88,-4,0,-2,39,0
'[14:17:01.432 20/01/2026]',-111256.1,-161177.7,-90349.81,-102240.2,-375000,-375000,-195337,-123800.3,0.02,-0.02,0.88,-4,0,-2,39,0
'[14:17:01.436 20/01/2026]',-111523.4,-161504.6,-90656.17,-102235,-375000,-375000,-193569.3,-124079.7,0.02,-0.02,0.88,-4,0,-2,39,0
'[14:17:01.440 20/01/2026]',-111898.2,-161887.9,-91034.49,-102605.3,-375000,-375000,-192815.7,-124495.5,0.03,0.00,0.88,-4,0,-2,39,0
'[14:17:01.444 20/01/2026]',-111609.4,-161513.3,-90689.52,-102649.1,-375000,-375000,-194927,-124180,0.03,0.00,0.88,-4,0,-2,39,0
'[14:17:01.448 20/01/2026]',-111269,-161168.4,-90354.42,-102278.3,-375000,-375000,-195482.9,-123810.2,0.03,0.00,0.88,-4,0,-2,39,0
'[14:17:01.452 20/01/2026]',-111450.3,-161409.4,-90580.62,-102210.9,-375000,-375000,-193892.8,-124017.5,0.03,0.00,0.88,-4,0,-2,39,0
'[14:17:01.456 20/01/2026]',-111856.8,-161858.9,-91015.9,-102545.9,-375000,-375000,-192701.4,-124478.5,0.03,0.00,0.88,-4,0,-2,39,0
'[14:17:01.460 20/01/2026]',-111693.9,-161619.3,-90787.77,-102702.7,-375000,-375000,-194564.6,-124286.6,0.03,0.00,0.88,-4,0,-2,39,0
'[14:17:01.464 20/01/2026]',-111292.7,-161191.2,-90374.09,-102336.6,-375000,-375000,-195605.1,-123840.5,0.03,0.00,0.88,-4,0,-2,39,0
'[14:17:01.468 20/01/2026]',-111381.6,-161332.7,-90512.13,-102185,-375000,-375000,-194236.7,-123945,0.03,0.00,0.88,-4,0,-2,39,0
'[14:17:01.472 20/01/2026]',-111812.5,-161803.2,-90973.61,-102469.2,-375000,-375000,-192704.2,-124416.6,0.03,0.00,0.88,-4,0,-2,39,0
'[14:17:01.476 20/01/2026]',-111784.8,-161713.8,-90874.32,-102729.9,-375000,-375000,-194183,-124368.8,0.03,-0.02,0.88,-4,0,-2,39,0
'[14:17:01.480 20/01/2026]',-111329.4,-161225.2,-90410.7,-102405.5,-375000,-375000,-195645.9,-123880.4,0.03,-0.02,0.88,-4,0,-2,39,0
'[14:17:01.484 20/01/2026]',-111335.7,-161271.1,-90464.26,-102194,-375000,-375000,-194573.6,-123895.9,0.03,-0.02,0.88,-4,0,-2,39,0
'[14:17:01.488 20/01/2026]',-111741.3,-161737.8,-90913.08,-102402.3,-375000,-375000,-192799.3,-124351.3,0.03,-0.02,0.88,-4,0,-2,39,0
'[14:17:01.492 20/01/2026]',-111823.4,-161776.6,-90946.65,-102716.5,-375000,-375000,-193755.2,-124429.5,0.03,-0.02,0.88,-4,0,-2,39,0
'[14:17:01.496 20/01/2026]',-111367.2,-161264.5,-90457.15,-102454.2,-375000,-375000,-195564.4,-123925.1,0.03,-0.02,0.88,-4,0,-2,39,0
'[14:17:01.500 20/01/2026]',-111267.2,-161210,-90405.29,-102182,-375000,-375000,-194842.4,-123836.7,0.03,-0.02,0.88,-4,0,-2,39,0
'[14:17:01.504 20/01/2026]',-111653,-161656.8,-90836.81,-102334,-375000,-375000,-193005.7,-124260.5,0.03,-0.02,0.88,-4,0,-2,39,0
'[14:17:01.508 20/01/2026]',-111865.4,-161833.5,-90998.42,-102700.2,-375000,-375000,-193393.7,-124478.3,0.03,-0.02,0.88,-4,0,-2,39,0
'[14:17:01.512 20/01/2026]',-111441.5,-161338.7,-90522.2,-102529.9,-375000,-375000,-195460.6,-124003.5,0.05,-0.02,0.88,-4,0,-2,39,0
'[14:17:01.516 20/01/2026]',-111260.3,-161189.5,-90380.08,-102205.8,-375000,-375000,-195120.3,-123816.4,0.05,-0.02,0.88,-4,0,-2,39,0
'[14:17:01.520 20/01/2026]',-111575.7,-161575.1,-90751.34,-102278.3,-375000,-375000,-193240.8,-124176.6,0.05,-0.02,0.88,-4,0,-2,39,0
'[14:17:01.524 20/01/2026]',-111877.6,-161870.8,-91017.06,-102660.2,-375000,-375000,-193068.4,-124503,0.05,-0.02,0.88,-4,0,-2,39,0
'[14:17:01.528 20/01/2026]',-111507.6,-161420.5,-90593.45,-102586.3,-375000,-375000,-195219.3,-124084.5,0.05,-0.02,0.88,-4,0,-2,39,0
'[14:17:01.532 20/01/2026]',-111230.1,-161162.3,-90366.58,-102230.4,-375000,-375000,-195323.9,-123798.8,0.05,-0.02,0.88,-4,0,-2,39,0
'[14:17:01.536 20/01/2026]',-111496.9,-161487.4,-90676.06,-102238.4,-375000,-375000,-193566.1,-124092.2,0.05,-0.02,0.88,-4,0,-2,39,0
'[14:17:01.540 20/01/2026]',-111871,-161875,-91041.7,-102610.4,-375000,-375000,-192847.5,-124504.6,0.05,-0.02,0.88,-4,0,-2,39,0
'[14:17:01.544 20/01/2026]',-111596.3,-161521.7,-90693.14,-102660.8,-375000,-375000,-195005.4,-124186.4,0.05,-0.02,0.88,-4,0,-2,39,0
'[14:17:01.548 20/01/2026]',-111249.3,-161172.4,-90365.24,-102281.3,-375000,-375000,-195545.9,-123815,0.03,0.00,0.89,-4,0,-2,39,0
'[14:17:01.552 20/01/2026]',-111431.3,-161412.5,-90600.55,-102209.3,-375000,-375000,-193920.7,-124022.3,0.03,0.00,0.89,-4,0,-2,39,0
'[14:17:01.556 20/01/2026]',-111845.4,-161860.2,-91021.53,-102546.9,-375000,-375000,-192729.5,-124477.7,0.03,0.00,0.89,-4,0,-2,39,0
'[14:17:01.560 20/01/2026]',-111682,-161615.2,-90783.93,-102696.4,-375000,-375000,-194582,-124275.3,0.03,0.00,0.89,-4,0,-2,39,0
'[14:17:01.564 20/01/2026]',-111273.3,-161188.6,-90384.02,-102336.3,-375000,-375000,-195597.6,-123837.3,0.03,0.00,0.89,-4,0,-2,39,0
'[14:17:01.568 20/01/2026]',-111362.1,-161336.5,-90535.42,-102200.7,-375000,-375000,-194263.3,-123959.8,0.03,0.00,0.89,-4,0,-2,39,0
'[14:17:01.572 20/01/2026]',-111795.5,-161810.3,-90988.45,-102482.3,-375000,-375000,-192744.6,-124434.5,0.03,0.00,0.89,-4,0,-2,39,0
'[14:17:01.576 20/01/2026]',-111761.2,-161697.6,-90865.91,-102719.4,-375000,-375000,-194194.9,-124364.4,0.03,0.00,0.89,-4,0,-2,39,0
'[14:17:01.580 20/01/2026]',-111315.2,-161211.7,-90411.06,-102394.1,-375000,-375000,-195657.8,-123874.6,0.03,0.00,0.89,-4,0,-2,39,0
'[14:17:01.584 20/01/2026]',-111314.2,-161258.4,-90470.34,-102183.4,-375000,-375000,-194581,-123882.8,0.05,-0.02,0.88,-4,0,-2,39,0
'[14:17:01.588 20/01/2026]',-111723.8,-161723.6,-90915.18,-102399.6,-375000,-375000,-192816.9,-124338.5,0.05,-0.02,0.88,-4,0,-2,39,0
'[14:17:01.592 20/01/2026]',-111805.1,-161760.2,-90931.5,-102705.3,-375000,-375000,-193747.2,-124417.6,0.05,-0.02,0.88,-4,0,-2,39,0
'[14:17:01.596 20/01/2026]',-111354.5,-161258.1,-90444.45,-102456,-375000,-375000,-195593.5,-123925,0.05,-0.02,0.88,-4,0,-2,39,0
'[14:17:01.600 20/01/2026]',-111274.8,-161215.5,-90409.77,-102191.2,-375000,-375000,-194885.8,-123848,0.05,-0.02,0.88,-4,0,-2,39,0
'[14:17:01.604 20/01/2026]',-111657.3,-161649.3,-90840.66,-102344.6,-375000,-375000,-193033.3,-124265.9,0.05,-0.02,0.88,-4,0,-2,39,0
'[14:17:01.608 20/01/2026]',-111858,-161823.8,-91001.28,-102699.6,-375000,-375000,-193423.5,-124470.3,0.05,-0.02,0.88,-4,0,-2,39,0
'[14:17:01.612 20/01/2026]',-111424.2,-161334.1,-90521.61,-102520.3,-375000,-375000,-195451.1,-123991.5,0.05,-0.02,0.88,-4,0,-2,39,0
'[14:17:01.616 20/01/2026]',-111243.3,-161179.7,-90382.49,-102199.6,-375000,-375000,-195081.2,-123810.1,0.05,-0.02,0.88,-4,0,-2,39,0
'[14:17:01.620 20/01/2026]',-111566.6,-161566.4,-90763.68,-102280.1,-375000,-375000,-193202,-124178,0.03,-0.02,0.88,-4,0,-2,39,0
'[14:17:01.624 20/01/2026]',-111869,-161863.3,-91044.55,-102667,-375000,-375000,-193052.7,-124506.4,0.03,-0.02,0.88,-4,0,-2,39,0
'[14:17:01.628 20/01/2026]',-111517.6,-161425.9,-90618.75,-102603,-375000,-375000,-195257.6,-124092,0.03,-0.02,0.88,-4,0,-2,39,0
'[14:17:01.632 20/01/2026]',-111241.5,-161163.3,-90375.97,-102239.9,-375000,-375000,-195335.2,-123798.7,0.03,-0.02,0.88,-4,0,-2,39,0
'[14:17:01.636 20/01/2026]',-111501,-161476.7,-90680.71,-102235.3,-375000,-375000,-193543.6,-124079.9,0.03,-0.02,0.88,-4,0,-2,39,0
'[14:17:01.640 20/01/2026]',-111882.6,-161867.7,-91043.79,-102610.8,-375000,-375000,-192834.4,-124488.6,0.03,-0.02,0.88,-4,0,-2,39,0
'[14:17:01.644 20/01/2026]',-111599.7,-161508.4,-90687.2,-102640.9,-375000,-375000,-194926.3,-124163.9,0.03,-0.02,0.88,-4,0,-2,39,0
'[14:17:01.648 20/01/2026]',-111242.8,-161155.7,-90366.45,-102265,-375000,-375000,-195464.6,-123795,0.03,-0.02,0.88,-4,0,-2,39,0
'[14:17:01.652 20/01/2026]',-111426.6,-161393.1,-90607.09,-102189.6,-375000,-375000,-193825.1,-124003,0.03,-0.02,0.88,-4,0,-2,39,0
'[14:17:01.656 20/01/2026]',-111844.1,-161842.8,-91046.92,-102537.8,-375000,-375000,-192699.4,-124460.5,0.03,-0.02,0.88,-4,0,-2,38,0
'[14:17:01.660 20/01/2026]',-111671.7,-161598.9,-90804.9,-102673.7,-375000,-375000,-194546.1,-124251.4,0.03,-0.02,0.88,-4,0,-2,38,0
'[14:17:01.664 20/01/2026]',-111264.7,-161172.3,-90390.36,-102306.6,-375000,-375000,-195549.1,-123808.6,0.03,-0.02,0.88,-4,0,-2,38,0
'[14:17:01.668 20/01/2026]',-111364.8,-161322,-90531.27,-102168.4,-375000,-375000,-194193.8,-123925,0.03,-0.02,0.88,-4,0,-2,38,0
'[14:17:01.672 20/01/2026]',-111791.6,-161796,-90983.98,-102452.8,-375000,-375000,-192666.8,-124399.8,0.03,-0.02,0.88,-4,0,-2,38,0
'[14:17:01.676 20/01/2026]',-111743.7,-161680.4,-90877.27,-102695,-375000,-375000,-194155.4,-124338.4,0.03,-0.02,0.88,-4,0,-2,38,0
'[14:17:01.680 20/01/2026]',-111294.2,-161197.3,-90421.3,-102369.2,-375000,-375000,-195605.1,-123850.7,0.03,-0.02,0.88,-4,0,-2,38,0
'[14:17:01.684 20/01/2026]',-111297.4,-161250.3,-90470.65,-102159.8,-375000,-375000,-194512.4,-123866.8,0.03,-0.02,0.88,-4,0,-2,38,0
'[14:17:01.688 20/01/2026]',-111716.2,-161727.9,-90926.18,-102393.1,-375000,-375000,-192771.8,-124337.3,0.03,-0.02,0.88,-4,0,-2,38,0
'[14:17:01.692 20/01/2026]',-111797.9,-161767.2,-90959.48,-102721.1,-375000,-375000,-193813.3,-124422.9,0.05,-0.02,0.88,-4,0,-2,38,0
'[14:17:01.696 20/01/2026]',-111336.9,-161258,-90479.05,-102448.1,-375000,-375000,-195587.2,-123923.1,0.05,-0.02,0.88,-4,0,-2,38,0
'[14:17:01.700 20/01/2026]',-111265.5,-161215,-90454.83,-102189.6,-375000,-375000,-194832.3,-123851.3,0.05,-0.02,0.88,-4,0,-2,38,0
'[14:17:01.704 20/01/2026]',-111658.9,-161661,-90883.98,-102354.2,-375000,-375000,-193010.7,-124275.8,0.05,-0.02,0.88,-4,0,-2,38,0
'[14:17:01.708 20/01/2026]',-111864.8,-161840.4,-91040.3,-102718.4,-375000,-375000,-193425.2,-124490.7,0.05,-0.02,0.88,-4,0,-2,38,0
'[14:17:01.712 20/01/2026]',-111431,-161335.5,-90563.05,-102534.7,-375000,-375000,-195471.5,-124011.7,0.05,-0.02,0.88,-4,0,-2,38,0
'[14:17:01.716 20/01/2026]',-111261.6,-161188.3,-90423.98,-102222.7,-375000,-375000,-195133.1,-123834.6,0.05,-0.02,0.88,-4,0,-2,38,0
'[14:17:01.720 20/01/2026]',-111588.2,-161574.6,-90801.63,-102305.1,-375000,-375000,-193283.2,-124197.9,0.05,-0.02,0.88,-4,0,-2,38,0
'[14:17:01.724 20/01/2026]',-111870.1,-161861.8,-91067.22,-102678.8,-375000,-375000,-193126.5,-124514,0.05,-0.02,0.88,-4,0,-2,38,0
'[14:17:01.728 20/01/2026]',-111496.6,-161413.4,-90629.57,-102598.4,-375000,-375000,-195263.1,-124092.5,0.03,0.00,0.89,-4,0,-2,38,0
'[14:17:01.732 20/01/2026]',-111234.7,-161164.4,-90401.67,-102246.9,-375000,-375000,-195320,-123818.6,0.03,0.00,0.89,-4,0,-2,38,0
'[14:17:01.736 20/01/2026]',-111498.9,-161486.2,-90712.95,-102248.8,-375000,-375000,-193535.5,-124107.8,0.03,0.00,0.89,-4,0,-2,38,0
'[14:17:01.740 20/01/2026]',-111872.6,-161870.7,-91075.66,-102619.2,-375000,-375000,-192839.4,-124509.4,0.03,0.00,0.89,-4,0,-2,38,0
'[14:17:01.744 20/01/2026]',-111585.1,-161505.9,-90724.56,-102653.9,-375000,-375000,-194951.3,-124183.1,0.03,0.00,0.89,-4,0,-2,38,0
'[14:17:01.748 20/01/2026]',-111240.1,-161161.9,-90387.5,-102284.1,-375000,-375000,-195488.8,-123820.1,0.03,0.00,0.89,-4,0,-2,38,0
'[14:17:01.752 20/01/2026]',-111423.8,-161405.6,-90615.8,-102216.7,-375000,-375000,-193880.9,-124027.8,0.03,0.00,0.89,-4,0,-2,38,0
'[14:17:01.756 20/01/2026]',-111844.1,-161854.6,-91051.52,-102555.5,-375000,-375000,-192707,-124480,0.03,0.00,0.89,-4,0,-2,38,0
'[14:17:01.760 20/01/2026]',-111665.9,-161598.3,-90800.92,-102698.3,-375000,-375000,-194617.9,-124266,0.03,0.00,0.89,-4,0,-2,38,0
'[14:17:01.764 20/01/2026]',-111263.7,-161178.7,-90398.95,-102334.9,-375000,-375000,-195640.9,-123831.2,0.05,0.00,0.89,-4,0,-2,38,0
'[14:17:01.768 20/01/2026]',-111366.4,-161333.7,-90555.59,-102197,-375000,-375000,-194237.8,-123953,0.05,0.00,0.89,-4,0,-2,38,0
'[14:17:01.772 20/01/2026]',-111777.6,-161797.9,-91006.82,-102476.8,-375000,-375000,-192693.5,-124419.3,0.05,0.00,0.89,-4,0,-2,38,0
'[14:17:01.776 20/01/2026]',-111731.2,-161682,-90878.75,-102708.7,-375000,-375000,-194181.8,-124345.6,0.05,0.00,0.89,-4,0,-2,38,0
'[14:17:01.780 20/01/2026]',-111303.8,-161206.9,-90423.27,-102388.1,-375000,-375000,-195623.6,-123870.8,0.05,0.00,0.89,-4,0,-2,38,0
'[14:17:01.784 20/01/2026]',-111314.6,-161266,-90486.74,-102184.4,-375000,-375000,-194521.1,-123895.4,0.05,0.00,0.89,-4,0,-2,38,0
'[14:17:01.788 20/01/2026]',-111743.9,-161751.3,-90958.95,-102420.5,-375000,-375000,-192777.3,-124362.6,0.05,0.00,0.89,-4,0,-2,38,0
'[14:17:01.792 20/01/2026]',-111818.2,-161775.7,-90973.2,-102731.1,-375000,-375000,-193800.8,-124430.5,0.05,0.00,0.89,-4,0,-2,38,0
'[14:17:01.796 20/01/2026]',-111347.2,-161255.1,-90482.45,-102452.6,-375000,-375000,-195608.3,-123918.2,0.05,0.00,0.89,-4,0,-2,38,0
'[14:17:01.800 20/01/2026]',-111265.3,-161212,-90439,-102184.2,-375000,-375000,-194844.7,-123835,0.05,-0.02,0.88,-4,0,-2,38,0
'[14:17:01.804 20/01/2026]',-111665.6,-161663.5,-90868.02,-102347.3,-375000,-375000,-192981.7,-124268.2,0.05,-0.02,0.88,-4,0,-2,38,0
'[14:17:01.808 20/01/2026]',-111866.9,-161833.6,-91018.67,-102709.1,-375000,-375000,-193405.3,-124479.1,0.05,-0.02,0.88,-4,0,-2,38,0
'[14:17:01.812 20/01/2026]',-111421.7,-161338,-90540.03,-102529.5,-375000,-375000,-195464.9,-124002.2,0.05,-0.02,0.88,-4,0,-2,38,0
'[14:17:01.816 20/01/2026]',-111248.6,-161195.8,-90396.93,-102215.2,-375000,-375000,-195102.8,-123824.5,0.05,-0.02,0.88,-4,0,-2,38,0
'[14:17:01.820 20/01/2026]',-111585,-161583.1,-90779.95,-102293.8,-375000,-375000,-193226.6,-124187.7,0.05,-0.02,0.88,-4,0,-2,38,0
'[14:17:01.824 20/01/2026]',-111885.3,-161862.6,-91053.41,-102674.2,-375000,-375000,-193105.9,-124506.4,0.05,-0.02,0.88,-4,0,-2,38,0
'[14:17:01.828 20/01/2026]',-111511.9,-161411.2,-90621.57,-102594.4,-375000,-375000,-195302,-124080.5,0.05,-0.02,0.88,-4,0,-2,38,0
'[14:17:01.832 20/01/2026]',-111254.6,-161164.4,-90392.64,-102238,-375000,-375000,-195337.1,-123807.1,0.05,-0.02,0.88,-4,0,-2,38,0
'[14:17:01.836 20/01/2026]',-111524.9,-161500.4,-90711.6,-102250.1,-375000,-375000,-193519.5,-124106.6,0.03,-0.02,0.88,-4,0,-2,38,0
'[14:17:01.840 20/01/2026]',-111893.9,-161879,-91061.45,-102621.8,-375000,-375000,-192838.1,-124504.1,0.03,-0.02,0.88,-4,0,-2,38,0
'[14:17:01.844 20/01/2026]',-111595.7,-161466,-90694.48,-102643.2,-375000,-375000,-194952,-124166.1,0.03,-0.02,0.88,-4,0,-2,38,0
'[14:17:01.848 20/01/2026]',-111213.9,-161075,-90362.38,-102263.5,-375000,-375000,-195468,-123806.2,0.03,-0.02,0.88,-4,0,-2,38,0
'[14:17:01.852 20/01/2026]',-111385.8,-161325.7,-90600.38,-102198.3,-375000,-375000,-193862.8,-124018,0.03,-0.02,0.88,-4,0,-2,38,0
'[14:17:01.856 20/01/2026]',-111835.1,-161832,-91028.55,-102546.8,-375000,-375000,-192707.3,-124470.6,0.03,-0.02,0.88,-4,0,-2,38,0
'[14:17:01.860 20/01/2026]',-111674.8,-161603,-90770.25,-102679.4,-375000,-375000,-194577.7,-124248.2,0.03,-0.02,0.88,-4,0,-2,38,0
'[14:17:01.864 20/01/2026]',-111286.7,-161210.2,-90367.88,-102317.2,-375000,-375000,-195524.9,-123816.5,0.03,-0.02,0.88,-4,0,-2,38,0
'[14:17:01.868 20/01/2026]',-111413.9,-161408.2,-90533.01,-102204.4,-375000,-375000,-194179,-123948.6,0.03,-0.02,0.88,-4,0,-2,38,0
'[14:17:01.872 20/01/2026]',-111861.3,-161928.1,-91003.07,-102512.8,-375000,-375000,-192725.7,-124431.7,0.03,-0.02,0.89,-4,0,-2,38,0
'[14:17:01.876 20/01/2026]',-111837.5,-161859.6,-90891.53,-102766.4,-375000,-375000,-194284.8,-124371,0.03,-0.02,0.89,-4,0,-2,38,0
'[14:17:01.880 20/01/2026]',-111429.7,-161441.1,-90450.53,-102449.5,-375000,-375000,-195684.9,-123902.2,0.03,-0.02,0.89,-4,0,-2,38,0
'[14:17:01.884 20/01/2026]',-111474.3,-161550.6,-90524.2,-102265.6,-375000,-375000,-194555.4,-123943,0.03,-0.02,0.89,-4,0,-2,38,0
'[14:17:01.888 20/01/2026]',-111914.2,-162060.2,-90984.88,-102515.8,-375000,-375000,-192817.7,-124420.3,0.03,-0.02,0.89,-4,0,-2,38,0
'[14:17:01.892 20/01/2026]',-112005.1,-162122.5,-90992.25,-102830,-375000,-375000,-193893.4,-124483.1,0.03,-0.02,0.89,-4,0,-2,38,0
'[14:17:01.896 20/01/2026]',-111568.1,-161661.9,-90508.02,-102556.4,-375000,-375000,-195645,-123971.5,0.03,-0.02,0.89,-4,0,-2,38,0
'[14:17:01.900 20/01/2026]',-111519.4,-161665.3,-90481.65,-102327,-375000,-375000,-194880.9,-123913.6,0.03,-0.02,0.89,-4,0,-2,38,0
'[14:17:01.904 20/01/2026]',-111940.9,-162169.3,-90928.81,-102518.8,-375000,-375000,-193083.9,-124369.6,0.03,-0.02,0.89,-4,0,-2,38,0
'[14:17:01.908 20/01/2026]',-112146.8,-162386.8,-91086.09,-102870.9,-375000,-375000,-193550.7,-124567.7,0.03,-0.02,0.88,-4,0,-2,38,0
'[14:17:01.912 20/01/2026]',-111750.2,-161932,-90624.88,-102696.6,-375000,-375000,-195604.8,-124081.7,0.03,-0.02,0.88,-4,0,-2,38,0
'[14:17:01.916 20/01/2026]',-111618,-161816.5,-90498.95,-102397.7,-375000,-375000,-195220.4,-123908.5,0.03,-0.02,0.88,-4,0,-2,38,0
'[14:17:01.920 20/01/2026]',-111982.4,-162257.1,-90903.73,-102494.6,-375000,-375000,-193351.9,-124289.8,0.03,-0.02,0.88,-4,0,-2,38,0
'[14:17:01.924 20/01/2026]',-112281.8,-162590.2,-91179.73,-102887.3,-375000,-375000,-193265.5,-124607.9,0.03,-0.02,0.88,-4,0,-2,38,0
'[14:17:01.928 20/01/2026]',-111907.9,-162154.8,-90740.16,-102819.6,-375000,-375000,-195433.8,-124178.6,0.03,-0.02,0.88,-4,0,-2,38,0
'[14:17:01.932 20/01/2026]',-111655.9,-161935.9,-90507.4,-102473.2,-375000,-375000,-195459,-123915.9,0.03,-0.02,0.88,-4,0,-2,38,0
'[14:17:01.936 20/01/2026]',-111923.2,-162294.8,-90820.55,-102481.8,-375000,-375000,-193668.8,-124226.9,0.03,-0.02,0.88,-4,0,-2,38,0
'[14:17:01.940 20/01/2026]',-112285.6,-162699.3,-91180.32,-102871.7,-375000,-375000,-193053.2,-124635.1,0.03,-0.02,0.88,-4,0,-2,38,0
'[14:17:01.944 20/01/2026]',-111976.9,-162325.8,-90813.44,-102890.8,-375000,-375000,-195171.4,-124303.4,0.05,0.00,0.88,-4,0,-2,38,0
'[14:17:01.948 20/01/2026]',-111609.6,-161977.3,-90493.67,-102522.2,-375000,-375000,-195655,-123955.1,0.05,0.00,0.88,-4,0,-2,38,0
'[14:17:01.952 20/01/2026]',-111784.4,-162227.8,-90734.53,-102457.8,-375000,-375000,-194011.9,-124161.6,0.05,0.00,0.88,-4,0,-2,38,0
'[14:17:01.956 20/01/2026]',-112188,-162680.7,-91144.24,-102796.7,-375000,-375000,-192886.8,-124610.6,0.05,0.00,0.88,-4,0,-2,38,0
'[14:17:01.960 20/01/2026]',-111993.1,-162416.4,-90879.77,-102927.9,-375000,-375000,-194809.8,-124389.9,0.05,0.00,0.88,-4,0,-2,38,0
'[14:17:01.964 20/01/2026]',-111582.2,-161995.3,-90485.49,-102571.5,-375000,-375000,-195822.6,-123966.1,0.05,0.00,0.88,-4,0,-2,38,0
'[14:17:01.968 20/01/2026]',-111671.4,-162153,-90636.01,-102441.2,-375000,-375000,-194410.8,-124108.1,0.05,0.00,0.88,-4,0,-2,38,0
'[14:17:01.972 20/01/2026]',-112084.7,-162620,-91081.39,-102737.4,-375000,-375000,-192907.7,-124578.8,0.05,0.00,0.88,-4,0,-2,38,0
'[14:17:01.976 20/01/2026]',-112014.6,-162491.3,-90950.54,-102960.7,-375000,-375000,-194449.3,-124493.4,0.05,0.00,0.88,-4,0,-2,38,0
'[14:17:01.980 20/01/2026]',-111553.6,-162002.1,-90491.88,-102624.9,-375000,-375000,-195836.9,-124016.9,0.02,-0.02,0.89,-4,0,-2,38,0
'[14:17:01.984 20/01/2026]',-111557,-162062,-90552.1,-102424,-375000,-375000,-194697.6,-124048.7,0.02,-0.02,0.89,-4,0,-2,38,0
'[14:17:01.988 20/01/2026]',-111965.1,-162533.8,-91003.56,-102653.7,-375000,-375000,-192967.2,-124517.5,0.02,-0.02,0.89,-4,0,-2,38,0
'[14:17:01.992 20/01/2026]',-112017.1,-162533.2,-91000.56,-102957.2,-375000,-375000,-194038.9,-124574,0.02,-0.02,0.89,-4,0,-2,38,0
'[14:17:01.996 20/01/2026]',-111545.3,-162011.1,-90506.77,-102679.6,-375000,-375000,-195817.9,-124067.3,0.02,-0.02,0.89,-4,0,-2,38,0
'[14:17:02.000 20/01/2026]',-111460.6,-161958.7,-90476.55,-102414.8,-375000,-375000,-195022.4,-124000.6,0.02,-0.02,0.89,-4,0,-2,38,0
'[14:17:02.004 20/01/2026]',-111841.4,-162393.6,-90912.23,-102581.2,-375000,-375000,-193156.1,-124437.9,0.02,-0.02,0.89,-4,0,-2,38,0
'[14:17:02.008 20/01/2026]',-112022.2,-162541.9,-91054.74,-102940.4,-375000,-375000,-193640.4,-124635.2,0.02,-0.02,0.89,-4,0,-2,38,0
'[14:17:02.012 20/01/2026]',-111589.2,-162021.8,-90569.63,-102743.2,-375000,-375000,-195679.1,-124142.5,0.02,-0.02,0.89,-4,0,-2,38,0
'[14:17:02.016 20/01/2026]',-111403.2,-161859.9,-90423.45,-102411.3,-375000,-375000,-195243.9,-123961,0.03,0.00,0.88,-4,0,-2,38,0
'[14:17:02.020 20/01/2026]',-111753.6,-162277.4,-90829.4,-102519.1,-375000,-375000,-193401.2,-124370,0.03,0.00,0.88,-4,0,-2,38,0
'[14:17:02.024 20/01/2026]',-112056.2,-162565.8,-91099.72,-102910.3,-375000,-375000,-193309.9,-124695.5,0.03,0.00,0.88,-4,0,-2,38,0
'[14:17:02.028 20/01/2026]',-111659.5,-162087.2,-90650.05,-102832.2,-375000,-375000,-195525.5,-124263.6,0.03,0.00,0.88,-4,0,-2,38,0
'[14:17:02.032 20/01/2026]',-111379,-161821.7,-90424.02,-102476.6,-375000,-375000,-195508.6,-123991.8,0.03,0.00,0.88,-4,0,-2,38,0
'[14:17:02.036 20/01/2026]',-111655.8,-162147.2,-90755.68,-102487.9,-375000,-375000,-193707.2,-124293.8,0.03,0.00,0.88,-4,0,-2,38,0
'[14:17:02.040 20/01/2026]',-112018.7,-162536.1,-91102.45,-102844.3,-375000,-375000,-193083.4,-124674,0.03,0.00,0.88,-4,0,-2,38,0
'[14:17:02.044 20/01/2026]',-111724.1,-162154,-90732.48,-102858.4,-375000,-375000,-195226.3,-124321.6,0.03,0.00,0.88,-4,0,-2,38,0
'[14:17:02.048 20/01/2026]',-111385.6,-161812.6,-90421.84,-102492.4,-375000,-375000,-195718.4,-123967.4,0.03,0.00,0.88,-4,0,-2,38,0
'[14:17:02.052 20/01/2026]',-111580.4,-162062.9,-90669.71,-102420.3,-375000,-375000,-194051.4,-124189.3,0.03,0.00,0.88,-4,0,-2,38,0
'[14:17:02.056 20/01/2026]',-111989.2,-162499.4,-91085.37,-102755,-375000,-375000,-192880.4,-124644,0.03,0.00,0.88,-4,0,-2,38,0
'[14:17:02.060 20/01/2026]',-111792.8,-162227.5,-90814.51,-102893.4,-375000,-375000,-194826.3,-124413.1,0.03,0.00,0.88,-4,0,-2,38,0
'[14:17:02.064 20/01/2026]',-111389.9,-161811.7,-90421.79,-102535.1,-375000,-375000,-195826,-123978.5,0.03,0.00,0.88,-4,0,-2,38,0
'[14:17:02.068 20/01/2026]',-111498,-161970.2,-90580.62,-102390.5,-375000,-375000,-194366.6,-124104.4,0.03,0.00,0.88,-4,0,-2,38,0
'[14:17:02.072 20/01/2026]',-111929.2,-162436.4,-91038.38,-102678.6,-375000,-375000,-192841.8,-124584.6,0.03,0.00,0.88,-4,0,-2,38,0
'[14:17:02.076 20/01/2026]',-111858.9,-162299.5,-90907.63,-102916.2,-375000,-375000,-194434.5,-124493.9,0.03,0.00,0.88,-4,0,-2,38,0
'[14:17:02.080 20/01/2026]',-111406.9,-161823.2,-90452.32,-102575.8,-375000,-375000,-195814.9,-124006.4,0.03,0.00,0.88,-4,0,-2,38,0
'[14:17:02.084 20/01/2026]',-111433.2,-161894.6,-90525.55,-102380,-375000,-375000,-194675.5,-124045,0.03,0.00,0.88,-4,0,-2,38,0
'[14:17:02.088 20/01/2026]',-111855.3,-162370.6,-90982.28,-102613.7,-375000,-375000,-192929.6,-124512.1,0.03,-0.02,0.88,-4,0,-2,38,0
'[14:17:02.092 20/01/2026]',-111924.4,-162367.8,-90979.42,-102925.1,-375000,-375000,-194022.6,-124559.6,0.03,-0.02,0.88,-4,0,-2,38,0
'[14:17:02.096 20/01/2026]',-111471.5,-161849.6,-90494.74,-102644.4,-375000,-375000,-195803.8,-124054.8,0.03,-0.02,0.88,-4,0,-2,38,0
'[14:17:02.100 20/01/2026]',-111394.4,-161826.2,-90477.53,-102381.1,-375000,-375000,-194981.4,-123987.5,0.03,-0.02,0.88,-4,0,-2,38,0
'[14:17:02.104 20/01/2026]',-111767.2,-162276.2,-90910.8,-102533.8,-375000,-375000,-193082.4,-124420.9,0.03,-0.02,0.88,-4,0,-2,38,0
'[14:17:02.108 20/01/2026]',-111945.7,-162427.8,-91050.05,-102894.9,-375000,-375000,-193573.9,-124609.1,0.03,-0.02,0.88,-4,0,-2,38,0
'[14:17:02.112 20/01/2026]',-111535.8,-161936.2,-90577.49,-102734.9,-375000,-375000,-195711.4,-124135.4,0.03,-0.02,0.88,-4,0,-2,38,0
'[14:17:02.116 20/01/2026]',-111389.4,-161803.8,-90453.66,-102424.9,-375000,-375000,-195337.2,-123982.4,0.03,-0.02,0.88,-4,0,-2,38,0
'[14:17:02.120 20/01/2026]',-111725.9,-162203.3,-90841.64,-102503.9,-375000,-375000,-193410.1,-124367.1,0.03,-0.02,0.88,-4,0,-2,38,0
'[14:17:02.124 20/01/2026]',-111999.7,-162469.3,-91095.6,-102888.7,-375000,-375000,-193347.8,-124671.3,0.05,-0.02,0.88,-4,0,-2,38,0
'[14:17:02.128 20/01/2026]',-111616.4,-162002.9,-90654.47,-102794.8,-375000,-375000,-195511.7,-124221.6,0.05,-0.02,0.88,-4,0,-2,38,0
'[14:17:02.132 20/01/2026]',-111367.7,-161773.3,-90438.51,-102436.3,-375000,-375000,-195491.5,-123960.7,0.05,-0.02,0.88,-4,0,-2,38,0
'[14:17:02.136 20/01/2026]',-111637.2,-162112,-90769.8,-102451.9,-375000,-375000,-193665,-124277.4,0.05,-0.02,0.88,-4,0,-2,38,0
'[14:17:02.140 20/01/2026]',-111994.4,-162483.9,-91118.76,-102822.9,-375000,-375000,-193021.9,-124668.1,0.05,-0.02,0.88,-4,0,-2,38,0
'[14:17:02.144 20/01/2026]',-111691,-162091.3,-90740.97,-102845.6,-375000,-375000,-195177.2,-124308,0.05,-0.02,0.88,-4,0,-2,38,0
'[14:17:02.148 20/01/2026]',-111357.7,-161754.7,-90425.41,-102473.1,-375000,-375000,-195646,-123952.1,0.05,-0.02,0.88,-4,0,-2,38,0
'[14:17:02.152 20/01/2026]',-111564.3,-162020.4,-90684.29,-102415.1,-375000,-375000,-193963.8,-124187.8,0.05,-0.02,0.88,-4,0,-2,38,0
'[14:17:02.156 20/01/2026]',-111976.6,-162457.9,-91104.68,-102769.2,-375000,-375000,-192892.3,-124642.5,0.05,-0.02,0.88,-4,0,-2,38,0
'[14:17:02.160 20/01/2026]',-111782.7,-162178.9,-90833.06,-102900.9,-375000,-375000,-194855.8,-124403.6,0.02,0.00,0.89,-4,0,-2,38,0
'[14:17:02.164 20/01/2026]',-111371.9,-161771.7,-90441.81,-102530.1,-375000,-375000,-195774.5,-123969,0.02,0.00,0.89,-4,0,-2,38,0
'[14:17:02.168 20/01/2026]',-111494.4,-161944.6,-90599.62,-102396.2,-375000,-375000,-194311.9,-124110.6,0.02,0.00,0.89,-4,0,-2,38,0
'[14:17:02.172 20/01/2026]',-111931.2,-162417.6,-91054.61,-102690.9,-375000,-375000,-192810.4,-124597.4,0.02,0.00,0.89,-4,0,-2,38,0
'[14:17:02.176 20/01/2026]',-111853.7,-162269,-90924.52,-102921.4,-375000,-375000,-194435.5,-124488.1,0.02,0.00,0.89,-4,0,-2,38,0
'[14:17:02.180 20/01/2026]',-111405.9,-161790.5,-90479.14,-102581.2,-375000,-375000,-195814.3,-124000.4,0.02,0.00,0.89,-4,0,-2,38,0
'[14:17:02.184 20/01/2026]',-111432.7,-161873.8,-90551.7,-102380.9,-375000,-375000,-194645.3,-124049.7,0.02,0.00,0.89,-4,0,-2,38,0
'[14:17:02.188 20/01/2026]',-111851.4,-162353.5,-91008.16,-102610.7,-375000,-375000,-192884.1,-124521.7,0.02,0.00,0.89,-4,0,-2,38,0
'[14:17:02.192 20/01/2026]',-111916.4,-162363.9,-91006.06,-102932.3,-375000,-375000,-194020.6,-124567.1,0.02,0.00,0.89,-4,0,-2,38,0
'[14:17:02.196 20/01/2026]',-111472.1,-161855.8,-90526.22,-102664.9,-375000,-375000,-195828,-124067.1,0.02,0.00,0.89,-4,0,-2,38,0
'[14:17:02.200 20/01/2026]',-111397.1,-161822.8,-90496.27,-102386.1,-375000,-375000,-194991.1,-124000.1,0.02,0.00,0.89,-4,0,-2,38,0
'[14:17:02.204 20/01/2026]',-111788.7,-162276,-90928.55,-102537.9,-375000,-375000,-193065,-124437.7,0.02,0.00,0.89,-4,0,-2,38,0
'[14:17:02.208 20/01/2026]',-111973.8,-162409.3,-91063.51,-102901.7,-375000,-375000,-193586.5,-124623,0.02,0.00,0.89,-4,0,-2,38,0
'[14:17:02.212 20/01/2026]',-111526.9,-161903.7,-90585.36,-102710.9,-375000,-375000,-195648.6,-124129.7,0.02,0.00,0.89,-4,0,-2,38,0
'[14:17:02.216 20/01/2026]',-111359.2,-161776.1,-90459.25,-102388.2,-375000,-375000,-195196.1,-123961.4,0.02,0.00,0.89,-4,0,-2,38,0
'[14:17:02.220 20/01/2026]',-111695,-162174.5,-90841.15,-102470.3,-375000,-375000,-193279.7,-124341.6,0.02,0.00,0.89,-4,0,-2,38,0
'[14:17:02.224 20/01/2026]',-111986.4,-162448,-91098.78,-102862.3,-375000,-375000,-193250.8,-124648.7,0.02,0.00,0.89,-4,0,-2,38,0
'[14:17:02.228 20/01/2026]',-111605.3,-161976,-90654.74,-102778,-375000,-375000,-195499.6,-124200.9,0.02,0.00,0.89,-4,0,-2,38,0
'[14:17:02.232 20/01/2026]',-111352,-161746.2,-90428.98,-102410.6,-375000,-375000,-195470.2,-123935.4,0.03,-0.02,0.89,-4,0,-2,38,0
'[14:17:02.236 20/01/2026]',-111616.9,-162092.7,-90752.73,-102423.3,-375000,-375000,-193604.3,-124252.5,0.03,-0.02,0.89,-4,0,-2,38,0
'[14:17:02.240 20/01/2026]',-111976.9,-162464.4,-91104.95,-102800,-375000,-375000,-192990,-124653.6,0.03,-0.02,0.89,-4,0,-2,38,0
'[14:17:02.244 20/01/2026]',-111687.8,-162075.9,-90740.34,-102827.3,-375000,-375000,-195171.3,-124299.8,0.03,-0.02,0.89,-4,0,-2,38,0
'[14:17:02.248 20/01/2026]',-111349.1,-161746.3,-90427.38,-102451.9,-375000,-375000,-195641.1,-123948.4,0.03,-0.02,0.89,-4,0,-2,38,0
'[14:17:02.252 20/01/2026]',-111550.3,-162015.2,-90670.25,-102390.9,-375000,-375000,-193954.1,-124187.5,0.03,-0.02,0.89,-4,0,-2,38,0
'[14:17:02.256 20/01/2026]',-111963,-162447,-91083.18,-102739.3,-375000,-375000,-192857.5,-124637,0.03,-0.02,0.89,-4,0,-2,38,0
'[14:17:02.260 20/01/2026]',-111762.6,-162161,-90818.89,-102872.5,-375000,-375000,-194831.4,-124386.1,0.03,-0.02,0.89,-4,0,-2,38,0
'[14:17:02.264 20/01/2026]',-111366.9,-161749.2,-90440.88,-102512.2,-375000,-375000,-195777.8,-123964.4,0.03,-0.02,0.89,-4,0,-2,38,0
'[14:17:02.268 20/01/2026]',-111480.3,-161926.8,-90608.38,-102373.3,-375000,-375000,-194292,-124111.7,0.03,-0.02,0.89,-4,0,-2,38,0
'[14:17:02.272 20/01/2026]',-111909.2,-162400.3,-91055.69,-102665.5,-375000,-375000,-192813.5,-124583.2,0.03,-0.02,0.89,-4,0,-2,38,0
'[14:17:02.276 20/01/2026]',-111835.4,-162245.2,-90908.43,-102903.9,-375000,-375000,-194463.5,-124471.7,0.03,-0.02,0.89,-4,0,-2,38,0
'[14:17:02.280 20/01/2026]',-111398.9,-161771.6,-90458.49,-102563.5,-375000,-375000,-195836,-123988.9,0.03,-0.02,0.89,-4,0,-2,38,0
'[14:17:02.284 20/01/2026]',-111432.3,-161861,-90542.31,-102360,-375000,-375000,-194631.3,-124036.7,0.03,-0.02,0.89,-4,0,-2,38,0
'[14:17:02.288 20/01/2026]',-111857.9,-162345.6,-90997.13,-102598.9,-375000,-375000,-192875.5,-124527.2,0.03,-0.02,0.89,-4,0,-2,38,0
'[14:17:02.292 20/01/2026]',-111911,-162340.2,-90990.91,-102915.2,-375000,-375000,-194034.5,-124569.9,0.03,-0.02,0.89,-4,0,-2,38,0
'[14:17:02.296 20/01/2026]',-111459.3,-161831.1,-90515.04,-102639.8,-375000,-375000,-195809.6,-124041.9,0.03,-0.02,0.89,-4,0,-2,38,0
'[14:17:02.300 20/01/2026]',-111383.5,-161802.3,-90491.62,-102369.8,-375000,-375000,-194957,-123984.7,0.03,-0.02,0.89,-4,0,-2,38,0
'[14:17:02.304 20/01/2026]',-111771,-162258.7,-90928.19,-102528.1,-375000,-375000,-193048.3,-124430.3,0.03,0.00,0.88,-4,0,-2,38,0
'[14:17:02.308 20/01/2026]',-111958.6,-162400.9,-91051.35,-102890.7,-375000,-375000,-193616.4,-124612.6,0.03,0.00,0.88,-4,0,-2,38,0
'[14:17:02.312 20/01/2026]',-111520.5,-161892.7,-90566.23,-102696.9,-375000,-375000,-195666.5,-124115.9,0.03,0.00,0.88,-4,0,-2,38,0
'[14:17:02.316 20/01/2026]',-111360,-161769.3,-90445.88,-102379.3,-375000,-375000,-195214,-123955.8,0.03,0.00,0.88,-4,0,-2,38,0
'[14:17:02.320 20/01/2026]',-111706.9,-162180.3,-90836.01,-102462.6,-375000,-375000,-193258,-124342.3,0.03,0.00,0.88,-4,0,-2,38,0
'[14:17:02.324 20/01/2026]',-111977.7,-162437.4,-91074.02,-102853.2,-375000,-375000,-193279.1,-124638.5,0.03,0.00,0.88,-4,0,-2,38,0
'[14:17:02.328 20/01/2026]',-111593.9,-161972.8,-90639.72,-102772.7,-375000,-375000,-195536.7,-124199.9,0.03,0.00,0.88,-4,0,-2,38,0
'[14:17:02.332 20/01/2026]',-111340.3,-161743.4,-90420.23,-102410.1,-375000,-375000,-195483,-123936.8,0.03,0.00,0.88,-4,0,-2,38,0
'[14:17:02.336 20/01/2026]',-111619.6,-162091.8,-90743.48,-102421.1,-375000,-375000,-193583.6,-124254.3,0.03,0.00,0.88,-4,0,-2,38,0
'[14:17:02.340 20/01/2026]',-111983.8,-162457.3,-91094.27,-102800,-375000,-375000,-192969.5,-124647,0.03,-0.02,0.88,-4,0,-2,38,0
'[14:17:02.344 20/01/2026]',-111667.6,-162054.3,-90723.31,-102813.6,-375000,-375000,-195157.9,-124281.7,0.03,-0.02,0.88,-4,0,-2,38,0
'[14:17:02.348 20/01/2026]',-111340.1,-161737,-90422.82,-102447.1,-375000,-375000,-195604,-123938.8,0.03,-0.02,0.88,-4,0,-2,38,0
'[14:17:02.352 20/01/2026]',-111545.5,-162003.4,-90675.75,-102397.2,-375000,-375000,-193929.1,-124176.5,0.03,-0.02,0.88,-4,0,-2,38,0
'[14:17:02.356 20/01/2026]',-111952,-162439.8,-91088.41,-102732.9,-375000,-375000,-192842,-124618.6,0.03,-0.02,0.88,-4,0,-2,38,0
'[14:17:02.360 20/01/2026]',-111760.1,-162157,-90822.11,-102865.9,-375000,-375000,-194839.6,-124374.1,0.03,-0.02,0.88,-4,0,-2,38,0
'[14:17:02.364 20/01/2026]',-111364.3,-161747.9,-90440.34,-102504.1,-375000,-375000,-195745.5,-123955.9,0.03,-0.02,0.88,-4,0,-2,38,0
'[14:17:02.368 20/01/2026]',-111472.4,-161925.6,-90602.52,-102373.4,-375000,-375000,-194282.2,-124110.9,0.03,-0.02,0.88,-4,0,-2,38,0
'[14:17:02.372 20/01/2026]',-111898.8,-162396.5,-91051.93,-102664.4,-375000,-375000,-192779,-124587.5,0.03,-0.02,0.88,-4,0,-2,38,0
'[14:17:02.376 20/01/2026]',-111837.6,-162241.4,-90909.91,-102907.7,-375000,-375000,-194462.4,-124472.8,0.03,0.00,0.89,-4,0,-2,38,0
'[14:17:02.380 20/01/2026]',-111409.3,-161776.3,-90469.17,-102576.4,-375000,-375000,-195857.4,-123995.9,0.03,0.00,0.89,-4,0,-2,38,0
'[14:17:02.384 20/01/2026]',-111434.3,-161859,-90553.8,-102369.4,-375000,-375000,-194614,-124050.5,0.03,0.00,0.89,-4,0,-2,38,0
'[14:17:02.388 20/01/2026]',-111853.8,-162335.2,-91000.74,-102600.4,-375000,-375000,-192837.8,-124527.4,0.03,0.00,0.89,-4,0,-2,38,0
'[14:17:02.392 20/01/2026]',-111898,-162321,-90984.02,-102906.4,-375000,-375000,-194010.1,-124552.4,0.03,0.00,0.89,-4,0,-2,38,0
'[14:17:02.396 20/01/2026]',-111447.6,-161805.8,-90513.56,-102635.7,-375000,-375000,-195786.1,-124042.7,0.03,0.00,0.89,-4,0,-2,38,0
'[14:17:02.400 20/01/2026]',-111392.7,-161788.7,-90501.18,-102372.9,-375000,-375000,-194907.4,-123994.1,0.03,0.00,0.89,-4,0,-2,38,0
'[14:17:02.404 20/01/2026]',-111790.8,-162261,-90936.55,-102540.8,-375000,-375000,-193019.4,-124443.5,0.03,0.00,0.89,-4,0,-2,38,0
'[14:17:02.408 20/01/2026]',-111958.6,-162391.7,-91050.99,-102894.4,-375000,-375000,-193609.5,-124612.4,0.03,0.00,0.89,-4,0,-2,38,0
'[14:17:02.412 20/01/2026]',-111517.4,-161877,-90571.68,-102708.9,-375000,-375000,-195744,-124116.3,0.03,-0.02,0.89,-4,0,-2,38,0
'[14:17:02.416 20/01/2026]',-111358.7,-161753,-90458.94,-102383.4,-375000,-375000,-195240.1,-123963.4,0.03,-0.02,0.89,-4,0,-2,38,0
'[14:17:02.420 20/01/2026]',-111703.9,-162170,-90856.09,-102473.7,-375000,-375000,-193273,-124355.1,0.03,-0.02,0.89,-4,0,-2,38,0
'[14:17:02.424 20/01/2026]',-111979.1,-162431.9,-91092.97,-102855.7,-375000,-375000,-193266.7,-124638.4,0.03,-0.02,0.89,-4,0,-2,38,0
'[14:17:02.428 20/01/2026]',-111588.4,-161957.9,-90641.77,-102756,-375000,-375000,-195466.9,-124182.5,0.03,-0.02,0.89,-4,0,-2,38,0
'[14:17:02.432 20/01/2026]',-111335.8,-161730.6,-90429.08,-102402.1,-375000,-375000,-195398.2,-123934.2,0.03,-0.02,0.89,-4,0,-2,38,0
'[14:17:02.436 20/01/2026]',-111615.2,-162084.5,-90761.58,-102422,-375000,-375000,-193532.3,-124265.2,0.03,-0.02,0.89,-4,0,-2,38,0
'[14:17:02.440 20/01/2026]',-111975.4,-162448.6,-91102.84,-102810.1,-375000,-375000,-193008.3,-124658.4,0.03,-0.02,0.89,-4,0,-2,38,0
'[14:17:02.444 20/01/2026]',-111661.1,-162045.3,-90724.34,-102825,-375000,-375000,-195217.9,-124291.8,0.03,-0.02,0.89,-4,0,-2,38,0
'[14:17:02.448 20/01/2026]',-111334.1,-161728,-90427.16,-102446.2,-375000,-375000,-195625.9,-123948.3,0.03,0.00,0.89,-4,0,-2,38,0
'[14:17:02.452 20/01/2026]',-111544.3,-162003.9,-90686.57,-102391.8,-375000,-375000,-193915.2,-124198.3,0.03,0.00,0.89,-4,0,-2,38,0
'[14:17:02.456 20/01/2026]',-111956.9,-162437.5,-91104.32,-102747,-375000,-375000,-192863.3,-124644.5,0.03,0.00,0.89,-4,0,-2,38,0
'[14:17:02.460 20/01/2026]',-111747.9,-162136.4,-90820.27,-102866.9,-375000,-375000,-194873.8,-124384.5,0.03,0.00,0.89,-4,0,-2,38,0
'[14:17:02.464 20/01/2026]',-111356.4,-161730.9,-90431.18,-102493,-375000,-375000,-195782.1,-123962.6,0.03,0.00,0.89,-4,0,-2,38,0
'[14:17:02.468 20/01/2026]',-111479.9,-161921.7,-90607.22,-102359.1,-375000,-375000,-194258.2,-124113.8,0.03,0.00,0.89,-4,0,-2,38,0
'[14:17:02.472 20/01/2026]',-111907.1,-162385.6,-91054.21,-102657.2,-375000,-375000,-192765.3,-124584.6,0.03,0.00,0.89,-4,0,-2,38,0
'[14:17:02.476 20/01/2026]',-111831,-162217.8,-90895.91,-102889.1,-375000,-375000,-194472.8,-124462.6,0.03,0.00,0.89,-4,0,-2,38,0
'[14:17:02.480 20/01/2026]',-111403.2,-161753.7,-90457.38,-102551.2,-375000,-375000,-195843.4,-123987.4,0.03,0.00,0.89,-4,0,-2,38,0
'[14:17:02.484 20/01/2026]',-111429.8,-161847.8,-90539.49,-102347.2,-375000,-375000,-194585.4,-124045.2,0.03,-0.02,0.88,-4,0,-2,38,0
'[14:17:02.488 20/01/2026]',-111851.3,-162337,-90991.67,-102601.4,-375000,-375000,-192888,-124528.7,0.03,-0.02,0.88,-4,0,-2,38,0
'[14:17:02.492 20/01/2026]',-111904,-162321,-90972.89,-102903.4,-375000,-375000,-194054.2,-124549,0.03,-0.02,0.88,-4,0,-2,38,0
'[14:17:02.496 20/01/2026]',-111455.4,-161813.6,-90503.55,-102620.1,-375000,-375000,-195799,-124042.8,0.03,-0.02,0.88,-4,0,-2,38,0
'[14:17:02.500 20/01/2026]',-111387.7,-161794.1,-90488.98,-102353.7,-375000,-375000,-194889.7,-123993.9,0.03,-0.02,0.88,-4,0,-2,38,0
'[14:17:02.504 20/01/2026]',-111771.7,-162247.5,-90925.06,-102522.8,-375000,-375000,-192986.1,-124432,0.03,-0.02,0.88,-4,0,-2,38,0
'[14:17:02.508 20/01/2026]',-111942.5,-162374.2,-91025.29,-102876.8,-375000,-375000,-193606.3,-124591.7,0.03,-0.02,0.88,-4,0,-2,38,0
'[14:17:02.512 20/01/2026]',-111504.4,-161870.8,-90539.59,-102679.1,-375000,-375000,-195677.5,-124092.9,0.03,-0.02,0.88,-4,0,-2,38,0
'[14:17:02.516 20/01/2026]',-111354.2,-161755.9,-90448.3,-102368.4,-375000,-375000,-195175.1,-123949.3,0.03,-0.02,0.88,-4,0,-2,38,0
'[14:17:02.520 20/01/2026]',-111703.8,-162168.5,-90850.41,-102473.5,-375000,-375000,-193290.7,-124348.7,0.03,0.00,0.88,-4,0,-2,38,0
'[14:17:02.524 20/01/2026]',-111978,-162416.4,-91077.37,-102851.6,-375000,-375000,-193293.9,-124630.7,0.03,0.00,0.88,-4,0,-2,38,0
'[14:17:02.528 20/01/2026]',-111579.8,-161938.1,-90613.61,-102749.9,-375000,-375000,-195505,-124173.4,0.03,0.00,0.88,-4,0,-2,38,0
'[14:17:02.532 20/01/2026]',-111342.6,-161727,-90405.43,-102403.3,-375000,-375000,-195435.6,-123935.7,0.03,0.00,0.88,-4,0,-2,38,0
'[14:17:02.536 20/01/2026]',-111627.4,-162080.9,-90732.57,-102419.9,-375000,-375000,-193549.2,-124264.4,0.03,0.00,0.88,-4,0,-2,38,0
'[14:17:02.540 20/01/2026]',-111978.9,-162443.1,-91082.28,-102804,-375000,-375000,-192991.5,-124654,0.03,0.00,0.88,-4,0,-2,38,0
'[14:17:02.544 20/01/2026]',-111668.6,-162053.4,-90715.31,-102827,-375000,-375000,-195209.8,-124288.6,0.03,0.00,0.88,-4,0,-2,38,0
'[14:17:02.548 20/01/2026]',-111350.3,-161738.7,-90418.03,-102451.9,-375000,-375000,-195613.8,-123943.7,0.03,0.00,0.88,-4,0,-2,38,0
'[14:17:02.552 20/01/2026]',-111565.6,-162009.5,-90671.14,-102394.3,-375000,-375000,-193873.9,-124183.2,0.03,0.00,0.88,-4,0,-2,38,0
'[14:17:02.556 20/01/2026]',-111966,-162436.9,-91063.46,-102734,-375000,-375000,-192785.8,-124618.5,0.03,0.00,0.88,-4,0,-2,38,0
'[14:17:02.560 20/01/2026]',-111744.6,-162129.6,-90784.6,-102860,-375000,-375000,-194860.1,-124354.7,0.03,0.00,0.88,-4,0,-2,38,0
'[14:17:02.564 20/01/2026]',-111351.1,-161715.9,-90414.19,-102486.6,-375000,-375000,-195772.2,-123935.1,0.03,0.00,0.88,-4,0,-2,38,0
'[14:17:02.568 20/01/2026]',-111490.8,-161901.6,-90580.89,-102350.7,-375000,-375000,-194230.2,-124090.4,0.03,0.00,0.88,-4,0,-2,38,0
'[14:17:02.572 20/01/2026]',-111901.8,-162366.6,-91007,-102637.9,-375000,-375000,-192735.3,-124564.1,0.03,0.00,0.88,-4,0,-2,38,0
'[14:17:02.576 20/01/2026]',-111806.4,-162196.8,-90831.18,-102857.1,-375000,-375000,-194403.2,-124429.1,0.03,0.00,0.88,-4,0,-2,38,0
'[14:17:02.580 20/01/2026]',-111381.5,-161736.8,-90390.59,-102527.9,-375000,-375000,-195780.8,-123954.4,0.03,0.00,0.88,-4,0,-2,38,0
'[14:17:02.584 20/01/2026]',-111416.3,-161828,-90481.69,-102331.7,-375000,-375000,-194541.7,-124014.9,0.03,0.00,0.88,-4,0,-2,38,0
'[14:17:02.588 20/01/2026]',-111835.9,-162317.4,-90949.2,-102583.2,-375000,-375000,-192840.8,-124502,0.03,0.00,0.88,-4,0,-2,38,0
'[14:17:02.592 20/01/2026]',-111888.6,-162306.3,-90936.91,-102892.4,-375000,-375000,-194064.4,-124529.9,0.03,0.00,0.89,-4,0,-2,38,0
'[14:17:02.596 20/01/2026]',-111447.6,-161818.5,-90471.99,-102617.4,-375000,-375000,-195809.8,-124039.5,0.03,0.00,0.89,-4,0,-2,38,0
'[14:17:02.600 20/01/2026]',-111399.2,-161816.3,-90470.38,-102364.3,-375000,-375000,-194912,-124007.1,0.03,0.00,0.89,-4,0,-2,38,0
'[14:17:02.604 20/01/2026]',-111797.7,-162273.3,-90904.27,-102530.2,-375000,-375000,-192995.7,-124452.7,0.03,0.00,0.89,-4,0,-2,38,0
'[14:17:02.608 20/01/2026]',-111950.5,-162386.6,-91001.01,-102882.6,-375000,-375000,-193621,-124607.5,0.03,0.00,0.89,-4,0,-2,38,0
'[14:17:02.612 20/01/2026]',-111503,-161869.2,-90511.42,-102679.7,-375000,-375000,-195678.2,-124102.4,0.03,0.00,0.89,-4,0,-2,38,0
'[14:17:02.616 20/01/2026]',-111349.3,-161756.9,-90404.48,-102365.9,-375000,-375000,-195180.6,-123953.5,0.03,0.00,0.89,-4,0,-2,38,0
'[14:17:02.620 20/01/2026]',-111699,-162182.3,-90812.32,-102462.9,-375000,-375000,-193231.3,-124354.2,0.03,0.00,0.89,-4,0,-2,38,0
'[14:17:02.624 20/01/2026]',-111974.8,-162432.4,-91038.92,-102844.4,-375000,-375000,-193264.2,-124635.9,0.03,0.00,0.89,-4,0,-2,38,0
'[14:17:02.628 20/01/2026]',-111595.1,-161967.2,-90592.24,-102757.4,-375000,-375000,-195496.3,-124190.5,0.03,0.00,0.89,-4,0,-2,38,0
'[14:17:02.632 20/01/2026]',-111361.5,-161762.4,-90405.02,-102417.3,-375000,-375000,-195417.7,-123961.3,0.03,0.00,0.89,-4,0,-2,38,0
'[14:17:02.636 20/01/2026]',-111640.3,-162117,-90741.24,-102443.5,-375000,-375000,-193540.9,-124297.7,0.03,0.00,0.89,-4,0,-2,38,0
'[14:17:02.640 20/01/2026]',-111967.4,-162451.7,-91063.87,-102823.9,-375000,-375000,-193031.2,-124680,0.03,0.00,0.89,-4,0,-2,38,0
'[14:17:02.644 20/01/2026]',-111650.5,-162017.1,-90679.51,-102824.1,-375000,-375000,-195242.2,-124288.3,0.03,0.00,0.89,-4,0,-2,38,0
'[14:17:02.648 20/01/2026]',-111365.4,-161722.2,-90400.69,-102451.4,-375000,-375000,-195613.3,-123937.8,0.03,0.00,0.89,-4,0,-2,38,0
'[14:17:02.652 20/01/2026]',-111605.2,-162029,-90677.72,-102403.7,-375000,-375000,-193867,-124185.6,0.03,0.00,0.89,-4,0,-2,38,0
'[14:17:02.656 20/01/2026]',-112011.4,-162442.1,-91070.3,-102754.5,-375000,-375000,-192835.4,-124633.9,0.03,0.00,0.89,-4,0,-2,38,0
'[14:17:02.660 20/01/2026]',-111814.1,-162127,-90788.58,-102875.8,-375000,-375000,-194906,-124370.8,0.03,0.00,0.89,-4,0,-2,38,0
'[14:17:02.664 20/01/2026]',-111452.4,-161745.9,-90421.74,-102503.6,-375000,-375000,-195762.4,-123943.5,0.05,-0.02,0.89,-4,0,-2,38,0
'[14:17:02.668 20/01/2026]',-111605.7,-161946,-90609.14,-102381.8,-375000,-375000,-194228.8,-124098.9,0.05,-0.02,0.89,-4,0,-2,38,0
'[14:17:02.672 20/01/2026]',-112071.7,-162425.8,-91062.84,-102683.7,-375000,-375000,-192761.8,-124569.5,0.05,-0.02,0.89,-4,0,-2,38,0
'[14:17:02.676 20/01/2026]',-112017.1,-162274.9,-90907.72,-102902.1,-375000,-375000,-194427.5,-124428.2,0.05,-0.02,0.89,-4,0,-2,38,0
'[14:17:02.680 20/01/2026]',-111608.7,-161817.5,-90475.79,-102570.9,-375000,-375000,-195808,-123951.4,0.05,-0.02,0.89,-4,0,-2,38,0
'[14:17:02.684 20/01/2026]',-111660.2,-161910.5,-90570.83,-102372.7,-375000,-375000,-194552.6,-124015.1,0.05,-0.02,0.89,-4,0,-2,38,0
'[14:17:02.688 20/01/2026]',-112119.6,-162413.5,-91035.03,-102620.6,-375000,-375000,-192803.3,-124495.9,0.05,-0.02,0.89,-4,0,-2,38,0
'[14:17:02.692 20/01/2026]',-112222,-162431.9,-91007.54,-102935.5,-375000,-375000,-194040.6,-124507.1,0.05,-0.02,0.89,-4,0,-2,38,0
'[14:17:02.696 20/01/2026]',-111795.6,-161939.3,-90532.02,-102653.2,-375000,-375000,-195776,-124001.4,0.05,-0.02,0.89,-4,0,-2,38,0
'[14:17:02.700 20/01/2026]',-111770.1,-161945.5,-90554.38,-102397.5,-375000,-375000,-194845.6,-123963.4,0.02,0.00,0.89,-4,0,-2,38,0
'[14:17:02.704 20/01/2026]',-112203,-162404.1,-91007.67,-102579.3,-375000,-375000,-192976.5,-124416.6,0.02,0.00,0.89,-4,0,-2,38,0
'[14:17:02.708 20/01/2026]',-112396.4,-162523.8,-91126.54,-102936.7,-375000,-375000,-193645.7,-124567.2,0.02,0.00,0.89,-4,0,-2,38,0
'[14:17:02.712 20/01/2026]',-111944.9,-161991.2,-90634.71,-102722.9,-375000,-375000,-195688.1,-124059.1,0.02,0.00,0.89,-4,0,-2,38,0
'[14:17:02.716 20/01/2026]',-111796.4,-161869.5,-90520.94,-102394.8,-375000,-375000,-195140.7,-123907.5,0.02,0.00,0.89,-4,0,-2,38,0
'[14:17:02.720 20/01/2026]',-112138.7,-162263.4,-90917.82,-102492.8,-375000,-375000,-193200.3,-124307.3,0.02,0.00,0.89,-4,0,-2,38,0
'[14:17:02.724 20/01/2026]',-112381,-162477.2,-91141.73,-102872,-375000,-375000,-193294,-124584.6,0.02,0.00,0.89,-4,0,-2,38,0
'[14:17:02.728 20/01/2026]',-111976,-161970.4,-90687.38,-102757.2,-375000,-375000,-195492.1,-124122.5,0.02,0.00,0.89,-4,0,-2,38,0
'[14:17:02.732 20/01/2026]',-111714.6,-161725.7,-90490.5,-102403.8,-375000,-375000,-195389.7,-123891.6,0.02,0.00,0.89,-4,0,-2,38,0
'[14:17:02.736 20/01/2026]',-111977.4,-162058,-90816.25,-102413.8,-375000,-375000,-193470.3,-124217.7,0.03,-0.02,0.88,-4,0,-2,38,0
'[14:17:02.740 20/01/2026]',-112291.7,-162363.1,-91113.48,-102776.7,-375000,-375000,-192933.6,-124584.9,0.03,-0.02,0.88,-4,0,-2,38,0
'[14:17:02.744 20/01/2026]',-111955.1,-161927.8,-90708.96,-102768.2,-375000,-375000,-195166.8,-124190.4,0.03,-0.02,0.88,-4,0,-2,38,0
'[14:17:02.748 20/01/2026]',-111610.1,-161606.5,-90422.15,-102387.6,-375000,-375000,-195508.3,-123851.5,0.03,-0.02,0.88,-4,0,-2,38,0
'[14:17:02.752 20/01/2026]',-111797.5,-161848.1,-90711.24,-102346.2,-375000,-375000,-193808.9,-124110.6,0.03,-0.02,0.88,-4,0,-2,38,0
'[14:17:02.756 20/01/2026]',-112190.9,-162247.1,-91105.98,-102687.4,-375000,-375000,-192762.4,-124559.3,0.03,-0.02,0.88,-4,0,-2,38,0
'[14:17:02.760 20/01/2026]',-111920.3,-161880.1,-90778.12,-102786.7,-375000,-375000,-194806.5,-124290.3,0.03,-0.02,0.88,-4,0,-2,38,0
'[14:17:02.764 20/01/2026]',-111516.2,-161486.7,-90408.38,-102409.5,-375000,-375000,-195644.9,-123874.6,0.03,-0.02,0.88,-4,0,-2,38,0
'[14:17:02.768 20/01/2026]',-111662.3,-161725.3,-90601.27,-102284.4,-375000,-375000,-194094.8,-124023.4,0.03,-0.02,0.88,-4,0,-2,38,0
'[14:17:02.772 20/01/2026]',-112080.9,-162183.2,-91040.09,-102586.2,-375000,-375000,-192680.1,-124491,0.03,-0.02,0.89,-4,0,-2,38,0
'[14:17:02.776 20/01/2026]',-111971.6,-161981.5,-90850.9,-102794.6,-375000,-375000,-194416.9,-124348.1,0.03,-0.02,0.89,-4,0,-2,38,0
'[14:17:02.780 20/01/2026]',-111532.1,-161503.6,-90407.93,-102449,-375000,-375000,-195726.5,-123878.9,0.03,-0.02,0.89,-4,0,-2,38,0
'[14:17:02.784 20/01/2026]',-111551.6,-161581.5,-90503.38,-102254.8,-375000,-375000,-194497,-123946.8,0.03,-0.02,0.89,-4,0,-2,38,0
'[14:17:02.788 20/01/2026]',-111956.8,-162037,-90958.59,-102485.6,-375000,-375000,-192737.3,-124412.7,0.03,-0.02,0.89,-4,0,-2,38,0
'[14:17:02.792 20/01/2026]',-111975.2,-161981.1,-90919.65,-102777.4,-375000,-375000,-193960,-124411.4,0.03,-0.02,0.89,-4,0,-2,38,0
'[14:17:02.796 20/01/2026]',-111513.1,-161464,-90443.91,-102481.1,-375000,-375000,-195672.3,-123903.7,0.03,-0.02,0.89,-4,0,-2,38,0
'[14:17:02.800 20/01/2026]',-111471.5,-161466.6,-90460.5,-102238.1,-375000,-375000,-194773.6,-123878.5,0.03,-0.02,0.89,-4,0,-2,38,0
'[14:17:02.804 20/01/2026]',-111864.1,-161920.2,-90909.33,-102412.8,-375000,-375000,-192857.8,-124333.9,0.03,-0.02,0.89,-4,0,-2,38,0
'[14:17:02.808 20/01/2026]',-112005,-162005.8,-90995.47,-102765.9,-375000,-375000,-193577.8,-124474.3,0.02,-0.02,0.89,-4,0,-2,38,0
'[14:17:02.812 20/01/2026]',-111550.8,-161475.3,-90500.69,-102540.9,-375000,-375000,-195602,-123963.1,0.02,-0.02,0.89,-4,0,-2,38,0
'[14:17:02.816 20/01/2026]',-111392.1,-161352.1,-90401.18,-102220.5,-375000,-375000,-195042.2,-123821.8,0.02,-0.02,0.89,-4,0,-2,38,0
'[14:17:02.820 20/01/2026]',-111729.7,-161755.2,-90799.35,-102315.7,-375000,-375000,-193090.3,-124221.1,0.02,-0.02,0.89,-4,0,-2,38,0
'[14:17:02.824 20/01/2026]',-111970.9,-161970.1,-91006.11,-102681.9,-375000,-375000,-193163.9,-124480.2,0.02,-0.02,0.89,-4,0,-2,38,0
'[14:17:02.828 20/01/2026]',-111567.7,-161480.3,-90550.09,-102573.3,-375000,-375000,-195387.4,-124015,0.02,-0.02,0.89,-4,0,-2,38,0
'[14:17:02.832 20/01/2026]',-111349.1,-161274.7,-90371.63,-102230.3,-375000,-375000,-195250.7,-123788.1,0.02,-0.02,0.89,-4,0,-2,38,0
'[14:17:02.836 20/01/2026]',-111636.6,-161622.7,-90718.89,-102258.6,-375000,-375000,-193346.4,-124123.3,0.02,-0.02,0.89,-4,0,-2,38,0
'[14:17:02.840 20/01/2026]',-111955.5,-161950.1,-91030.25,-102625.9,-375000,-375000,-192833.7,-124488.7,0.02,-0.02,0.89,-4,0,-2,38,0
'[14:17:02.844 20/01/2026]',-111628.9,-161524.2,-90643.02,-102631.8,-375000,-375000,-195124.1,-124100.9,0.03,-0.02,0.88,-4,0,-2,38,0
'[14:17:02.848 20/01/2026]',-111334.4,-161221,-90370.16,-102264.5,-375000,-375000,-195493.1,-123775.9,0.03,-0.02,0.88,-4,0,-2,38,0
'[14:17:02.852 20/01/2026]',-111539.7,-161484.2,-90638.16,-102207.7,-375000,-375000,-193701.7,-124032.1,0.03,-0.02,0.88,-4,0,-2,38,0
'[14:17:02.856 20/01/2026]',-111923.8,-161900.7,-91031.86,-102555.3,-375000,-375000,-192674.4,-124468.3,0.03,-0.02,0.88,-4,0,-2,38,0
'[14:17:02.860 20/01/2026]',-111694.2,-161583.9,-90725.68,-102662.3,-375000,-375000,-194746.4,-124186.6,0.03,-0.02,0.88,-4,0,-2,38,0
'[14:17:02.864 20/01/2026]',-111303.7,-161173.5,-90356.12,-102284.9,-375000,-375000,-195556.4,-123776.9,0.03,-0.02,0.88,-4,0,-2,38,0
'[14:17:02.868 20/01/2026]',-111437.6,-161355.8,-90542.35,-102154,-375000,-375000,-193979,-123935.5,0.03,-0.02,0.88,-4,0,-2,38,0
'[14:17:02.872 20/01/2026]',-111859.8,-161814.2,-90968.65,-102460.1,-375000,-375000,-192571,-124401.6,0.03,-0.02,0.88,-4,0,-2,38,0
'[14:17:02.876 20/01/2026]',-111753.4,-161634.1,-90793.59,-102680.4,-375000,-375000,-194344.7,-124262.1,0.03,-0.02,0.88,-4,0,-2,38,0
'[14:17:02.880 20/01/2026]',-111341.5,-161191.5,-90388.04,-102360.7,-375000,-375000,-195667.8,-123817,0.03,-0.02,0.88,-4,0,-2,38,0
'[14:17:02.884 20/01/2026]',-111397.6,-161301.9,-90497.16,-102181.5,-375000,-375000,-194416,-123902.9,0.03,-0.02,0.88,-4,0,-2,38,0
'[14:17:02.888 20/01/2026]',-111828.2,-161780.7,-90946.83,-102417.8,-375000,-375000,-192671.2,-124372.3,0.03,-0.02,0.88,-4,0,-2,38,0
'[14:17:02.892 20/01/2026]',-111845.5,-161728.9,-90906.2,-102707.6,-375000,-375000,-193953.6,-124369.4,0.03,-0.02,0.88,-4,0,-2,38,0
'[14:17:02.896 20/01/2026]',-111378.1,-161224.6,-90430.82,-102413.6,-375000,-375000,-195660.1,-123861.2,0.03,-0.02,0.88,-4,0,-2,38,0
'[14:17:02.900 20/01/2026]',-111316.2,-161226.4,-90431,-102164.9,-375000,-375000,-194726.2,-123837.3,0.03,-0.02,0.88,-4,0,-2,38,0
'[14:17:02.904 20/01/2026]',-111706.9,-161684.5,-90860.42,-102341.8,-375000,-375000,-192840.4,-124291.2,0.03,-0.02,0.88,-4,0,-2,38,0
'[14:17:02.908 20/01/2026]',-111858.8,-161783.3,-90950.67,-102693.6,-375000,-375000,-193564.1,-124427.7,0.03,-0.02,0.88,-4,0,-2,38,0
'[14:17:02.912 20/01/2026]',-111416.2,-161270.9,-90479.37,-102467.3,-375000,-375000,-195535.8,-123922.7,0.03,-0.02,0.88,-4,0,-2,38,0
'[14:17:02.916 20/01/2026]',-111272.4,-161164.2,-90380.57,-102168.5,-375000,-375000,-194997.6,-123793.6,0.03,-0.02,0.89,-4,0,-2,38,0
'[14:17:02.920 20/01/2026]',-111622.7,-161580.8,-90784.65,-102281.8,-375000,-375000,-193101.3,-124203.5,0.03,-0.02,0.89,-4,0,-2,38,0
'[14:17:02.924 20/01/2026]',-111865.9,-161808,-90999.98,-102652.2,-375000,-375000,-193205,-124466.6,0.03,-0.02,0.89,-4,0,-2,38,0
'[14:17:02.928 20/01/2026]',-111464.4,-161325.8,-90535.7,-102528.3,-375000,-375000,-195384.6,-124001.8,0.03,-0.02,0.89,-4,0,-2,38,0
'[14:17:02.932 20/01/2026]',-111247.6,-161122.7,-90338.06,-102179.5,-375000,-375000,-195231.9,-123773.8,0.03,-0.02,0.89,-4,0,-2,38,0
'[14:17:02.936 20/01/2026]',-111536.4,-161482.5,-90690.05,-102217,-375000,-375000,-193353.4,-124118.9,0.03,-0.02,0.89,-4,0,-2,38,0
'[14:17:02.940 20/01/2026]',-111869.1,-161825.6,-91027.56,-102595.9,-375000,-375000,-192879.2,-124488.7,0.03,-0.02,0.89,-4,0,-2,38,0
'[14:17:02.944 20/01/2026]',-111533.1,-161398.6,-90627.34,-102586.2,-375000,-375000,-195107.8,-124093.8,0.03,-0.02,0.89,-4,0,-2,38,0
'[14:17:02.948 20/01/2026]',-111216.5,-161081.7,-90329.38,-102200.7,-375000,-375000,-195437.6,-123751.1,0.03,-0.02,0.89,-4,0,-2,38,0
'[14:17:02.952 20/01/2026]',-111444.6,-161371.7,-90605.7,-102150.9,-375000,-375000,-193644.6,-124013.7,0.03,0.00,0.89,-4,0,-2,38,0
'[14:17:02.956 20/01/2026]',-111850.4,-161794,-91000.38,-102520.4,-375000,-375000,-192674.1,-124463,0.03,0.00,0.89,-4,0,-2,38,0
'[14:17:02.960 20/01/2026]',-111615.8,-161474,-90696.23,-102636,-375000,-375000,-194810.3,-124185.4,0.03,0.00,0.89,-4,0,-2,38,0
'[14:17:02.964 20/01/2026]',-111228.6,-161091.8,-90335.65,-102254.1,-375000,-375000,-195582.5,-123774.4,0.03,0.00,0.89,-4,0,-2,38,0
'[14:17:02.968 20/01/2026]',-111372.9,-161290.7,-90533.28,-102134.3,-375000,-375000,-194005.9,-123942.8,0.03,0.00,0.89,-4,0,-2,38,0
'[14:17:02.972 20/01/2026]',-111798.1,-161741.2,-90973.25,-102442.9,-375000,-375000,-192582.6,-124413.1,0.03,0.00,0.89,-4,0,-2,38,0
'[14:17:02.976 20/01/2026]',-111681.1,-161549,-90781.52,-102654.3,-375000,-375000,-194323.8,-124260.1,0.03,0.00,0.89,-4,0,-2,38,0
'[14:17:02.980 20/01/2026]',-111253.2,-161102.6,-90345.62,-102302.9,-375000,-375000,-195588.4,-123788.8,0.03,0.00,0.89,-4,0,-2,38,0
'[14:17:02.984 20/01/2026]',-111309.8,-161215.8,-90455.63,-102125.4,-375000,-375000,-194345.9,-123879,0.03,0.00,0.89,-4,0,-2,38,0
'[14:17:02.988 20/01/2026]',-111750.2,-161680.1,-90908.74,-102378.5,-375000,-375000,-192698,-124355.6,0.03,-0.02,0.88,-4,0,-2,38,0
'[14:17:02.992 20/01/2026]',-111756.2,-161636.5,-90856.71,-102659.7,-375000,-375000,-193954,-124350.5,0.03,-0.02,0.88,-4,0,-2,38,0
'[14:17:02.996 20/01/2026]',-111296.1,-161140.4,-90385.18,-102370.6,-375000,-375000,-195628,-123851.2,0.03,-0.02,0.88,-4,0,-2,38,0
'[14:17:03.000 20/01/2026]',-111247.6,-161150.5,-90395.32,-102127.3,-375000,-375000,-194696.1,-123832.4,0.03,-0.02,0.88,-4,0,-2,38,0
'[14:17:03.004 20/01/2026]',-111659.1,-161608.2,-90839.9,-102306.8,-375000,-375000,-192789.6,-124288.2,0.03,-0.02,0.88,-4,0,-2,38,0
'[14:17:03.008 20/01/2026]',-111823.9,-161699.8,-90927.3,-102660.2,-375000,-375000,-193517.7,-124420,0.03,-0.02,0.88,-4,0,-2,38,0
'[14:17:03.012 20/01/2026]',-111349,-161176.5,-90435.91,-102428.6,-375000,-375000,-195519.7,-123908.2,0.03,-0.02,0.88,-4,0,-2,38,0
'[14:17:03.016 20/01/2026]',-111207.6,-161085.5,-90339.09,-102120.9,-375000,-375000,-194940.5,-123774.3,0.03,-0.02,0.88,-4,0,-2,38,0
'[14:17:03.020 20/01/2026]',-111563.1,-161512.8,-90747.95,-102226,-375000,-375000,-192963.8,-124178.9,0.03,-0.02,0.88,-4,0,-2,38,0
'[14:17:03.024 20/01/2026]',-111820.9,-161747.6,-90967.3,-102630.6,-375000,-375000,-193174.7,-124455.4,0.05,0.00,0.88,-4,0,-2,38,0
'[14:17:03.028 20/01/2026]',-111422.4,-161269.6,-90511.95,-102515.9,-375000,-375000,-195419.2,-123998.9,0.05,0.00,0.88,-4,0,-2,38,0
'[14:17:03.032 20/01/2026]',-111204.4,-161064.7,-90324.78,-102166.2,-375000,-375000,-195238.4,-123768.5,0.05,0.00,0.88,-4,0,-2,38,0
'[14:17:03.036 20/01/2026]',-111518.3,-161447.8,-90685.77,-102210.5,-375000,-375000,-193319.3,-124118.2,0.05,0.00,0.88,-4,0,-2,38,0
'[14:17:03.040 20/01/2026]',-111858.4,-161787.7,-90997.7,-102586.6,-375000,-375000,-192868,-124478.6,0.05,0.00,0.88,-4,0,-2,38,0
'[14:17:03.044 20/01/2026]',-111512.9,-161355.8,-90592.96,-102569.3,-375000,-375000,-195112.2,-124080.7,0.05,0.00,0.88,-4,0,-2,38,0
'[14:17:03.048 20/01/2026]',-111201.8,-161052.4,-90314.32,-102196.1,-375000,-375000,-195419.1,-123755.3,0.05,0.00,0.88,-4,0,-2,38,0
'[14:17:03.052 20/01/2026]',-111429.8,-161347.5,-90596.63,-102160.1,-375000,-375000,-193655.5,-124012.7,0.05,0.00,0.88,-4,0,-2,38,0
'[14:17:03.056 20/01/2026]',-111828.6,-161770.1,-90994.66,-102519.4,-375000,-375000,-192693,-124452.2,0.05,0.00,0.88,-4,0,-2,38,0
'[14:17:03.060 20/01/2026]',-111602.5,-161448.8,-90691.26,-102629.2,-375000,-375000,-194776,-124182.3,0.03,-0.02,0.89,-4,0,-2,38,0
'[14:17:03.064 20/01/2026]',-111236,-161059.6,-90320.31,-102254.6,-375000,-375000,-195560,-123773.9,0.03,-0.02,0.89,-4,0,-2,38,0
'[14:17:03.068 20/01/2026]',-111376.1,-161275.4,-90515.58,-102145.7,-375000,-375000,-194022.4,-123952.4,0.03,-0.02,0.89,-4,0,-2,38,0
'[14:17:03.072 20/01/2026]',-111789.6,-161737.8,-90955.01,-102450.3,-375000,-375000,-192620.2,-124422.8,0.03,-0.02,0.89,-4,0,-2,38,0
'[14:17:03.076 20/01/2026]',-111668.1,-161532.3,-90757.29,-102647,-375000,-375000,-194397.7,-124258.9,0.03,-0.02,0.89,-4,0,-2,38,0
'[14:17:03.080 20/01/2026]',-111236.8,-161084.1,-90338.41,-102305.1,-375000,-375000,-195646,-123793.6,0.03,-0.02,0.89,-4,0,-2,38,0
'[14:17:03.084 20/01/2026]',-111283.2,-161189.4,-90451.65,-102117.3,-375000,-375000,-194318.9,-123865.5,0.03,-0.02,0.89,-4,0,-2,38,0
'[14:17:03.088 20/01/2026]',-111713.4,-161658.6,-90907.85,-102367.5,-375000,-375000,-192613.4,-124338.3,0.03,-0.02,0.89,-4,0,-2,38,0
'[14:17:03.092 20/01/2026]',-111727.8,-161606.8,-90846.25,-102655.9,-375000,-375000,-193931,-124329.4,0.03,-0.02,0.89,-4,0,-2,38,0
'[14:17:03.096 20/01/2026]',-111261.4,-161102.3,-90357.64,-102350.6,-375000,-375000,-195578.6,-123820,0.03,-0.02,0.89,-4,0,-2,38,0
'[14:17:03.100 20/01/2026]',-111236.2,-161130.7,-90384.73,-102130.2,-375000,-375000,-194680.7,-123815.9,0.03,-0.02,0.89,-4,0,-2,38,0
'[14:17:03.104 20/01/2026]',-111649.3,-161604.1,-90840.21,-102314.8,-375000,-375000,-192826,-124274.4,0.03,-0.02,0.89,-4,0,-2,38,0
'[14:17:03.108 20/01/2026]',-111782.7,-161687.5,-90922.73,-102654.6,-375000,-375000,-193555.3,-124400.5,0.03,-0.02,0.89,-4,0,-2,38,0
'[14:17:03.112 20/01/2026]',-111339.6,-161181.6,-90441.91,-102439.4,-375000,-375000,-195529.6,-123905.7,0.03,-0.02,0.89,-4,0,-2,38,0
'[14:17:03.116 20/01/2026]',-111222.1,-161096.7,-90349.05,-102150.3,-375000,-375000,-194937.2,-123786.9,0.03,-0.02,0.89,-4,0,-2,38,0
'[14:17:03.120 20/01/2026]',-111582.4,-161516.7,-90741.77,-102259.5,-375000,-375000,-193019.3,-124189.2,0.03,-0.02,0.89,-4,0,-2,38,0
'[14:17:03.124 20/01/2026]',-111830.8,-161745.4,-90955.81,-102631,-375000,-375000,-193176.7,-124449.8,0.03,-0.02,0.89,-4,0,-2,38,0
'[14:17:03.128 20/01/2026]',-111402.9,-161258.5,-90492.69,-102500.7,-375000,-375000,-195367.5,-123975.2,0.03,-0.02,0.89,-4,0,-2,38,0
'[14:17:03.132 20/01/2026]',-111177.2,-161064,-90319.87,-102163.1,-375000,-375000,-195229.3,-123755.7,0.03,-0.02,0.88,-4,0,-2,38,0
'[14:17:03.136 20/01/2026]',-111480.2,-161434.7,-90671.55,-102204.4,-375000,-375000,-193314.9,-124104.1,0.03,-0.02,0.88,-4,0,-2,38,0
'[14:17:03.140 20/01/2026]',-111827.5,-161763.9,-90973.34,-102582.9,-375000,-375000,-192899,-124464.9,0.03,-0.02,0.88,-4,0,-2,38,0
'[14:17:03.144 20/01/2026]',-111485.6,-161335.1,-90558.98,-102561.9,-375000,-375000,-195131,-124069.4,0.03,-0.02,0.88,-4,0,-2,38,0
'[14:17:03.148 20/01/2026]',-111165.6,-161036.1,-90276.05,-102193.2,-375000,-375000,-195428.5,-123749.7,0.03,-0.02,0.88,-4,0,-2,38,0
'[14:17:03.152 20/01/2026]',-111396,-161334.4,-90572.88,-102153.5,-375000,-375000,-193651.8,-124020.5,0.03,-0.02,0.88,-4,0,-2,38,0
'[14:17:03.156 20/01/2026]',-111798.5,-161757,-90977.95,-102517.4,-375000,-375000,-192713.3,-124455.4,0.03,-0.02,0.88,-4,0,-2,38,0
'[14:17:03.160 20/01/2026]',-111562.6,-161428.8,-90655.5,-102604.7,-375000,-375000,-194788.3,-124161.8,0.03,-0.02,0.88,-4,0,-2,38,0
'[14:17:03.164 20/01/2026]',-111182,-161042.8,-90283.03,-102225.7,-375000,-375000,-195516.7,-123754.5,0.03,-0.02,0.88,-4,0,-2,38,0
'[14:17:03.168 20/01/2026]',-111339.7,-161259.3,-90487.95,-102133.9,-375000,-375000,-194003,-123940.2,0.03,-0.02,0.88,-4,0,-2,38,0
'[14:17:03.172 20/01/2026]',-111756.9,-161726.4,-90926,-102444,-375000,-375000,-192626.8,-124405.6,0.03,-0.02,0.88,-4,0,-2,38,0
'[14:17:03.176 20/01/2026]',-111641.1,-161524.7,-90736.28,-102639.9,-375000,-375000,-194391.5,-124241.1,0.03,-0.02,0.88,-4,0,-2,38,0
'[14:17:03.180 20/01/2026]',-111223.5,-161075.7,-90318.34,-102289.1,-375000,-375000,-195588.1,-123782.3,0.03,-0.02,0.88,-4,0,-2,38,0
'[14:17:03.184 20/01/2026]',-111291.3,-161189.5,-90431.71,-102134.5,-375000,-375000,-194321.8,-123877.7,0.03,-0.02,0.88,-4,0,-2,38,0
'[14:17:03.188 20/01/2026]',-111715.7,-161671.2,-90894.66,-102387.8,-375000,-375000,-192646.5,-124358.8,0.03,-0.02,0.88,-4,0,-2,38,0
'[14:17:03.192 20/01/2026]',-111717.8,-161612.9,-90825.33,-102669.5,-375000,-375000,-193981.8,-124325.7,0.03,-0.02,0.88,-4,0,-2,38,0
'[14:17:03.196 20/01/2026]',-111267.6,-161115.5,-90348.03,-102361.2,-375000,-375000,-195587.5,-123818.1,0.03,-0.02,0.88,-4,0,-2,38,0
'[14:17:03.200 20/01/2026]',-111237.3,-161122.5,-90367.61,-102124,-375000,-375000,-194650.3,-123799.4,0.03,-0.02,0.88,-4,0,-2,38,0
'[14:17:03.204 20/01/2026]',-111649.4,-161579.4,-90819.34,-102313.3,-375000,-375000,-192784.9,-124260.6,0.05,-0.02,0.88,-4,0,-2,38,0
'[14:17:03.208 20/01/2026]',-111793.3,-161676.5,-90908.88,-102665,-375000,-375000,-193573.1,-124396,0.05,-0.02,0.88,-4,0,-2,38,0
'[14:17:03.212 20/01/2026]',-111353.8,-161169,-90422.5,-102435.9,-375000,-375000,-195539.8,-123889.3,0.05,-0.02,0.88,-4,0,-2,38,0
'[14:17:03.216 20/01/2026]',-111224.9,-161083.1,-90340.43,-102143.6,-375000,-375000,-194935,-123775.2,0.05,-0.02,0.88,-4,0,-2,38,0
'[14:17:03.220 20/01/2026]',-111577.5,-161507.6,-90747.72,-102257.7,-375000,-375000,-193006.5,-124180.1,0.05,-0.02,0.88,-4,0,-2,38,0
'[14:17:03.224 20/01/2026]',-111827.2,-161732.5,-90955.37,-102632.8,-375000,-375000,-193201.4,-124433.9,0.05,-0.02,0.88,-4,0,-2,38,0
'[14:17:03.228 20/01/2026]',-111406.9,-161250.5,-90488.09,-102501.7,-375000,-375000,-195374.5,-123965.8,0.05,-0.02,0.88,-4,0,-2,38,0
'[14:17:03.232 20/01/2026]',-111192.5,-161050.8,-90301.85,-102157.6,-375000,-375000,-195169.1,-123745.2,0.05,-0.02,0.88,-4,0,-2,38,0
'[14:17:03.236 20/01/2026]',-111492.3,-161419.4,-90651.61,-102199.1,-375000,-375000,-193255.5,-124087.4,0.05,-0.02,0.88,-4,0,-2,38,0
'[14:17:03.240 20/01/2026]',-111825.5,-161748.6,-90966.5,-102595.8,-375000,-375000,-192911.1,-124449.5,0.02,-0.02,0.88,-4,0,-2,38,0
'[14:17:03.244 20/01/2026]',-111499.1,-161330.1,-90566.23,-102583,-375000,-375000,-195174.7,-124058.5,0.02,-0.02,0.88,-4,0,-2,38,0
'[14:17:03.248 20/01/2026]',-111204,-161053.2,-90303.73,-102219.5,-375000,-375000,-195439.3,-123753.6,0.02,-0.02,0.88,-4,0,-2,38,0
'[14:17:03.252 20/01/2026]',-111445.1,-161358.3,-90590.59,-102182.7,-375000,-375000,-193646.5,-124025.4,0.02,-0.02,0.88,-4,0,-2,38,0
'[14:17:03.256 20/01/2026]',-111823.3,-161758.9,-90967.3,-102531.9,-375000,-375000,-192707.9,-124447.1,0.02,-0.02,0.88,-4,0,-2,38,0
'[14:17:03.260 20/01/2026]',-111577.5,-161424.5,-90642,-102621.3,-375000,-375000,-194814,-124150.8,0.02,-0.02,0.88,-4,0,-2,38,0
'[14:17:03.264 20/01/2026]',-111200,-161046.5,-90283.7,-102248.5,-375000,-375000,-195542.4,-123755.2,0.02,-0.02,0.88,-4,0,-2,38,0
'[14:17:03.268 20/01/2026]',-111348.8,-161259.8,-90493.36,-102147.8,-375000,-375000,-193952.7,-123939.1,0.02,-0.02,0.88,-4,0,-2,38,0
'[14:17:03.272 20/01/2026]',-111764.9,-161713.3,-90927.43,-102456.2,-375000,-375000,-192582.3,-124396.7,0.02,-0.02,0.88,-4,0,-2,38,0
'[14:17:03.276 20/01/2026]',-111632.2,-161491.3,-90708.47,-102631.4,-375000,-375000,-194366.7,-124219.5,0.03,-0.02,0.88,-4,0,-2,38,0
'[14:17:03.280 20/01/2026]',-111206.5,-161035.2,-90287.14,-102278.1,-375000,-375000,-195583.2,-123755.5,0.03,-0.02,0.88,-4,0,-2,38,0
'[14:17:03.284 20/01/2026]',-111274.5,-161153.8,-90399.7,-102108.7,-375000,-375000,-194294.7,-123843.4,0.03,-0.02,0.88,-4,0,-2,38,0
'[14:17:03.288 20/01/2026]',-111710.6,-161652.2,-90866.95,-102384.6,-375000,-375000,-192636,-124341.2,0.03,-0.02,0.88,-4,0,-2,38,0
'[14:17:03.292 20/01/2026]',-111723,-161604,-90812.41,-102677.7,-375000,-375000,-193996.1,-124334.8,0.03,-0.02,0.88,-4,0,-2,38,0
'[14:17:03.296 20/01/2026]',-111269.5,-161107.6,-90342.22,-102378.3,-375000,-375000,-195632.3,-123838.5,0.03,-0.02,0.88,-4,0,-2,38,0
'[14:17:03.300 20/01/2026]',-111258,-161140.8,-90360.9,-102140.6,-375000,-375000,-194628.6,-123828.1,0.03,-0.02,0.88,-4,0,-2,38,0
'[14:17:03.304 20/01/2026]',-111679.1,-161613.2,-90827.02,-102329.1,-375000,-375000,-192750.9,-124285.2,0.03,-0.02,0.88,-4,0,-2,38,0
'[14:17:03.308 20/01/2026]',-111803.7,-161702.2,-90901.45,-102698.3,-375000,-375000,-193573.5,-124418.3,0.03,-0.02,0.88,-4,0,-2,38,0
'[14:17:03.312 20/01/2026]',-111352,-161188.2,-90415.93,-102488.8,-375000,-375000,-195623,-123918.9,0.03,-0.02,0.89,-4,0,-2,38,0
'[14:17:03.316 20/01/2026]',-111248,-161108.7,-90344.41,-102171.2,-375000,-375000,-194949.9,-123799.4,0.03,-0.02,0.89,-4,0,-2,38,0
'[14:17:03.320 20/01/2026]',-111598.3,-161533.5,-90743.7,-102276.7,-375000,-375000,-192987.9,-124202,0.03,-0.02,0.89,-4,0,-2,38,0
'[14:17:03.324 20/01/2026]',-111836.8,-161742.6,-90928.91,-102649,-375000,-375000,-193206.4,-124441.1,0.03,-0.02,0.89,-4,0,-2,38,0
'[14:17:03.328 20/01/2026]',-111414.1,-161246.6,-90449.1,-102506.8,-375000,-375000,-195382.2,-123965.4,0.03,-0.02,0.89,-4,0,-2,38,0
'[14:17:03.332 20/01/2026]',-111185.4,-161053.1,-90273.64,-102167.9,-375000,-375000,-195186.1,-123747.4,0.03,-0.02,0.89,-4,0,-2,38,0
'[14:17:03.336 20/01/2026]',-111498.8,-161428.4,-90646.55,-102214.6,-375000,-375000,-193267.2,-124099.2,0.03,-0.02,0.89,-4,0,-2,38,0
'[14:17:03.340 20/01/2026]',-111836.8,-161759.8,-90960.69,-102592.9,-375000,-375000,-192854.2,-124454.2,0.03,-0.02,0.89,-4,0,-2,38,0
'[14:17:03.344 20/01/2026]',-111486.1,-161329.3,-90535.11,-102577.7,-375000,-375000,-195119.3,-124053.5,0.03,-0.02,0.89,-4,0,-2,38,0
'[14:17:03.348 20/01/2026]',-111200.9,-161041.9,-90271.05,-102219,-375000,-375000,-195406.8,-123751.9,0.03,-0.02,0.89,-4,0,-2,38,0
'[14:17:03.352 20/01/2026]',-111434.7,-161346.5,-90555.72,-102197.4,-375000,-375000,-193593.2,-124031.1,0.03,-0.02,0.89,-4,0,-2,38,0
'[14:17:03.356 20/01/2026]',-111795.7,-161740.8,-90921.62,-102577.5,-375000,-375000,-192692,-124451.2,0.03,-0.02,0.89,-4,0,-2,38,0
'[14:17:03.360 20/01/2026]',-111555.4,-161410.9,-90607.35,-102639.2,-375000,-375000,-194797.9,-124145.1,0.03,-0.02,0.89,-4,0,-2,38,0
'[14:17:03.364 20/01/2026]',-111207.3,-161047.5,-90274.27,-102253.1,-375000,-375000,-195508.3,-123753.2,0.03,-0.02,0.89,-4,0,-2,38,0
'[14:17:03.368 20/01/2026]',-111353.9,-161259.1,-90481.52,-102169,-375000,-375000,-193928.8,-123939.9,0.03,-0.02,0.89,-4,0,-2,38,0
'[14:17:03.372 20/01/2026]',-111788.8,-161717.7,-90910.45,-102477.6,-375000,-375000,-192578.8,-124407.1,0.03,-0.02,0.89,-4,0,-2,38,0
'[14:17:03.376 20/01/2026]',-111676.2,-161520.3,-90707.71,-102677.7,-375000,-375000,-194413.9,-124246.5,0.03,-0.02,0.89,-4,0,-2,38,0
'[14:17:03.380 20/01/2026]',-111231.6,-161078.2,-90288.88,-102338.6,-375000,-375000,-195622.5,-123791.2,0.03,-0.02,0.89,-4,0,-2,38,0
'[14:17:03.384 20/01/2026]',-111302.3,-161205.6,-90406.23,-102166.6,-375000,-375000,-194270.7,-123875.8,0.03,-0.02,0.89,-4,0,-2,38,0
'[14:17:03.388 20/01/2026]',-111727.5,-161686.1,-90864.89,-102423.9,-375000,-375000,-192602.8,-124354.9,0.03,-0.02,0.89,-4,0,-2,38,0
'[14:17:03.392 20/01/2026]',-111709.9,-161598.8,-90783.22,-102731.3,-375000,-375000,-194039.5,-124332.1,0.03,-0.02,0.89,-4,0,-2,38,0
'[14:17:03.396 20/01/2026]',-111263.2,-161106.7,-90318.88,-102428.8,-375000,-375000,-195653.9,-123847,0.03,-0.02,0.89,-4,0,-2,38,0
'[14:17:03.400 20/01/2026]',-111254.8,-161146.3,-90357.41,-102191.9,-375000,-375000,-194631.4,-123844.4,0.03,-0.02,0.89,-4,0,-2,38,0
'[14:17:03.404 20/01/2026]',-111661.8,-161612.1,-90806.06,-102391.6,-375000,-375000,-192774.1,-124291.8,0.03,-0.02,0.89,-4,0,-2,38,0
'[14:17:03.408 20/01/2026]',-111776.7,-161678.4,-90853.22,-102733.5,-375000,-375000,-193618.4,-124406.1,0.03,-0.02,0.89,-4,0,-2,38,0
'[14:17:03.412 20/01/2026]',-111334.2,-161161.8,-90366.76,-102503.9,-375000,-375000,-195568.5,-123904.4,0.03,-0.02,0.89,-4,0,-2,38,0
'[14:17:03.416 20/01/2026]',-111235.6,-161087.1,-90305.91,-102214.8,-375000,-375000,-194926.3,-123792.9,0.03,-0.02,0.89,-4,0,-2,38,0
'[14:17:03.420 20/01/2026]',-111583.6,-161516,-90723.85,-102335.3,-375000,-375000,-192990,-124211.1,0.03,0.00,0.88,-4,0,-2,38,0
'[14:17:03.424 20/01/2026]',-111805.8,-161715.1,-90913.66,-102711.7,-375000,-375000,-193247.6,-124450.6,0.03,0.00,0.88,-4,0,-2,38,0
'[14:17:03.428 20/01/2026]',-111405.8,-161224.6,-90445.88,-102562.5,-375000,-375000,-195399.6,-123963.4,0.03,0.00,0.88,-4,0,-2,38,0
'[14:17:03.432 20/01/2026]',-111205.5,-161038.3,-90276.14,-102222.6,-375000,-375000,-195162.1,-123740.1,0.03,0.00,0.88,-4,0,-2,38,0
'[14:17:03.436 20/01/2026]',-111523.4,-161420.8,-90642.4,-102280.1,-375000,-375000,-193282.8,-124099.2,0.03,0.00,0.88,-4,0,-2,38,0
'[14:17:03.440 20/01/2026]',-111846.4,-161741.1,-90951.13,-102674.3,-375000,-375000,-192943,-124472.6,0.03,0.00,0.88,-4,0,-2,38,0
'[14:17:03.444 20/01/2026]',-111504.4,-161308,-90536.23,-102644.4,-375000,-375000,-195145.3,-124060.9,0.03,0.00,0.88,-4,0,-2,38,0
'[14:17:03.448 20/01/2026]',-111214.5,-161036.5,-90268.95,-102282.2,-375000,-375000,-195386.5,-123744.6,0.03,0.00,0.88,-4,0,-2,38,0
'[14:17:03.452 20/01/2026]',-111433.1,-161328.1,-90557.51,-102244.7,-375000,-375000,-193617.5,-124004,0.03,0.00,0.88,-4,0,-2,38,0
'[14:17:03.456 20/01/2026]',-111820.9,-161733.4,-90951.97,-102603.2,-375000,-375000,-192728.9,-124425.5,0.03,0.00,0.88,-4,0,-2,38,0
'[14:17:03.460 20/01/2026]',-111587.7,-161413.8,-90640.39,-102703.3,-375000,-375000,-194869.6,-124142.7,0.03,0.00,0.88,-4,0,-2,38,0
'[14:17:03.464 20/01/2026]',-111224.2,-161050.7,-90297.24,-102334,-375000,-375000,-195570.4,-123767.1,0.03,0.00,0.88,-4,0,-2,38,0
'[14:17:03.468 20/01/2026]',-111381.5,-161269.7,-90509.14,-102232.6,-375000,-375000,-193973,-123951.6,0.03,0.00,0.88,-4,0,-2,38,0
'[14:17:03.472 20/01/2026]',-111784.3,-161713.2,-90924.39,-102536.7,-375000,-375000,-192627.6,-124399.3,0.03,0.00,0.88,-4,0,-2,38,0
'[14:17:03.476 20/01/2026]',-111637.6,-161484.9,-90698.05,-102725.2,-375000,-375000,-194501.3,-124217.7,0.03,0.00,0.88,-4,0,-2,38,0
'[14:17:03.480 20/01/2026]',-111226.4,-161041.4,-90286.92,-102369.8,-375000,-375000,-195657.7,-123766.4,0.03,0.00,0.88,-4,0,-2,38,0
'[14:17:03.484 20/01/2026]',-111300.3,-161172.7,-90416.47,-102194.8,-375000,-375000,-194288.8,-123864.3,0.03,0.00,0.88,-4,0,-2,38,0
'[14:17:03.488 20/01/2026]',-111724,-161648.3,-90870.16,-102463.3,-375000,-375000,-192690.7,-124340.7,0.03,0.00,0.88,-4,0,-2,38,0
'[14:17:03.492 20/01/2026]',-111723.3,-161588.9,-90807,-102748.8,-375000,-375000,-194112.1,-124315.5,0.03,0.00,0.88,-4,0,-2,38,0
'[14:17:03.496 20/01/2026]',-111284,-161104.6,-90355,-102454.5,-375000,-375000,-195722.8,-123834.3,0.03,0.00,0.88,-4,0,-2,38,0
'[14:17:03.500 20/01/2026]',-111267,-161142.7,-90390.67,-102223.7,-375000,-375000,-194700.5,-123833.8,0.03,0.00,0.88,-4,0,-2,38,0
'[14:17:03.504 20/01/2026]',-111661.1,-161605.8,-90826.89,-102407.5,-375000,-375000,-192806.8,-124283.4,0.03,0.00,0.88,-4,0,-2,38,0
'[14:17:03.508 20/01/2026]',-111776.2,-161661.8,-90882.37,-102743.5,-375000,-375000,-193663.1,-124385.5,0.03,0.00,0.88,-4,0,-2,38,0
'[14:17:03.512 20/01/2026]',-111334.8,-161147,-90401.98,-102507.5,-375000,-375000,-195601.5,-123879.7,0.03,0.00,0.88,-4,0,-2,38,0
'[14:17:03.516 20/01/2026]',-111221.6,-161077.1,-90339.8,-102219.1,-375000,-375000,-194921.2,-123781.3,0.03,0.00,0.88,-4,0,-2,38,0
'[14:17:03.520 20/01/2026]',-111589.8,-161521.7,-90759.44,-102350.3,-375000,-375000,-192981.6,-124204.1,0.03,0.00,0.88,-4,0,-2,38,0
'[14:17:03.524 20/01/2026]',-111817.5,-161726.9,-90944.23,-102735.7,-375000,-375000,-193277.4,-124441.1,0.03,0.00,0.88,-4,0,-2,38,0
'[14:17:03.528 20/01/2026]',-111399.8,-161233.1,-90473.2,-102586.7,-375000,-375000,-195427.5,-123961.7,0.03,0.00,0.89,-4,0,-2,38,0
'[14:17:03.532 20/01/2026]',-111201.5,-161056.1,-90307.03,-102240.5,-375000,-375000,-195165.3,-123752.8,0.03,0.00,0.89,-4,0,-2,38,0
'[14:17:03.536 20/01/2026]',-111507.8,-161435.9,-90670.83,-102285.7,-375000,-375000,-193244.3,-124110.8,0.03,0.00,0.89,-4,0,-2,38,0
'[14:17:03.540 20/01/2026]',-111837.7,-161761,-90969.32,-102683.4,-375000,-375000,-192993.5,-124466.5,0.03,0.00,0.89,-4,0,-2,38,0
'[14:17:03.544 20/01/2026]',-111483.8,-161321.2,-90560.77,-102655.7,-375000,-375000,-195221.3,-124060.2,0.03,0.00,0.89,-4,0,-2,38,0
'[14:17:03.548 20/01/2026]',-111192.4,-161049,-90305.11,-102290.8,-375000,-375000,-195387.8,-123759.4,0.03,0.00,0.89,-4,0,-2,38,0
'[14:17:03.552 20/01/2026]',-111434.8,-161356.1,-90604.76,-102262.5,-375000,-375000,-193584.5,-124039.7,0.03,0.00,0.89,-4,0,-2,38,0
'[14:17:03.556 20/01/2026]',-111815.1,-161745.9,-90972.31,-102615.6,-375000,-375000,-192732.4,-124449.7,0.03,0.00,0.89,-4,0,-2,38,0
'[14:17:03.560 20/01/2026]',-111558.9,-161401.4,-90635.6,-102692,-375000,-375000,-194845,-124142.8,0.03,0.00,0.89,-4,0,-2,38,0
'[14:17:03.564 20/01/2026]',-111192.5,-161036,-90286.02,-102315.6,-375000,-375000,-195521,-123753.2,0.05,-0.02,0.86,-4,0,-2,38,0
'[14:17:03.568 20/01/2026]',-111364.6,-161271.2,-90514.91,-102227.2,-375000,-375000,-193910.8,-123953.9,0.05,-0.02,0.86,-4,0,-2,38,0
'[14:17:03.572 20/01/2026]',-111790.6,-161740.8,-90949.65,-102558,-375000,-375000,-192625.2,-124429.3,0.05,-0.02,0.86,-4,0,-2,38,0
'[14:17:03.576 20/01/2026]',-111645.9,-161516.3,-90723.67,-102751.1,-375000,-375000,-194535.1,-124251.6,0.05,-0.02,0.86,-4,0,-2,38,0
'[14:17:03.580 20/01/2026]',-111222.3,-161063.5,-90311.1,-102377.3,-375000,-375000,-195633.6,-123788.3,0.05,-0.02,0.86,-4,0,-2,38,0
'[14:17:03.584 20/01/2026]',-111295.2,-161193.9,-90453.93,-102213,-375000,-375000,-194292.9,-123888.2,0.05,-0.02,0.86,-4,0,-2,38,0
'[14:17:03.588 20/01/2026]',-111723.9,-161672,-90916.43,-102474.5,-375000,-375000,-192642.7,-124362.2,0.05,-0.02,0.86,-4,0,-2,38,0
'[14:17:03.592 20/01/2026]',-111711.1,-161593.2,-90827.92,-102756.7,-375000,-375000,-194098.1,-124322.7,0.05,-0.02,0.86,-4,0,-2,38,0
'[14:17:03.596 20/01/2026]',-111266.7,-161102.7,-90350.13,-102443.3,-375000,-375000,-195658.1,-123825.5,0.05,-0.02,0.86,-4,0,-2,38,0
'[14:17:03.600 20/01/2026]',-111254.6,-161142.3,-90396.58,-102209.5,-375000,-375000,-194595.8,-123826.6,0.03,0.00,0.89,-4,0,-2,38,0
'[14:17:03.604 20/01/2026]',-111653.6,-161611.1,-90847.73,-102413.2,-375000,-375000,-192751.2,-124281.8,0.03,0.00,0.89,-4,0,-2,38,0
'[14:17:03.608 20/01/2026]',-111759,-161665.9,-90885.32,-102740.2,-375000,-375000,-193667.6,-124379.5,0.03,0.00,0.89,-4,0,-2,38,0
'[14:17:03.612 20/01/2026]',-111308.3,-161150.6,-90394.92,-102490,-375000,-375000,-195549.9,-123874.1,0.03,0.00,0.89,-4,0,-2,38,0
'[14:17:03.616 20/01/2026]',-111208,-161090.4,-90350.98,-102217.1,-375000,-375000,-194913.5,-123788.4,0.03,0.00,0.89,-4,0,-2,38,0
'[14:17:03.620 20/01/2026]',-111578.2,-161533.5,-90773.34,-102347.5,-375000,-375000,-192998.1,-124208.6,0.03,0.00,0.89,-4,0,-2,38,0
'[14:17:03.624 20/01/2026]',-111798.6,-161721,-90952.02,-102712.2,-375000,-375000,-193282,-124424.8,0.03,0.00,0.89,-4,0,-2,38,0
'[14:17:03.628 20/01/2026]',-111380.6,-161224.9,-90481.96,-102561.4,-375000,-375000,-195393.2,-123947.7,0.03,0.00,0.89,-4,0,-2,38,0
'[14:17:03.632 20/01/2026]',-111178.1,-161063.8,-90330.37,-102250.5,-375000,-375000,-195158.1,-123762.6,0.03,0.00,0.89,-4,0,-2,38,0
'[14:17:03.636 20/01/2026]',-111496.4,-161450.4,-90696.4,-102297.4,-375000,-375000,-193248.3,-124122.5,0.03,-0.02,0.88,-4,0,-2,38,0
'[14:17:03.640 20/01/2026]',-111819.8,-161764.8,-90991.58,-102691.1,-375000,-375000,-193016.6,-124469.9,0.03,-0.02,0.88,-4,0,-2,38,0
