'Time and date','Fp1.','Fp2.','C3.','C4.','P3.','P4.','O1.','O2.'
'hh:mm:ss.mmm dd/mm/yyyy','uV','uV','uV','uV','uV','uV','uV','uV'
'[19:15:00.000 21/01/2026]',-8.192056,-8.780577,-1.002816,0.07169188,4.610755E-10,4.610755E-10,1.497254,-9.136569
'[19:15:00.004 21/01/2026]',-25.54563,-22.67488,-13.10024,-14.58267,4.610755E-10,4.610755E-10,-7.478581,-32.8285
'[19:15:00.012 21/01/2026]',-25.54563,-22.67488,-13.10024,-14.58267,4.610755E-10,4.610755E-10,-7.478581,-32.8285
'[19:15:00.020 21/01/2026]',53.61517,59.66218,21.64681,21.37847,4.610755E-10,4.610755E-10,8.357804,53.24349
'[19:15:00.028 21/01/2026]',53.61517,59.66218,21.64681,21.37847,4.610755E-10,4.610755E-10,8.357804,53.24349
'[19:15:00.036 21/01/2026]',25.30728,9.286097,9.690476,6.678711,4.610755E-10,4.610755E-10,-5.144577,-4.826749
'[19:15:00.044 21/01/2026]',25.30728,9.286097,9.690476,6.678711,4.610755E-10,4.610755E-10,-5.144577,-4.826749
'[19:15:00.052 21/01/2026]',-62.55355,-58.60861,-24.99928,-20.76182,4.610755E-10,4.610755E-10,-2.827914,-27.46931
'[19:15:00.060 21/01/2026]',-62.55355,-58.60861,-24.99928,-20.76182,4.610755E-10,4.610755E-10,-2.827914,-27.46931
'[19:15:00.068 21/01/2026]',-62.55355,-58.60861,-24.99928,-20.76182,4.610755E-10,4.610755E-10,-2.827914,-27.46931
'[19:15:00.076 21/01/2026]',8.581944,15.25805,3.175108,3.428298,4.610755E-10,4.610755E-10,2.726295,18.72724
'[19:15:00.084 21/01/2026]',8.581944,15.25805,3.175108,3.428298,4.610755E-10,4.610755E-10,2.726295,18.72724
'[19:15:00.092 21/01/2026]',22.94889,20.01015,11.52921,9.06036,4.610755E-10,4.610755E-10,2.816299,30.28703
'[19:15:00.100 21/01/2026]',22.94889,20.01015,11.52921,9.06036,4.610755E-10,4.610755E-10,2.816299,30.28703
'[19:15:00.108 21/01/2026]',-11.09067,-13.14107,-7.319743,-4.364307,4.610755E-10,4.610755E-10,-5.755924,-50.25813
'[19:15:00.116 21/01/2026]',-11.09067,-13.14107,-7.319743,-4.364307,4.610755E-10,4.610755E-10,-5.755924,-50.25813
'[19:15:00.124 21/01/2026]',-5.469552,-4.730823,-1.512018,-4.615597,4.610755E-10,4.610755E-10,3.031801,22.04841
'[19:15:00.132 21/01/2026]',-5.469552,-4.730823,-1.512018,-4.615597,4.610755E-10,4.610755E-10,3.031801,22.04841
'[19:15:00.140 21/01/2026]',4.234394,7.479951,3.730044,3.643812,4.610755E-10,4.610755E-10,3.359741,16.42728
'[19:15:00.148 21/01/2026]',1.097278,-0.9069449,-1.412621,0.5601711,4.610755E-10,4.610755E-10,-4.295966,-22.00896
'[19:15:00.156 21/01/2026]',-1.623386,-2.756648,-0.8845176,-0.4218896,4.610755E-10,4.610755E-10,1.690952,-0.1672134
'[19:15:00.164 21/01/2026]',-10.46463,-7.860427,-5.401197,-4.955216,4.610755E-10,4.610755E-10,-1.376015,-21.01292
'[19:15:00.172 21/01/2026]',-1.652273,-4.284102,2.29435,-1.691351,4.610755E-10,4.610755E-10,-0.03514675,32.73026
'[19:15:00.180 21/01/2026]',-1.652273,-4.284102,2.29435,-1.691351,4.610755E-10,4.610755E-10,-0.03514675,32.73026
'[19:15:00.188 21/01/2026]',35.17925,36.46773,12.64864,16.17678,4.610755E-10,4.610755E-10,4.332233,8.583328
'[19:15:00.196 21/01/2026]',-25.72095,-23.98674,-10.73016,-11.22551,4.610755E-10,4.610755E-10,-3.775104,-34.62828
'[19:15:00.204 21/01/2026]',-3.358716,-4.903177,0.6897744,2.061022,4.610755E-10,4.610755E-10,1.286502,40.26627
'[19:15:00.212 21/01/2026]',-3.358716,-4.903177,0.6897744,2.061022,4.610755E-10,4.610755E-10,1.286502,40.26627
'[19:15:00.220 21/01/2026]',9.473205,12.50617,1.323808,1.645353,4.610755E-10,4.610755E-10,-0.1935406,-6.749483
'[19:15:00.228 21/01/2026]',1.438215,-0.9285251,2.564215,-1.976954,4.610755E-10,4.610755E-10,0.6091975,-6.678069
'[19:15:00.236 21/01/2026]',1.438215,-0.9285251,2.564215,-1.976954,4.610755E-10,4.610755E-10,0.6091975,-6.678069
'[19:15:00.244 21/01/2026]',-10.11639,-10.8561,-7.467704,-3.469415,4.610755E-10,4.610755E-10,-2.556814,4.113986
'[19:15:00.252 21/01/2026]',5.386396,7.633965,6.664651,7.627123,4.610755E-10,4.610755E-10,3.446783,-18.65195
'[19:15:00.260 21/01/2026]',1.892453,1.553495,-0.4162839,-3.155368,4.610755E-10,4.610755E-10,-0.602366,27.5216
'[19:15:00.268 21/01/2026]',-3.307483,-6.001692,-5.151115,-6.286215,4.610755E-10,4.610755E-10,-3.093582,-20.21362
'[19:15:00.276 21/01/2026]',-0.5462957,3.842783,4.694496,6.459941,4.610755E-10,4.610755E-10,2.5039,-24.62946
'[19:15:00.284 21/01/2026]',17.29686,9.958763,7.785572,7.604479,4.610755E-10,4.610755E-10,4.651154,39.58726
'[19:15:00.292 21/01/2026]',-14.74144,-12.03821,-9.75503,-13.115,4.610755E-10,4.610755E-10,-5.924862,-21.16882
'[19:15:00.300 21/01/2026]',-14.74144,-12.03821,-9.75503,-13.115,4.610755E-10,4.610755E-10,-5.924862,-21.16882
'[19:15:00.308 21/01/2026]',-10.69691,-6.711072,-3.650095,0.6514541,4.610755E-10,4.610755E-10,-2.20108,-3.509242
'[19:15:00.316 21/01/2026]',13.89864,12.71455,9.02802,9.410248,4.610755E-10,4.610755E-10,6.833505,14.95417
'[19:15:00.324 21/01/2026]',-12.98813,-13.49802,-10.41224,-12.20331,4.610755E-10,4.610755E-10,-6.811073,-29.54798
'[19:15:00.332 21/01/2026]',-23.24745,-28.17552,-6.391741,-4.20292,4.610755E-10,4.610755E-10,-0.8773786,42.45821
'[19:15:00.340 21/01/2026]',-23.24745,-28.17552,-6.391741,-4.20292,4.610755E-10,4.610755E-10,-0.8773786,42.45821
'[19:15:00.348 21/01/2026]',22.59542,31.00233,9.798781,10.22317,4.610755E-10,4.610755E-10,6.711463,19.42199
'[19:15:00.356 21/01/2026]',72.00556,72.50263,25.29183,21.61418,4.610755E-10,4.610755E-10,2.968426,-28.19011
'[19:15:00.364 21/01/2026]',-64.1944,-73.45972,-24.00928,-23.5715,4.610755E-10,4.610755E-10,-10.72188,-4.895465
'[19:15:00.372 21/01/2026]',-23.03053,-21.66998,-7.314179,-5.349396,4.610755E-10,4.610755E-10,4.740058,14.29662
'[19:15:00.380 21/01/2026]',32.0541,39.33951,11.20241,8.681293,4.610755E-10,4.610755E-10,0.664861,-4.790394
'[19:15:00.388 21/01/2026]',2.546553,-0.5635431,1.352442,4.481565,4.610755E-10,4.610755E-10,3.958869,-13.61982
'[19:15:00.396 21/01/2026]',-9.826014,-9.935834,-2.38535,-2.818816,4.610755E-10,4.610755E-10,-3.856086,1.710643
'[19:15:00.404 21/01/2026]',-9.826014,-9.935834,-2.38535,-2.818816,4.610755E-10,4.610755E-10,-3.856086,1.710643
'[19:15:00.412 21/01/2026]',-5.310653,-7.954473,-3.037316,-5.769733,4.610755E-10,4.610755E-10,-3.163818,22.90937
'[19:15:00.420 21/01/2026]',-5.310653,-7.954473,-3.037316,-5.769733,4.610755E-10,4.610755E-10,-3.163818,22.90937
'[19:15:00.428 21/01/2026]',12.58352,13.3274,5.271407,8.054563,4.610755E-10,4.610755E-10,7.718264,-11.22968
'[19:15:00.436 21/01/2026]',12.58352,13.3274,5.271407,8.054563,4.610755E-10,4.610755E-10,7.718264,-11.22968
'[19:15:00.444 21/01/2026]',-10.66135,-4.875469,-8.026963,-5.000662,4.610755E-10,4.610755E-10,-3.578517,-15.4054
'[19:15:00.452 21/01/2026]',-10.66135,-4.875469,-8.026963,-5.000662,4.610755E-10,4.610755E-10,-3.578517,-15.4054
'[19:15:00.460 21/01/2026]',-10.66135,-4.875469,-8.026963,-5.000662,4.610755E-10,4.610755E-10,-3.578517,-15.4054
'[19:15:00.468 21/01/2026]',-10.66135,-4.875469,-8.026963,-5.000662,4.610755E-10,4.610755E-10,-3.578517,-15.4054
'[19:15:00.476 21/01/2026]',-10.66135,-4.875469,-8.026963,-5.000662,4.610755E-10,4.610755E-10,-3.578517,-15.4054
'[19:15:00.484 21/01/2026]',1.697916,-1.943271,6.000828,0.8906125,4.610755E-10,4.610755E-10,0.1254836,17.22649
'[19:15:00.492 21/01/2026]',4.663571,3.158039,0.70283,2.181425,4.610755E-10,4.610755E-10,-0.5842976,13.36025
'[19:15:00.500 21/01/2026]',-0.9922391,-0.2312659,-1.318957,-3.134841,4.610755E-10,4.610755E-10,0.01209554,-33.45286
'[19:15:00.508 21/01/2026]',-0.9922391,-0.2312659,-1.318957,-3.134841,4.610755E-10,4.610755E-10,0.01209554,-33.45286
'[19:15:00.516 21/01/2026]',-5.934731,-3.52024,-3.860911,-2.134478,4.610755E-10,4.610755E-10,-2.657092,37.15546
'[19:15:00.524 21/01/2026]',-5.934731,-3.52024,-3.860911,-2.134478,4.610755E-10,4.610755E-10,-2.657092,37.15546
'[19:15:00.532 21/01/2026]',-5.934731,-3.52024,-3.860911,-2.134478,4.610755E-10,4.610755E-10,-2.657092,37.15546
'[19:15:00.540 21/01/2026]',4.881726,1.117236,3.748893,3.619668,4.610755E-10,4.610755E-10,3.569718,-46.8057
'[19:15:00.548 21/01/2026]',-0.05471618,1.619204,0.8760133,1.372761,4.610755E-10,4.610755E-10,0.2969257,36.11892
'[19:15:00.556 21/01/2026]',-0.05471618,1.619204,0.8760133,1.372761,4.610755E-10,4.610755E-10,0.2969257,36.11892
'[19:15:00.564 21/01/2026]',-10.79312,-6.903062,-7.366362,-7.215711,4.610755E-10,4.610755E-10,-5.082149,-7.370509
'[19:15:00.572 21/01/2026]',-10.79312,-6.903062,-7.366362,-7.215711,4.610755E-10,4.610755E-10,-5.082149,-7.370509
'[19:15:00.580 21/01/2026]',20.25542,12.6201,10.45215,6.937559,4.610755E-10,4.610755E-10,3.526283,-24.95514
'[19:15:00.588 21/01/2026]',20.25542,12.6201,10.45215,6.937559,4.610755E-10,4.610755E-10,3.526283,-24.95514
'[19:15:00.596 21/01/2026]',-7.66087,-2.585072,-2.216463,1.573915,4.610755E-10,4.610755E-10,0.01347204,39.45837
'[19:15:00.604 21/01/2026]',-7.66087,-2.585072,-2.216463,1.573915,4.610755E-10,4.610755E-10,0.01347204,39.45837
'[19:15:00.612 21/01/2026]',-7.66087,-2.585072,-2.216463,1.573915,4.610755E-10,4.610755E-10,0.01347204,39.45837
'[19:15:00.620 21/01/2026]',-26.42508,-28.35976,-13.65009,-11.44758,4.610755E-10,4.610755E-10,-1.075649,0.07998816
'[19:15:00.628 21/01/2026]',-26.42508,-28.35976,-13.65009,-11.44758,4.610755E-10,4.610755E-10,-1.075649,0.07998816
'[19:15:00.636 21/01/2026]',-26.42508,-28.35976,-13.65009,-11.44758,4.610755E-10,4.610755E-10,-1.075649,0.07998816
'[19:15:00.644 21/01/2026]',-15.71556,-18.39497,-2.899815,-8.532877,4.610755E-10,4.610755E-10,-5.44988,-32.54778
'[19:15:00.652 21/01/2026]',-15.71556,-18.39497,-2.899815,-8.532877,4.610755E-10,4.610755E-10,-5.44988,-32.54778
'[19:15:00.660 21/01/2026]',-15.71556,-18.39497,-2.899815,-8.532877,4.610755E-10,4.610755E-10,-5.44988,-32.54778
'[19:15:00.668 21/01/2026]',67.44629,72.43404,25.21619,28.22561,4.610755E-10,4.610755E-10,11.33445,24.71273
'[19:15:00.676 21/01/2026]',11.40087,15.55679,4.85809,4.963146,4.610755E-10,4.610755E-10,-1.325989,14.73501
'[19:15:00.684 21/01/2026]',11.40087,15.55679,4.85809,4.963146,4.610755E-10,4.610755E-10,-1.325989,14.73501
'[19:15:00.692 21/01/2026]',-54.63691,-67.27835,-21.98266,-28.16283,4.610755E-10,4.610755E-10,-10.76637,-33.17871
'[19:15:00.700 21/01/2026]',4.138342,11.16635,-0.155545,6.549252,4.610755E-10,4.610755E-10,5.733421,-9.583941
'[19:15:00.708 21/01/2026]',4.138342,11.16635,-0.155545,6.549252,4.610755E-10,4.610755E-10,5.733421,-9.583941
'[19:15:00.716 21/01/2026]',23.44703,25.51501,15.37995,14.00034,4.610755E-10,4.610755E-10,7.183129,21.2355
'[19:15:00.724 21/01/2026]',23.44703,25.51501,15.37995,14.00034,4.610755E-10,4.610755E-10,7.183129,21.2355
'[19:15:00.732 21/01/2026]',23.44703,25.51501,15.37995,14.00034,4.610755E-10,4.610755E-10,7.183129,21.2355
'[19:15:00.740 21/01/2026]',-11.56186,-15.89278,-11.31965,-10.35741,4.610755E-10,4.610755E-10,-9.147996,-29.72082
'[19:15:00.748 21/01/2026]',-11.56186,-15.89278,-11.31965,-10.35741,4.610755E-10,4.610755E-10,-9.147996,-29.72082
'[19:15:00.756 21/01/2026]',-5.023103,-2.375248,-0.1244362,-1.265921,4.610755E-10,4.610755E-10,3.854024,18.99348
'[19:15:00.764 21/01/2026]',-5.023103,-2.375248,-0.1244362,-1.265921,4.610755E-10,4.610755E-10,3.854024,18.99348
'[19:15:00.772 21/01/2026]',4.557629,3.687448,5.620615,5.318239,4.610755E-10,4.610755E-10,2.898629,14.06575
'[19:15:00.780 21/01/2026]',4.557629,3.687448,5.620615,5.318239,4.610755E-10,4.610755E-10,2.898629,14.06575
'[19:15:00.788 21/01/2026]',4.391109,3.959563,-0.2351357,0.9831318,4.610755E-10,4.610755E-10,1.191438,-21.44504
'[19:15:00.796 21/01/2026]',4.391109,3.959563,-0.2351357,0.9831318,4.610755E-10,4.610755E-10,1.191438,-21.44504
'[19:15:00.804 21/01/2026]',4.391109,3.959563,-0.2351357,0.9831318,4.610755E-10,4.610755E-10,1.191438,-21.44504
'[19:15:00.812 21/01/2026]',4.391109,3.959563,-0.2351357,0.9831318,4.610755E-10,4.610755E-10,1.191438,-21.44504
'[19:15:00.820 21/01/2026]',4.391109,3.959563,-0.2351357,0.9831318,4.610755E-10,4.610755E-10,1.191438,-21.44504
'[19:15:00.828 21/01/2026]',-4.145998,-5.076394,-3.799992,-5.548186,4.610755E-10,4.610755E-10,-1.614451,44.9721
'[19:15:00.836 21/01/2026]',-4.145998,-5.076394,-3.799992,-5.548186,4.610755E-10,4.610755E-10,-1.614451,44.9721
'[19:15:00.844 21/01/2026]',-4.145998,-5.076394,-3.799992,-5.548186,4.610755E-10,4.610755E-10,-1.614451,44.9721
'[19:15:00.852 21/01/2026]',-4.145998,-5.076394,-3.799992,-5.548186,4.610755E-10,4.610755E-10,-1.614451,44.9721
'[19:15:00.860 21/01/2026]',-3.49141,0.4440642,-1.59971,2.742984,4.610755E-10,4.610755E-10,-6.810683,-31.64915
'[19:15:00.868 21/01/2026]',-9.544441,-15.89582,-3.650105,-8.407772,4.610755E-10,4.610755E-10,-0.6324689,-15.8109
'[19:15:00.876 21/01/2026]',19.49807,22.88417,10.71458,11.81504,4.610755E-10,4.610755E-10,10.19839,23.27884
'[19:15:00.884 21/01/2026]',-2.677056,-1.287532,-3.088385,-0.7715446,4.610755E-10,4.610755E-10,-6.159708,-4.567125
'[19:15:00.892 21/01/2026]',-12.65147,-17.46489,-6.13151,-11.86941,4.610755E-10,4.610755E-10,-3.245496,-35.19817
'[19:15:00.900 21/01/2026]',6.53785,10.7572,3.812191,8.59514,4.610755E-10,4.610755E-10,4.232157,36.91319
'[19:15:00.908 21/01/2026]',3.808844,4.46138,1.152122,1.789965,4.610755E-10,4.610755E-10,-0.3817096,7.322072
'[19:15:00.916 21/01/2026]',-3.089997,-6.338782,0.8772203,-3.864889,4.610755E-10,4.610755E-10,-1.944542,-35.32432
'[19:15:00.924 21/01/2026]',-2.057535,0.4875198,-4.528649,-0.3682814,4.610755E-10,4.610755E-10,1.64342,17.14515
'[19:15:00.932 21/01/2026]',2.089737,1.586774,2.616128,1.719919,4.610755E-10,4.610755E-10,-1.829144,-5.306279
'[19:15:00.940 21/01/2026]',0.7143454,-1.606113,0.2827548,-0.20844,4.610755E-10,4.610755E-10,1.165676,0.03890343
'[19:15:00.948 21/01/2026]',-1.670558,-0.5757462,-4.281322,-1.825627,4.610755E-10,4.610755E-10,-0.9983896,16.45243
'[19:15:00.956 21/01/2026]',4.504622,5.052384,7.417031,6.528001,4.610755E-10,4.610755E-10,3.828069,-12.4703
'[19:15:00.964 21/01/2026]',-7.670664,-8.159683,-7.96841,-8.286345,4.610755E-10,4.610755E-10,-6.875158,13.55655
'[19:15:00.972 21/01/2026]',2.252418,2.603815,1.994947,3.613795,4.610755E-10,4.610755E-10,3.704857,7.382749
'[19:15:00.980 21/01/2026]',5.351044,5.223173,4.76267,2.67989,4.610755E-10,4.610755E-10,3.194191,-21.3993
'[19:15:00.988 21/01/2026]',-5.347216,-4.925547,-6.446537,-5.740135,4.610755E-10,4.610755E-10,-5.772076,25.84008
'[19:15:00.996 21/01/2026]',1.523495,2.610187,4.813941,4.778193,4.610755E-10,4.610755E-10,1.826337,-28.57714
'[19:15:01.004 21/01/2026]',-1.390275,-4.730053,-4.009448,-4.729281,4.610755E-10,4.610755E-10,0.06925737,4.696583
'[19:15:01.012 21/01/2026]',-0.3482172,2.859311,1.95751,3.167141,4.610755E-10,4.610755E-10,0.9422958,13.89949
'[19:15:01.020 21/01/2026]',0.06154005,-1.804327,-0.7659662,-1.705998,4.610755E-10,4.610755E-10,-2.135147,-14.39906
'[19:15:01.028 21/01/2026]',2.677958,3.404152,0.3790651,4.116792,4.610755E-10,4.610755E-10,2.023002,-3.060601
'[19:15:01.036 21/01/2026]',-0.3325627,-1.191503,1.557347,-4.208251,4.610755E-10,4.610755E-10,-3.229592,14.35127
'[19:15:01.044 21/01/2026]',-2.056445,-2.035219,-2.632151,1.956318,4.610755E-10,4.610755E-10,-0.3861847,-4.775108
'[19:15:01.052 21/01/2026]',1.283562,2.180663,1.088133,-0.4668019,4.610755E-10,4.610755E-10,3.024548,-10.12902
'[19:15:01.060 21/01/2026]',-0.5941535,-1.124537,-1.810096,-1.929631,4.610755E-10,4.610755E-10,-1.967261,4.392267
'[19:15:01.068 21/01/2026]',-1.109024,1.060047,2.018111,3.811421,4.610755E-10,4.610755E-10,-0.2588825,29.95727
'[19:15:01.076 21/01/2026]',2.197971,0.412428,-2.348506,-1.156014,4.610755E-10,4.610755E-10,1.058364,-29.38285
'[19:15:01.084 21/01/2026]',-0.639815,-1.797519,-0.177883,-3.160689,4.610755E-10,4.610755E-10,-1.390972,-15.82398
'[19:15:01.092 21/01/2026]',-2.758279,1.434724,1.936023,3.2686,4.610755E-10,4.610755E-10,-0.1954786,24.05346
'[19:15:01.100 21/01/2026]',1.716896,-1.050375,-2.983311,-3.300843,4.610755E-10,4.610755E-10,1.074514,9.703218
'[19:15:01.108 21/01/2026]',3.149387,3.542912,6.343817,5.635727,4.610755E-10,4.610755E-10,2.322209,-18.44164
'[19:15:01.116 21/01/2026]',-5.445852,-6.13504,-7.325592,-5.527415,4.610755E-10,4.610755E-10,-5.854583,-8.459272
'[19:15:01.124 21/01/2026]',3.31223,5.081864,2.765123,3.566509,4.610755E-10,4.610755E-10,7.461471,8.085276
'[19:15:01.132 21/01/2026]',3.31223,5.081864,2.765123,3.566509,4.610755E-10,4.610755E-10,7.461471,8.085276
'[19:15:01.140 21/01/2026]',1.033229,-0.2266035,0.3150488,-1.036924,4.610755E-10,4.610755E-10,-5.475271,23.80064
'[19:15:01.148 21/01/2026]',1.033229,-0.2266035,0.3150488,-1.036924,4.610755E-10,4.610755E-10,-5.475271,23.80064
'[19:15:01.156 21/01/2026]',-1.209266,-1.670833,1.06401,0.6195512,4.610755E-10,4.610755E-10,2.278242,-25.948
'[19:15:01.164 21/01/2026]',-1.209266,-1.670833,1.06401,0.6195512,4.610755E-10,4.610755E-10,2.278242,-25.948
'[19:15:01.172 21/01/2026]',-1.209266,-1.670833,1.06401,0.6195512,4.610755E-10,4.610755E-10,2.278242,-25.948
'[19:15:01.180 21/01/2026]',-1.209266,-1.670833,1.06401,0.6195512,4.610755E-10,4.610755E-10,2.278242,-25.948
'[19:15:01.188 21/01/2026]',0.6269674,1.459604,-0.9762585,0.09660114,4.610755E-10,4.610755E-10,-2.038928,5.973232
'[19:15:01.196 21/01/2026]',-1.155453,-1.469193,-0.8208281,-1.330487,4.610755E-10,4.610755E-10,0.6780885,7.128189
'[19:15:01.204 21/01/2026]',-1.155453,-1.469193,-0.8208281,-1.330487,4.610755E-10,4.610755E-10,0.6780885,7.128189
'[19:15:01.212 21/01/2026]',-2.773466,-1.172141,-1.297222,-0.8579792,4.610755E-10,4.610755E-10,0.0817323,12.87754
'[19:15:01.220 21/01/2026]',-2.773466,-1.172141,-1.297222,-0.8579792,4.610755E-10,4.610755E-10,0.0817323,12.87754
'[19:15:01.228 21/01/2026]',-9.449077,-10.9924,-3.130718,-4.779768,4.610755E-10,4.610755E-10,-3.998108,-20.42823
'[19:15:01.236 21/01/2026]',-9.449077,-10.9924,-3.130718,-4.779768,4.610755E-10,4.610755E-10,-3.998108,-20.42823
'[19:15:01.244 21/01/2026]',-9.449077,-10.9924,-3.130718,-4.779768,4.610755E-10,4.610755E-10,-3.998108,-20.42823
'[19:15:01.252 21/01/2026]',27.35293,25.84216,10.93011,12.97456,4.610755E-10,4.610755E-10,6.879045,16.09577
'[19:15:01.260 21/01/2026]',-11.59394,-8.461106,-2.972508,-4.304949,4.610755E-10,4.610755E-10,-1.285962,-4.933944
'[19:15:01.268 21/01/2026]',-11.59394,-8.461106,-2.972508,-4.304949,4.610755E-10,4.610755E-10,-1.285962,-4.933944
'[19:15:01.276 21/01/2026]',-10.75326,-12.1317,-6.574582,-6.989057,4.610755E-10,4.610755E-10,-6.062743,-20.54108
'[19:15:01.284 21/01/2026]',-10.75326,-12.1317,-6.574582,-6.989057,4.610755E-10,4.610755E-10,-6.062743,-20.54108
'[19:15:01.292 21/01/2026]',-10.75326,-12.1317,-6.574582,-6.989057,4.610755E-10,4.610755E-10,-6.062743,-20.54108
'[19:15:01.300 21/01/2026]',8.556701,8.253282,3.504568,3.683212,4.610755E-10,4.610755E-10,4.299962,20.11098
'[19:15:01.308 21/01/2026]',8.556701,8.253282,3.504568,3.683212,4.610755E-10,4.610755E-10,4.299962,20.11098
'[19:15:01.316 21/01/2026]',3.088532,4.428722,4.969947,4.754259,4.610755E-10,4.610755E-10,2.264011,-7.654014
'[19:15:01.324 21/01/2026]',3.088532,4.428722,4.969947,4.754259,4.610755E-10,4.610755E-10,2.264011,-7.654014
'[19:15:01.332 21/01/2026]',3.088532,4.428722,4.969947,4.754259,4.610755E-10,4.610755E-10,2.264011,-7.654014
'[19:15:01.340 21/01/2026]',-3.038211,-3.037198,-3.127936,-3.491294,4.610755E-10,4.610755E-10,-2.730565,5.198571
'[19:15:01.348 21/01/2026]',-1.747189,-3.942759,-1.963567,-3.192908,4.610755E-10,4.610755E-10,-1.473891,-15.46391
'[19:15:01.356 21/01/2026]',-1.747189,-3.942759,-1.963567,-3.192908,4.610755E-10,4.610755E-10,-1.473891,-15.46391
'[19:15:01.364 21/01/2026]',-1.747189,-3.942759,-1.963567,-3.192908,4.610755E-10,4.610755E-10,-1.473891,-15.46391
'[19:15:01.372 21/01/2026]',0.3019686,3.44771,2.8977,4.62183,4.610755E-10,4.610755E-10,3.832298,12.63859
'[19:15:01.380 21/01/2026]',2.672064,2.073123,0.4732443,-0.2019064,4.610755E-10,4.610755E-10,0.5208691,-1.47156
'[19:15:01.388 21/01/2026]',2.672064,2.073123,0.4732443,-0.2019064,4.610755E-10,4.610755E-10,0.5208691,-1.47156
'[19:15:01.396 21/01/2026]',2.672064,2.073123,0.4732443,-0.2019064,4.610755E-10,4.610755E-10,0.5208691,-1.47156
'[19:15:01.404 21/01/2026]',-1.690891,-3.261078,-2.25325,-0.3547474,4.610755E-10,4.610755E-10,-3.542525,11.40293
'[19:15:01.412 21/01/2026]',-1.690891,-3.261078,-2.25325,-0.3547474,4.610755E-10,4.610755E-10,-3.542525,11.40293
'[19:15:01.420 21/01/2026]',-0.5056714,1.737574,1.703744,0.03095,4.610755E-10,4.610755E-10,1.506724,-8.893288
'[19:15:01.428 21/01/2026]',-0.5056714,1.737574,1.703744,0.03095,4.610755E-10,4.610755E-10,1.506724,-8.893288
'[19:15:01.436 21/01/2026]',-0.5056714,1.737574,1.703744,0.03095,4.610755E-10,4.610755E-10,1.506724,-8.893288
'[19:15:01.444 21/01/2026]',-4.451391,-7.61326,-5.884096,-4.692443,4.610755E-10,4.610755E-10,-3.085314,9.705522
'[19:15:01.452 21/01/2026]',9.672682,12.09022,8.114073,7.291956,4.610755E-10,4.610755E-10,5.931825,-0.9226859
'[19:15:01.460 21/01/2026]',9.672682,12.09022,8.114073,7.291956,4.610755E-10,4.610755E-10,5.931825,-0.9226859
'[19:15:01.468 21/01/2026]',-5.730811,-7.758446,-1.68421,-2.370521,4.610755E-10,4.610755E-10,-3.128078,-2.936008
'[19:15:01.476 21/01/2026]',-5.730811,-7.758446,-1.68421,-2.370521,4.610755E-10,4.610755E-10,-3.128078,-2.936008
'[19:15:01.484 21/01/2026]',-5.730811,-7.758446,-1.68421,-2.370521,4.610755E-10,4.610755E-10,-3.128078,-2.936008
'[19:15:01.492 21/01/2026]',-5.730811,-7.758446,-1.68421,-2.370521,4.610755E-10,4.610755E-10,-3.128078,-2.936008
'[19:15:01.500 21/01/2026]',-0.8839443,5.635861,-5.772052,-3.38624,4.610755E-10,4.610755E-10,-0.5286209,3.78
'[19:15:01.508 21/01/2026]',-0.2444693,-2.645339,-1.743177,0.3987266,4.610755E-10,4.610755E-10,-4.29746,-7.022472
'[19:15:01.516 21/01/2026]',-0.2444693,-2.645339,-1.743177,0.3987266,4.610755E-10,4.610755E-10,-4.29746,-7.022472
'[19:15:01.524 21/01/2026]',3.680736,-0.9538126,6.290835,2.063946,4.610755E-10,4.610755E-10,2.769953,-11.92434
'[19:15:01.532 21/01/2026]',3.680736,-0.9538126,6.290835,2.063946,4.610755E-10,4.610755E-10,2.769953,-11.92434
'[19:15:01.540 21/01/2026]',3.680736,-0.9538126,6.290835,2.063946,4.610755E-10,4.610755E-10,2.769953,-11.92434
'[19:15:01.548 21/01/2026]',-5.236394,-0.1059016,-1.308967,-2.24667,4.610755E-10,4.610755E-10,1.921415,-13.15311
'[19:15:01.556 21/01/2026]',4.872616,0.9827413,-1.363674,2.839596,4.610755E-10,4.610755E-10,-1.176339,17.38358
'[19:15:01.564 21/01/2026]',1.505119,3.584403,1.293862,1.244766,4.610755E-10,4.610755E-10,2.018102,16.4006
'[19:15:01.572 21/01/2026]',1.505119,3.584403,1.293862,1.244766,4.610755E-10,4.610755E-10,2.018102,16.4006
'[19:15:01.580 21/01/2026]',-9.023716,-8.113996,-4.993312,-9.103004,4.610755E-10,4.610755E-10,-7.442007,-50.65783
'[19:15:01.588 21/01/2026]',-9.023716,-8.113996,-4.993312,-9.103004,4.610755E-10,4.610755E-10,-7.442007,-50.65783
'[19:15:01.596 21/01/2026]',10.43946,6.385428,9.210663,8.6774,4.610755E-10,4.610755E-10,8.478234,43.02874
'[19:15:01.604 21/01/2026]',-2.955132,0.2622506,-5.442084,-1.241872,4.610755E-10,4.610755E-10,-3.21273,15.72881
'[19:15:01.612 21/01/2026]',-5.156683,-6.953925,-1.667309,-3.566971,4.610755E-10,4.610755E-10,-2.544684,-39.09879
'[19:15:01.620 21/01/2026]',0.4116027,2.416948,2.259825,2.203542,4.610755E-10,4.610755E-10,3.357664,-15.82654
'[19:15:01.628 21/01/2026]',4.835393,5.504744,1.655263,2.322601,4.610755E-10,4.610755E-10,1.271489,40.74666
'[19:15:01.636 21/01/2026]',-4.726229,-7.430833,-4.098637,-1.224019,4.610755E-10,4.610755E-10,-3.640848,7.94627
'[19:15:01.644 21/01/2026]',-18.23993,-21.76067,-5.77537,-9.607267,4.610755E-10,4.610755E-10,-0.4530395,-41.10267
'[19:15:01.652 21/01/2026]',32.14439,33.43408,10.76602,11.29648,4.610755E-10,4.610755E-10,3.507924,20.63622
'[19:15:01.660 21/01/2026]',18.89083,26.25762,10.67572,13.81662,4.610755E-10,4.610755E-10,2.335912,33.12793
'[19:15:01.668 21/01/2026]',-43.43088,-45.05154,-20.61419,-22.10762,4.610755E-10,4.610755E-10,-8.638734,-34.61283
'[19:15:01.676 21/01/2026]',5.607306,1.639485,2.788031,3.151341,4.610755E-10,4.610755E-10,6.963322,-0.9169508
'[19:15:01.684 21/01/2026]',13.82106,15.67342,7.210824,7.567965,4.610755E-10,4.610755E-10,3.390167,11.54903
'[19:15:01.692 21/01/2026]',-8.842772,-8.557161,-6.604733,-7.410028,4.610755E-10,4.610755E-10,-10.87856,-21.02057
'[19:15:01.700 21/01/2026]',3.814925,7.298997,4.107198,6.739022,4.610755E-10,4.610755E-10,10.83543,37.15291
'[19:15:01.708 21/01/2026]',5.709168,0.3418839,4.931926,2.106302,4.610755E-10,4.610755E-10,-1.253483,-4.836582
'[19:15:01.716 21/01/2026]',-10.36221,-9.005264,-7.480417,-8.832173,4.610755E-10,4.610755E-10,-4.429745,-16.17077
'[19:15:01.724 21/01/2026]',1.358043,1.075598,-0.7217522,1.32547,4.610755E-10,4.610755E-10,-2.483415,-52.32082
'[19:15:01.732 21/01/2026]',6.517074,4.468937,6.814875,3.724742,4.610755E-10,4.610755E-10,3.120496,10.42573
'[19:15:01.740 21/01/2026]',-8.754444,-3.988764,-9.515841,-4.85884,4.610755E-10,4.610755E-10,-1.89841,32.29737
'[19:15:01.748 21/01/2026]',6.870981,4.012779,9.127337,6.64898,4.610755E-10,4.610755E-10,4.978877,32.13083
'[19:15:01.756 21/01/2026]',-1.888681,-1.281838,-4.521374,-4.061304,4.610755E-10,4.610755E-10,-5.143118,-32.74734
'[19:15:01.764 21/01/2026]',0.6966325,-1.563477,1.116352,0.8819336,4.610755E-10,4.610755E-10,1.679166,-19.54246
'[19:15:01.772 21/01/2026]',-1.861019,-0.05490249,1.06419,-0.8299588,4.610755E-10,4.610755E-10,-0.03927455,31.83113
'[19:15:01.780 21/01/2026]',0.01093024,1.582633,-2.775117,1.125284,4.610755E-10,4.610755E-10,-1.604764,-12.36036
'[19:15:01.788 21/01/2026]',1.32093,-1.228454,2.417651,-0.6715328,4.610755E-10,4.610755E-10,-0.164136,-1.612252
'[19:15:01.796 21/01/2026]',-0.3786907,1.223583,0.08274453,-1.280526,4.610755E-10,4.610755E-10,2.121222,22.32392
'[19:15:01.804 21/01/2026]',3.054325,0.3872936,0.9599864,1.916654,4.610755E-10,4.610755E-10,-0.1731885,-28.98028
'[19:15:01.812 21/01/2026]',-1.425623,1.751075,0.7440504,1.061683,4.610755E-10,4.610755E-10,1.192929,7.24706
'[19:15:01.820 21/01/2026]',-5.464949,-4.03666,-2.55812,-3.936672,4.610755E-10,4.610755E-10,-3.126427,2.951405
'[19:15:01.828 21/01/2026]',-5.464949,-4.03666,-2.55812,-3.936672,4.610755E-10,4.610755E-10,-3.126427,2.951405
'[19:15:01.836 21/01/2026]',2.580058,-2.872616,-0.7973484,0.8973777,4.610755E-10,4.610755E-10,0.09766819,-9.448247
'[19:15:01.844 21/01/2026]',2.580058,-2.872616,-0.7973484,0.8973777,4.610755E-10,4.610755E-10,0.09766819,-9.448247
'[19:15:01.852 21/01/2026]',3.754458,7.08453,5.577857,4.620183,4.610755E-10,4.610755E-10,4.724687,3.039831
'[19:15:01.860 21/01/2026]',3.754458,7.08453,5.577857,4.620183,4.610755E-10,4.610755E-10,4.724687,3.039831
'[19:15:01.868 21/01/2026]',3.754458,7.08453,5.577857,4.620183,4.610755E-10,4.610755E-10,4.724687,3.039831
'[19:15:01.876 21/01/2026]',-4.184859,-1.845746,-5.061577,-5.581004,4.610755E-10,4.610755E-10,-6.556994,2.231252
'[19:15:01.884 21/01/2026]',-4.184859,-1.845746,-5.061577,-5.581004,4.610755E-10,4.610755E-10,-6.556994,2.231252
'[19:15:01.892 21/01/2026]',0.2279243,-0.9012874,0.4032221,2.610939,4.610755E-10,4.610755E-10,3.047343,16.76434
'[19:15:01.900 21/01/2026]',0.2279243,-0.9012874,0.4032221,2.610939,4.610755E-10,4.610755E-10,3.047343,16.76434
'[19:15:01.908 21/01/2026]',-0.3121366,-3.033773,1.029234,-0.1426313,4.610755E-10,4.610755E-10,-1.671967,-29.39756
'[19:15:01.916 21/01/2026]',0.5392156,3.36837,-0.6683301,-0.9334397,4.610755E-10,4.610755E-10,-0.7653061,12.6742
'[19:15:01.924 21/01/2026]',0.5392156,3.36837,-0.6683301,-0.9334397,4.610755E-10,4.610755E-10,-0.7653061,12.6742
'[19:15:01.932 21/01/2026]',0.5392156,3.36837,-0.6683301,-0.9334397,4.610755E-10,4.610755E-10,-0.7653061,12.6742
'[19:15:01.940 21/01/2026]',0.5392156,3.36837,-0.6683301,-0.9334397,4.610755E-10,4.610755E-10,-0.7653061,12.6742
'[19:15:01.948 21/01/2026]',0.5392156,3.36837,-0.6683301,-0.9334397,4.610755E-10,4.610755E-10,-0.7653061,12.6742
'[19:15:01.956 21/01/2026]',2.479668,1.899884,2.045177,2.437068,4.610755E-10,4.610755E-10,4.93551,25.81512
'[19:15:01.964 21/01/2026]',-4.138829,-5.273892,-4.240557,-5.038658,4.610755E-10,4.610755E-10,-7.638292,-38.72049
'[19:15:01.972 21/01/2026]',-4.138829,-5.273892,-4.240557,-5.038658,4.610755E-10,4.610755E-10,-7.638292,-38.72049
'[19:15:01.980 21/01/2026]',1.632782,2.262594,2.585987,2.365452,4.610755E-10,4.610755E-10,3.445101,26.90518
'[19:15:01.988 21/01/2026]',1.996533,3.019674,3.405582,1.114514,4.610755E-10,4.610755E-10,1.842198,-17.61745
'[19:15:01.996 21/01/2026]',1.996533,3.019674,3.405582,1.114514,4.610755E-10,4.610755E-10,1.842198,-17.61745
'[19:15:02.004 21/01/2026]',1.996533,3.019674,3.405582,1.114514,4.610755E-10,4.610755E-10,1.842198,-17.61745
'[19:15:02.012 21/01/2026]',-2.362365,-4.766917,-6.32688,-3.435477,4.610755E-10,4.610755E-10,-3.645421,-2.526597
'[19:15:02.020 21/01/2026]',-2.362365,-4.766917,-6.32688,-3.435477,4.610755E-10,4.610755E-10,-3.645421,-2.526597
'[19:15:02.028 21/01/2026]',-2.362365,-4.766917,-6.32688,-3.435477,4.610755E-10,4.610755E-10,-3.645421,-2.526597
'[19:15:02.036 21/01/2026]',-2.362365,-4.766917,-6.32688,-3.435477,4.610755E-10,4.610755E-10,-3.645421,-2.526597
'[19:15:02.044 21/01/2026]',2.403731,4.295033,4.03322,4.261699,4.610755E-10,4.610755E-10,0.3087556,10.75449
'[19:15:02.052 21/01/2026]',0.2011664,-5.596949,0.7166622,-2.170538,4.610755E-10,4.610755E-10,0.6620368,-26.93683
'[19:15:02.060 21/01/2026]',0.2011664,-5.596949,0.7166622,-2.170538,4.610755E-10,4.610755E-10,0.6620368,-26.93683
'[19:15:02.068 21/01/2026]',-2.704556,7.708666,-3.322991,-1.126529,4.610755E-10,4.610755E-10,-0.01439976,15.89095
'[19:15:02.076 21/01/2026]',-2.704556,7.708666,-3.322991,-1.126529,4.610755E-10,4.610755E-10,-0.01439976,15.89095
'[19:15:02.084 21/01/2026]',1.722136,-0.9318035,0.09184052,2.021811,4.610755E-10,4.610755E-10,0.5736986,6.029563
'[19:15:02.092 21/01/2026]',1.722136,-0.9318035,0.09184052,2.021811,4.610755E-10,4.610755E-10,0.5736986,6.029563
'[19:15:02.100 21/01/2026]',-0.6729344,-5.325171,2.745772,-1.377107,4.610755E-10,4.610755E-10,1.809665,-6.05801
'[19:15:02.108 21/01/2026]',-0.6729344,-5.325171,2.745772,-1.377107,4.610755E-10,4.610755E-10,1.809665,-6.05801
'[19:15:02.116 21/01/2026]',0.06356887,2.450462,-0.1948886,1.324255,4.610755E-10,4.610755E-10,-3.496554,-3.619378
'[19:15:02.124 21/01/2026]',0.06356887,2.450462,-0.1948886,1.324255,4.610755E-10,4.610755E-10,-3.496554,-3.619378
'[19:15:02.132 21/01/2026]',0.06356887,2.450462,-0.1948886,1.324255,4.610755E-10,4.610755E-10,-3.496554,-3.619378
'[19:15:02.140 21/01/2026]',1.305593,4.880577,-0.4330367,2.738135,4.610755E-10,4.610755E-10,5.096096,15.94931
'[19:15:02.148 21/01/2026]',-3.555074,-7.734926,-2.81451,-7.745546,4.610755E-10,4.610755E-10,-8.243825,-7.092942
'[19:15:02.156 21/01/2026]',-3.555074,-7.734926,-2.81451,-7.745546,4.610755E-10,4.610755E-10,-8.243825,-7.092942
'[19:15:02.164 21/01/2026]',-3.555074,-7.734926,-2.81451,-7.745546,4.610755E-10,4.610755E-10,-8.243825,-7.092942
'[19:15:02.172 21/01/2026]',0.6603686,1.296887,0.3493196,2.721579,4.610755E-10,4.610755E-10,6.086243,12.03939
'[19:15:02.180 21/01/2026]',0.6603686,1.296887,0.3493196,2.721579,4.610755E-10,4.610755E-10,6.086243,12.03939
'[19:15:02.188 21/01/2026]',2.509363,3.873709,3.761598,3.121612,4.610755E-10,4.610755E-10,0.6509385,-14.42619
'[19:15:02.196 21/01/2026]',2.509363,3.873709,3.761598,3.121612,4.610755E-10,4.610755E-10,0.6509385,-14.42619
'[19:15:02.204 21/01/2026]',2.509363,3.873709,3.761598,3.121612,4.610755E-10,4.610755E-10,0.6509385,-14.42619
'[19:15:02.212 21/01/2026]',2.509363,3.873709,3.761598,3.121612,4.610755E-10,4.610755E-10,0.6509385,-14.42619
'[19:15:02.220 21/01/2026]',-2.752373,-9.992328,-3.174676,-3.475052,4.610755E-10,4.610755E-10,-4.854727,14.6343
'[19:15:02.228 21/01/2026]',-2.752373,-9.992328,-3.174676,-3.475052,4.610755E-10,4.610755E-10,-4.854727,14.6343
'[19:15:02.236 21/01/2026]',0.5080055,4.606105,1.54705,-1.086772,4.610755E-10,4.610755E-10,4.669888,-0.8144172
'[19:15:02.244 21/01/2026]',-0.006049927,9.139175,-1.040768,2.445601,4.610755E-10,4.610755E-10,-1.874489,-14.26848
'[19:15:02.252 21/01/2026]',0.4697381,-7.309139,0.2296581,3.661572,4.610755E-10,4.610755E-10,2.608669,-16.17063
'[19:15:02.260 21/01/2026]',-2.607627,-4.472798,-1.409123,-7.390998,4.610755E-10,4.610755E-10,-5.260087,6.708951
'[19:15:02.268 21/01/2026]',-2.607627,-4.472798,-1.409123,-7.390998,4.610755E-10,4.610755E-10,-5.260087,6.708951
'[19:15:02.276 21/01/2026]',0.2884101,6.150894,2.260103,1.791921,4.610755E-10,4.610755E-10,5.631686,14.61348
'[19:15:02.284 21/01/2026]',4.078323,3.039641,2.232511,6.779803,4.610755E-10,4.610755E-10,-0.02539809,0.3942231
'[19:15:02.292 21/01/2026]',-3.644145,-6.895435,-2.97382,-6.225608,4.610755E-10,4.610755E-10,-5.899333,-11.05776
'[19:15:02.300 21/01/2026]',0.736647,1.827977,-0.4994287,0.970292,4.610755E-10,4.610755E-10,5.328452,7.195261
'[19:15:02.308 21/01/2026]',0.736647,1.827977,-0.4994287,0.970292,4.610755E-10,4.610755E-10,5.328452,7.195261
'[19:15:02.316 21/01/2026]',-0.09864987,3.727226,2.733135,2.958758,4.610755E-10,4.610755E-10,2.238577,22.00138
'[19:15:02.324 21/01/2026]',-0.09864987,3.727226,2.733135,2.958758,4.610755E-10,4.610755E-10,2.238577,22.00138
'[19:15:02.332 21/01/2026]',1.356862,-2.597814,-1.468693,-2.462535,4.610755E-10,4.610755E-10,-5.73483,-21.66601
'[19:15:02.340 21/01/2026]',-1.273554,-0.9046926,-0.2278686,0.03707344,4.610755E-10,4.610755E-10,2.087451,-13.97989
'[19:15:02.348 21/01/2026]',-1.932498,0.516068,-1.935179,-1.865269,4.610755E-10,4.610755E-10,-1.848348,26.23887
'[19:15:02.356 21/01/2026]',-1.932498,0.516068,-1.935179,-1.865269,4.610755E-10,4.610755E-10,-1.848348,26.23887
'[19:15:02.364 21/01/2026]',-3.015947,-20.27622,1.639564,-3.994944,4.610755E-10,4.610755E-10,0.79657,-8.444749
'[19:15:02.372 21/01/2026]',3.293534,12.33182,-0.2583427,3.045285,4.610755E-10,4.610755E-10,-1.775738,-26.75172
'[19:15:02.380 21/01/2026]',8.658796,28.83425,2.693073,10.68381,4.610755E-10,4.610755E-10,7.233669,7.188011
'[19:15:02.388 21/01/2026]',-14.89822,-33.798,-6.38102,-14.51839,4.610755E-10,4.610755E-10,-7.641952,33.17172
'[19:15:02.396 21/01/2026]',6.446524,6.88625,2.944107,2.303432,4.610755E-10,4.610755E-10,5.044493,-38.30608
'[19:15:02.404 21/01/2026]',4.622092,11.80863,5.289561,9.40594,4.610755E-10,4.610755E-10,0.3470392,28.4943
'[19:15:02.412 21/01/2026]',-5.985118,-7.336771,-7.950247,-7.549797,4.610755E-10,4.610755E-10,-3.235249,-11.06361
'[19:15:02.420 21/01/2026]',1.895253,0.30329,3.690161,2.709974,4.610755E-10,4.610755E-10,5.102741,-8.209781
'[19:15:02.428 21/01/2026]',-0.08796434,0.3675906,0.4850008,1.853537,4.610755E-10,4.610755E-10,-2.312588,30.55562
'[19:15:02.436 21/01/2026]',0.5716925,-0.08440427,-0.1050937,-1.806398,4.610755E-10,4.610755E-10,-1.552072,-11.3582
'[19:15:02.444 21/01/2026]',-2.159011,-0.864493,-0.8551407,-2.692788,4.610755E-10,4.610755E-10,0.2572807,2.498061
'[19:15:02.452 21/01/2026]',-0.6352045,-0.5244511,-1.799851,1.737082,4.610755E-10,4.610755E-10,0.4345424,-15.87152
'[19:15:02.460 21/01/2026]',3.56104,3.301284,4.057266,3.551916,4.610755E-10,4.610755E-10,2.888469,34.82568
'[19:15:02.468 21/01/2026]',-1.757699,-2.093393,-2.312925,-4.143675,4.610755E-10,4.610755E-10,-4.975685,15.87101
'[19:15:02.476 21/01/2026]',-8.039227,-6.555804,-7.757528,-7.629187,4.610755E-10,4.610755E-10,-4.320954,-124.619
'[19:15:02.484 21/01/2026]',-8.039227,-6.555804,-7.757528,-7.629187,4.610755E-10,4.610755E-10,-4.320954,-124.619
'[19:15:02.492 21/01/2026]',10.97831,8.671713,11.36941,12.62621,4.610755E-10,4.610755E-10,11.41538,65.62833
'[19:15:02.500 21/01/2026]',-0.3727278,-0.3696758,-0.2468219,0.09117518,4.610755E-10,4.610755E-10,-3.291831,58.52909
'[19:15:02.508 21/01/2026]',-7.598785,-4.878756,-6.867438,-8.616647,4.610755E-10,4.610755E-10,-3.047102,-47.96858
'[19:15:02.516 21/01/2026]',-7.598785,-4.878756,-6.867438,-8.616647,4.610755E-10,4.610755E-10,-3.047102,-47.96858
'[19:15:02.524 21/01/2026]',2.226921,-1.628886,1.427174,0.009300243,4.610755E-10,4.610755E-10,-2.869822,-5.061822
'[19:15:02.532 21/01/2026]',2.226921,-1.628886,1.427174,0.009300243,4.610755E-10,4.610755E-10,-2.869822,-5.061822
'[19:15:02.540 21/01/2026]',2.226921,-1.628886,1.427174,0.009300243,4.610755E-10,4.610755E-10,-2.869822,-5.061822
'[19:15:02.548 21/01/2026]',2.226921,-1.628886,1.427174,0.009300243,4.610755E-10,4.610755E-10,-2.869822,-5.061822
'[19:15:02.556 21/01/2026]',2.226921,-1.628886,1.427174,0.009300243,4.610755E-10,4.610755E-10,-2.869822,-5.061822
'[19:15:02.564 21/01/2026]',5.660326,6.38374,5.741755,6.395915,4.610755E-10,4.610755E-10,5.831063,-6.949773
'[19:15:02.572 21/01/2026]',-0.35575,1.561323,-0.001282098,1.623098,4.610755E-10,4.610755E-10,3.855348,49.06704
'[19:15:02.580 21/01/2026]',-7.679307,-10.06259,-6.084136,-7.408455,4.610755E-10,4.610755E-10,-10.0832,-25.81591
'[19:15:02.588 21/01/2026]',-1.693472,-1.757167,-1.634702,-1.724868,4.610755E-10,4.610755E-10,2.570579,-31.78797
'[19:15:02.596 21/01/2026]',-1.693472,-1.757167,-1.634702,-1.724868,4.610755E-10,4.610755E-10,2.570579,-31.78797
'[19:15:02.604 21/01/2026]',10.88582,11.2492,9.69152,10.28137,4.610755E-10,4.610755E-10,6.447845,41.87542
'[19:15:02.612 21/01/2026]',10.88582,11.2492,9.69152,10.28137,4.610755E-10,4.610755E-10,6.447845,41.87542
'[19:15:02.620 21/01/2026]',-12.63216,-5.04985,-14.28763,-11.40524,4.610755E-10,4.610755E-10,-9.949813,-40.07713
'[19:15:02.628 21/01/2026]',-12.63216,-5.04985,-14.28763,-11.40524,4.610755E-10,4.610755E-10,-9.949813,-40.07713
'[19:15:02.636 21/01/2026]',-7.318635,-10.45261,-0.04285341,-3.176926,4.610755E-10,4.610755E-10,-0.2021978,-25.82548
'[19:15:02.644 21/01/2026]',-7.318635,-10.45261,-0.04285341,-3.176926,4.610755E-10,4.610755E-10,-0.2021978,-25.82548
'[19:15:02.652 21/01/2026]',-7.318635,-10.45261,-0.04285341,-3.176926,4.610755E-10,4.610755E-10,-0.2021978,-25.82548
'[19:15:02.660 21/01/2026]',35.56084,23.86768,17.61804,18.76457,4.610755E-10,4.610755E-10,9.712955,41.93317
'[19:15:02.668 21/01/2026]',35.56084,23.86768,17.61804,18.76457,4.610755E-10,4.610755E-10,9.712955,41.93317
'[19:15:02.676 21/01/2026]',-21.65159,-11.69458,-9.676527,-9.56591,4.610755E-10,4.610755E-10,-7.385477,13.11406
'[19:15:02.684 21/01/2026]',-21.65159,-11.69458,-9.676527,-9.56591,4.610755E-10,4.610755E-10,-7.385477,13.11406
'[19:15:02.692 21/01/2026]',-21.65159,-11.69458,-9.676527,-9.56591,4.610755E-10,4.610755E-10,-7.385477,13.11406
'[19:15:02.700 21/01/2026]',-21.65159,-11.69458,-9.676527,-9.56591,4.610755E-10,4.610755E-10,-7.385477,13.11406
'[19:15:02.708 21/01/2026]',-9.999699,-9.599139,-7.530293,-7.875091,4.610755E-10,4.610755E-10,0.6382748,-10.97896
'[19:15:02.716 21/01/2026]',12.45489,11.18418,5.85448,7.461183,4.610755E-10,4.610755E-10,1.671843,-18.61195
'[19:15:02.724 21/01/2026]',12.45489,11.18418,5.85448,7.461183,4.610755E-10,4.610755E-10,1.671843,-18.61195
'[19:15:02.732 21/01/2026]',14.33617,8.040628,9.986369,7.988136,4.610755E-10,4.610755E-10,1.245866,24.98036
'[19:15:02.740 21/01/2026]',14.33617,8.040628,9.986369,7.988136,4.610755E-10,4.610755E-10,1.245866,24.98036
'[19:15:02.748 21/01/2026]',-20.89971,-12.88072,-11.74831,-10.77954,4.610755E-10,4.610755E-10,-2.147192,14.27791
'[19:15:02.756 21/01/2026]',-20.89971,-12.88072,-11.74831,-10.77954,4.610755E-10,4.610755E-10,-2.147192,14.27791
'[19:15:02.764 21/01/2026]',-5.290291,-4.055779,-4.496667,-2.364711,4.610755E-10,4.610755E-10,-2.593001,-41.53896
'[19:15:02.772 21/01/2026]',-5.290291,-4.055779,-4.496667,-2.364711,4.610755E-10,4.610755E-10,-2.593001,-41.53896
'[19:15:02.780 21/01/2026]',15.10656,8.99127,8.93254,6.81474,4.610755E-10,4.610755E-10,5.03645,23.68621
'[19:15:02.788 21/01/2026]',15.10656,8.99127,8.93254,6.81474,4.610755E-10,4.610755E-10,5.03645,23.68621
'[19:15:02.796 21/01/2026]',-1.680875,-1.18644,-0.08656319,-0.6652478,4.610755E-10,4.610755E-10,0.5480029,-25.46544
'[19:15:02.804 21/01/2026]',-1.680875,-1.18644,-0.08656319,-0.6652478,4.610755E-10,4.610755E-10,0.5480029,-25.46544
'[19:15:02.812 21/01/2026]',-1.680875,-1.18644,-0.08656319,-0.6652478,4.610755E-10,4.610755E-10,0.5480029,-25.46544
'[19:15:02.820 21/01/2026]',-5.888633,-3.358272,-3.388124,-3.396563,4.610755E-10,4.610755E-10,-3.396403,26.41308
'[19:15:02.828 21/01/2026]',-0.01951261,-3.163693,-0.2451963,-0.6796877,4.610755E-10,4.610755E-10,-0.3982347,-13.70068
'[19:15:02.836 21/01/2026]',-0.01951261,-3.163693,-0.2451963,-0.6796877,4.610755E-10,4.610755E-10,-0.3982347,-13.70068
'[19:15:02.844 21/01/2026]',4.526705,13.38163,2.984512,6.813982,4.610755E-10,4.610755E-10,3.830003,15.73165
'[19:15:02.852 21/01/2026]',4.526705,13.38163,2.984512,6.813982,4.610755E-10,4.610755E-10,3.830003,15.73165
'[19:15:02.860 21/01/2026]',-0.4539736,-7.78646,-1.174728,-2.490404,4.610755E-10,4.610755E-10,-0.9027393,-11.99947
'[19:15:02.868 21/01/2026]',-0.4539736,-7.78646,-1.174728,-2.490404,4.610755E-10,4.610755E-10,-0.9027393,-11.99947
'[19:15:02.876 21/01/2026]',-0.4539736,-7.78646,-1.174728,-2.490404,4.610755E-10,4.610755E-10,-0.9027393,-11.99947
'[19:15:02.884 21/01/2026]',-0.4539736,-7.78646,-1.174728,-2.490404,4.610755E-10,4.610755E-10,-0.9027393,-11.99947
'[19:15:02.892 21/01/2026]',-0.4539736,-7.78646,-1.174728,-2.490404,4.610755E-10,4.610755E-10,-0.9027393,-11.99947
'[19:15:02.900 21/01/2026]',-4.037727,-3.29127,-0.8098125,-4.266075,4.610755E-10,4.610755E-10,-4.051988,-0.4704061
'[19:15:02.908 21/01/2026]',-0.1249393,1.957507,-1.751857,2.76575,4.610755E-10,4.610755E-10,2.944902,5.084822
'[19:15:02.916 21/01/2026]',3.841227,4.785274,2.718606,1.804599,4.610755E-10,4.610755E-10,1.679749,4.740613
'[19:15:02.924 21/01/2026]',3.841227,4.785274,2.718606,1.804599,4.610755E-10,4.610755E-10,1.679749,4.740613
'[19:15:02.932 21/01/2026]',-1.415806,-4.012807,1.121164,-1.973105,4.610755E-10,4.610755E-10,-3.036838,-15.8987
'[19:15:02.940 21/01/2026]',-1.415806,-4.012807,1.121164,-1.973105,4.610755E-10,4.610755E-10,-3.036838,-15.8987
'[19:15:02.948 21/01/2026]',0.1523071,-0.01949756,-1.061412,1.83195,4.610755E-10,4.610755E-10,-0.1856974,17.39853
'[19:15:02.956 21/01/2026]',0.1523071,-0.01949756,-1.061412,1.83195,4.610755E-10,4.610755E-10,-0.1856974,17.39853
'[19:15:02.964 21/01/2026]',-1.769299,-1.07381,-2.478857,-4.510962,4.610755E-10,4.610755E-10,0.1623721,-12.49754
'[19:15:02.972 21/01/2026]',-1.769299,-1.07381,-2.478857,-4.510962,4.610755E-10,4.610755E-10,0.1623721,-12.49754
'[19:15:02.980 21/01/2026]',-1.769299,-1.07381,-2.478857,-4.510962,4.610755E-10,4.610755E-10,0.1623721,-12.49754
'[19:15:02.988 21/01/2026]',2.27926,2.982635,3.223928,3.074639,4.610755E-10,4.610755E-10,0.790657,-6.116155
'[19:15:02.996 21/01/2026]',2.27926,2.982635,3.223928,3.074639,4.610755E-10,4.610755E-10,0.790657,-6.116155
'[19:15:03.004 21/01/2026]',-0.906704,-2.535363,-0.1018883,0.7236073,4.610755E-10,4.610755E-10,-0.8462356,26.34005
'[19:15:03.012 21/01/2026]',-2.11438,-0.4915853,-2.751402,-2.470135,4.610755E-10,4.610755E-10,1.487424,-23.34394
'[19:15:03.020 21/01/2026]',1.378844,2.095183,0.9671684,1.122227,4.610755E-10,4.610755E-10,-3.144428,-8.333709
'[19:15:03.028 21/01/2026]',1.378844,2.095183,0.9671684,1.122227,4.610755E-10,4.610755E-10,-3.144428,-8.333709
'[19:15:03.036 21/01/2026]',1.378844,2.095183,0.9671684,1.122227,4.610755E-10,4.610755E-10,-3.144428,-8.333709
'[19:15:03.044 21/01/2026]',1.166081,-1.003779,2.798373,2.069823,4.610755E-10,4.610755E-10,1.904854,22.29607
'[19:15:03.052 21/01/2026]',-1.66492,0.2566686,-2.112396,-2.936441,4.610755E-10,4.610755E-10,0.1993531,-10.10755
'[19:15:03.060 21/01/2026]',-0.7894119,0.3663579,-0.9903482,0.701966,4.610755E-10,4.610755E-10,-0.9093353,2.446338
'[19:15:03.068 21/01/2026]',3.496608,0.8952094,3.045767,3.598431,4.610755E-10,4.610755E-10,0.7560852,6.152525
'[19:15:03.076 21/01/2026]',-1.940513,-0.8266658,-0.492007,-3.021062,4.610755E-10,4.610755E-10,-0.129906,-11.95504
'[19:15:03.084 21/01/2026]',-1.416815,-0.1030171,-0.7437061,-0.3356922,4.610755E-10,4.610755E-10,0.4183072,10.25657
'[19:15:03.092 21/01/2026]',0.5012128,-0.3321044,-1.384213,-0.01336479,4.610755E-10,4.610755E-10,-1.595178,12.86398
'[19:15:03.100 21/01/2026]',0.5012128,-0.3321044,-1.384213,-0.01336479,4.610755E-10,4.610755E-10,-1.595178,12.86398
'[19:15:03.108 21/01/2026]',-0.5671973,-3.110075,0.7478815,-2.094666,4.610755E-10,4.610755E-10,-0.2054438,-25.35653
'[19:15:03.116 21/01/2026]',3.186349,5.253613,3.294191,3.234202,4.610755E-10,4.610755E-10,0.1355346,4.660052
'[19:15:03.124 21/01/2026]',-5.522302,-6.94636,-7.615415,-4.644402,4.610755E-10,4.610755E-10,-0.7764079,-3.790681
'[19:15:03.132 21/01/2026]',-5.522302,-6.94636,-7.615415,-4.644402,4.610755E-10,4.610755E-10,-0.7764079,-3.790681
'[19:15:03.140 21/01/2026]',6.609738,7.937502,8.59133,7.348687,4.610755E-10,4.610755E-10,4.864311,2.105597
'[19:15:03.148 21/01/2026]',-0.4584089,-0.3364024,-0.8031802,-0.7634879,4.610755E-10,4.610755E-10,-0.6855381,7.941331
'[19:15:03.156 21/01/2026]',-3.914713,-3.572303,-3.755574,-4.170144,4.610755E-10,4.610755E-10,-2.072737,-17.20335
'[19:15:03.164 21/01/2026]',-0.5468848,-2.052078,-3.186565,-0.4302733,4.610755E-10,4.610755E-10,-2.55635,-8.449163
'[19:15:03.172 21/01/2026]',3.370968,5.354137,4.489832,3.038844,4.610755E-10,4.610755E-10,1.863951,46.51466
'[19:15:03.180 21/01/2026]',-12.92735,-21.23562,-3.607246,-6.386047,4.610755E-10,4.610755E-10,0.139429,-46.76239
'[19:15:03.188 21/01/2026]',-12.92735,-21.23562,-3.607246,-6.386047,4.610755E-10,4.610755E-10,0.139429,-46.76239
'[19:15:03.196 21/01/2026]',16.27309,25.98898,3.69428,6.532075,4.610755E-10,4.610755E-10,0.2452674,-2.463004
'[19:15:03.204 21/01/2026]',-0.01379589,-0.3329019,-2.251917,-1.008049,4.610755E-10,4.610755E-10,-6.026813,16.70882
'[19:15:03.212 21/01/2026]',-8.830512,-12.59046,1.30537,-0.4968291,4.610755E-10,4.610755E-10,8.134349,11.20902
'[19:15:03.220 21/01/2026]',2.606087,4.49808,1.303731,0.06568879,4.610755E-10,4.610755E-10,0.238515,4.30724
'[19:15:03.228 21/01/2026]',2.606087,4.49808,1.303731,0.06568879,4.610755E-10,4.610755E-10,0.238515,4.30724
'[19:15:03.236 21/01/2026]',2.799334,1.218869,-3.148536,-2.06166,4.610755E-10,4.610755E-10,-6.142329,-41.25204
'[19:15:03.244 21/01/2026]',0.1584857,1.438885,2.424516,3.511122,4.610755E-10,4.610755E-10,4.763461,22.72565
'[19:15:03.252 21/01/2026]',-0.7042703,-0.7257726,3.119381,0.4830901,4.610755E-10,4.610755E-10,0.07634353,6.502498
'[19:15:03.260 21/01/2026]',-3.590174,-5.111043,-7.342618,-5.6785,4.610755E-10,4.610755E-10,-2.420519,-25.76336
'[19:15:03.268 21/01/2026]',1.557213,2.135732,-0.3941726,0.06605417,4.610755E-10,4.610755E-10,-2.062417,0.07062266
'[19:15:03.276 21/01/2026]',1.557213,2.135732,-0.3941726,0.06605417,4.610755E-10,4.610755E-10,-2.062417,0.07062266
'[19:15:03.284 21/01/2026]',3.048908,3.375721,6.582873,6.958813,4.610755E-10,4.610755E-10,5.121209,29.70935
'[19:15:03.292 21/01/2026]',-0.3494934,0.9991106,0.1038319,-1.805258,4.610755E-10,4.610755E-10,1.228028,-17.56387
'[19:15:03.300 21/01/2026]',-0.3494934,0.9991106,0.1038319,-1.805258,4.610755E-10,4.610755E-10,1.228028,-17.56387
'[19:15:03.308 21/01/2026]',-5.469514,-9.915516,-6.996697,-7.120127,4.610755E-10,4.610755E-10,-10.75486,-12.51405
'[19:15:03.316 21/01/2026]',-5.469514,-9.915516,-6.996697,-7.120127,4.610755E-10,4.610755E-10,-10.75486,-12.51405
'[19:15:03.324 21/01/2026]',5.111184,8.293445,2.496547,5.719073,4.610755E-10,4.610755E-10,8.36764,3.468147
'[19:15:03.332 21/01/2026]',5.111184,8.293445,2.496547,5.719073,4.610755E-10,4.610755E-10,8.36764,3.468147
'[19:15:03.340 21/01/2026]',5.111184,8.293445,2.496547,5.719073,4.610755E-10,4.610755E-10,8.36764,3.468147
'[19:15:03.348 21/01/2026]',0.7608126,1.310676,4.455911,1.614848,4.610755E-10,4.610755E-10,0.4937553,29.9353
'[19:15:03.356 21/01/2026]',0.7608126,1.310676,4.455911,1.614848,4.610755E-10,4.610755E-10,0.4937553,29.9353
'[19:15:03.364 21/01/2026]',0.7608126,1.310676,4.455911,1.614848,4.610755E-10,4.610755E-10,0.4937553,29.9353
'[19:15:03.372 21/01/2026]',0.7608126,1.310676,4.455911,1.614848,4.610755E-10,4.610755E-10,0.4937553,29.9353
'[19:15:03.380 21/01/2026]',-2.615168,-4.644774,-2.548411,-1.824534,4.610755E-10,4.610755E-10,-2.905918,-10.10635
'[19:15:03.388 21/01/2026]',-2.615168,-4.644774,-2.548411,-1.824534,4.610755E-10,4.610755E-10,-2.905918,-10.10635
'[19:15:03.396 21/01/2026]',-2.289849,-2.699775,-1.595043,-1.292124,4.610755E-10,4.610755E-10,-0.399625,-14.09336
'[19:15:03.404 21/01/2026]',-0.2681847,-0.4217348,-0.2377543,-1.805478,4.610755E-10,4.610755E-10,0.2410651,12.31026
'[19:15:03.412 21/01/2026]',-0.2681847,-0.4217348,-0.2377543,-1.805478,4.610755E-10,4.610755E-10,0.2410651,12.31026
'[19:15:03.420 21/01/2026]',9.079539,13.21667,2.526565,5.340223,4.610755E-10,4.610755E-10,1.311056,2.874715
'[19:15:03.428 21/01/2026]',9.079539,13.21667,2.526565,5.340223,4.610755E-10,4.610755E-10,1.311056,2.874715
'[19:15:03.436 21/01/2026]',-7.451476,-11.96884,-0.05486823,-4.478427,4.610755E-10,4.610755E-10,-3.069327,-38.82361
'[19:15:03.444 21/01/2026]',-7.451476,-11.96884,-0.05486823,-4.478427,4.610755E-10,4.610755E-10,-3.069327,-38.82361
'[19:15:03.452 21/01/2026]',-0.4336261,1.190413,-3.992371,-0.3418336,4.610755E-10,4.610755E-10,3.495396,35.87826
'[19:15:03.460 21/01/2026]',-0.4336261,1.190413,-3.992371,-0.3418336,4.610755E-10,4.610755E-10,3.495396,35.87826
'[19:15:03.468 21/01/2026]',4.161882,5.164201,5.318188,4.535774,4.610755E-10,4.610755E-10,0.8225697,-39.48639
'[19:15:03.476 21/01/2026]',4.161882,5.164201,5.318188,4.535774,4.610755E-10,4.610755E-10,0.8225697,-39.48639
'[19:15:03.484 21/01/2026]',-0.3523704,0.8903034,-1.356953,-1.137665,4.610755E-10,4.610755E-10,-0.6002049,30.63728
'[19:15:03.492 21/01/2026]',-0.3523704,0.8903034,-1.356953,-1.137665,4.610755E-10,4.610755E-10,-0.6002049,30.63728
'[19:15:03.500 21/01/2026]',-4.335253,-8.228958,-4.494712,-6.101458,4.610755E-10,4.610755E-10,-5.925585,-25.8229
'[19:15:03.508 21/01/2026]',-4.335253,-8.228958,-4.494712,-6.101458,4.610755E-10,4.610755E-10,-5.925585,-25.8229
'[19:15:03.516 21/01/2026]',-4.335253,-8.228958,-4.494712,-6.101458,4.610755E-10,4.610755E-10,-5.925585,-25.8229
'[19:15:03.524 21/01/2026]',3.950669,6.320779,7.079623,6.480818,4.610755E-10,4.610755E-10,6.714989,2.886442
'[19:15:03.532 21/01/2026]',3.950669,6.320779,7.079623,6.480818,4.610755E-10,4.610755E-10,6.714989,2.886442
'[19:15:03.540 21/01/2026]',3.950669,6.320779,7.079623,6.480818,4.610755E-10,4.610755E-10,6.714989,2.886442
'[19:15:03.548 21/01/2026]',3.950669,6.320779,7.079623,6.480818,4.610755E-10,4.610755E-10,6.714989,2.886442
'[19:15:03.556 21/01/2026]',3.950669,6.320779,7.079623,6.480818,4.610755E-10,4.610755E-10,6.714989,2.886442
'[19:15:03.564 21/01/2026]',3.950669,6.320779,7.079623,6.480818,4.610755E-10,4.610755E-10,6.714989,2.886442
'[19:15:03.572 21/01/2026]',-3.806898,-5.703678,-6.444776,-4.568863,4.610755E-10,4.610755E-10,-5.173883,34.97191
'[19:15:03.580 21/01/2026]',-3.806898,-5.703678,-6.444776,-4.568863,4.610755E-10,4.610755E-10,-5.173883,34.97191
'[19:15:03.588 21/01/2026]',-3.806898,-5.703678,-6.444776,-4.568863,4.610755E-10,4.610755E-10,-5.173883,34.97191
'[19:15:03.596 21/01/2026]',3.505749,3.857784,3.393023,1.700478,4.610755E-10,4.610755E-10,2.718265,-29.52463
'[19:15:03.604 21/01/2026]',0.834845,1.526577,2.830283,2.90761,4.610755E-10,4.610755E-10,2.216858,6.218248
'[19:15:03.612 21/01/2026]',-4.995906,-4.019989,-5.492942,-5.262704,4.610755E-10,4.610755E-10,-4.388466,15.3739
'[19:15:03.620 21/01/2026]',3.827522,1.857765,0.5984364,1.385338,4.610755E-10,4.610755E-10,1.487221,-39.2641
'[19:15:03.628 21/01/2026]',0.6826808,1.318401,1.587667,3.382674,4.610755E-10,4.610755E-10,1.373195,9.414558
'[19:15:03.636 21/01/2026]',0.6826808,1.318401,1.587667,3.382674,4.610755E-10,4.610755E-10,1.373195,9.414558
'[19:15:03.644 21/01/2026]',-7.417772,-6.488108,-3.752599,-5.054535,4.610755E-10,4.610755E-10,-3.45707,21.2484
'[19:15:03.652 21/01/2026]',-7.417772,-6.488108,-3.752599,-5.054535,4.610755E-10,4.610755E-10,-3.45707,21.2484
'[19:15:03.660 21/01/2026]',8.969948,9.28208,6.543832,6.486314,4.610755E-10,4.610755E-10,4.385422,4.371613
'[19:15:03.668 21/01/2026]',8.969948,9.28208,6.543832,6.486314,4.610755E-10,4.610755E-10,4.385422,4.371613
'[19:15:03.676 21/01/2026]',-4.612501,-5.442003,-7.560416,-5.737695,4.610755E-10,4.610755E-10,-4.452305,-12.20697
'[19:15:03.684 21/01/2026]',-4.612501,-5.442003,-7.560416,-5.737695,4.610755E-10,4.610755E-10,-4.452305,-12.20697
'[19:15:03.692 21/01/2026]',-4.612501,-5.442003,-7.560416,-5.737695,4.610755E-10,4.610755E-10,-4.452305,-12.20697
'[19:15:03.700 21/01/2026]',-0.8285429,1.28465,3.449813,1.878571,4.610755E-10,4.610755E-10,3.096,-1.761806
'[19:15:03.708 21/01/2026]',-0.8285429,1.28465,3.449813,1.878571,4.610755E-10,4.610755E-10,3.096,-1.761806
'[19:15:03.716 21/01/2026]',0.5355858,-0.7050237,-0.4674932,0.1091509,4.610755E-10,4.610755E-10,-1.389639,5.455028
'[19:15:03.724 21/01/2026]',0.5355858,-0.7050237,-0.4674932,0.1091509,4.610755E-10,4.610755E-10,-1.389639,5.455028
'[19:15:03.732 21/01/2026]',0.5355858,-0.7050237,-0.4674932,0.1091509,4.610755E-10,4.610755E-10,-1.389639,5.455028
'[19:15:03.740 21/01/2026]',0.5355858,-0.7050237,-0.4674932,0.1091509,4.610755E-10,4.610755E-10,-1.389639,5.455028
'[19:15:03.748 21/01/2026]',0.09080561,-1.353303,0.4480312,0.05679811,4.610755E-10,4.610755E-10,-0.9477177,13.60507
'[19:15:03.756 21/01/2026]',-0.9319701,-0.4536382,-2.608173,-1.558698,4.610755E-10,4.610755E-10,-1.312613,-37.42461
'[19:15:03.764 21/01/2026]',0.6803085,0.8581373,1.712857,-0.9940521,4.610755E-10,4.610755E-10,0.2815632,-23.98634
'[19:15:03.772 21/01/2026]',0.8515334,2.488727,0.8167446,3.385256,4.610755E-10,4.610755E-10,6.753439,44.61407
'[19:15:03.780 21/01/2026]',0.6337598,0.2106304,2.415076,1.469616,4.610755E-10,4.610755E-10,-3.88845,15.34186
'[19:15:03.788 21/01/2026]',-0.08110027,-0.6714256,1.073984,-1.586519,4.610755E-10,4.610755E-10,-1.658411,-25.0302
'[19:15:03.796 21/01/2026]',-0.08110027,-0.6714256,1.073984,-1.586519,4.610755E-10,4.610755E-10,-1.658411,-25.0302
'[19:15:03.804 21/01/2026]',-1.714691,-2.157893,-5.442961,-2.186177,4.610755E-10,4.610755E-10,1.272514,-13.82853
'[19:15:03.812 21/01/2026]',0.106016,2.590158,4.451035,3.800601,4.610755E-10,4.610755E-10,1.347295,12.47496
'[19:15:03.820 21/01/2026]',0.616163,-1.424974,-0.9951314,-1.648221,4.610755E-10,4.610755E-10,-1.292762,40.31927
'[19:15:03.828 21/01/2026]',-2.558639,-3.297781,-3.01082,-4.710811,4.610755E-10,4.610755E-10,-2.480282,-49.94585
'[19:15:03.836 21/01/2026]',-2.558639,-3.297781,-3.01082,-4.710811,4.610755E-10,4.610755E-10,-2.480282,-49.94585
'[19:15:03.844 21/01/2026]',-2.558639,-3.297781,-3.01082,-4.710811,4.610755E-10,4.610755E-10,-2.480282,-49.94585
'[19:15:03.852 21/01/2026]',0.7730221,2.799977,0.4830451,2.669024,4.610755E-10,4.610755E-10,-0.04797955,-12.09689
'[19:15:03.860 21/01/2026]',-13.59632,-15.90435,-3.921091,-3.190779,4.610755E-10,4.610755E-10,3.742069,15.74114
'[19:15:03.868 21/01/2026]',34.39749,36.6595,16.60338,15.22207,4.610755E-10,4.610755E-10,2.607602,32.48571
'[19:15:03.876 21/01/2026]',-17.51522,-19.33674,-12.05636,-13.11101,4.610755E-10,4.610755E-10,-8.171982,-30.50235
'[19:15:03.884 21/01/2026]',-3.153481,-1.852324,0.5709899,2.789841,4.610755E-10,4.610755E-10,7.652301,-1.057077
'[19:15:03.892 21/01/2026]',1.895379,1.798996,1.168088,-0.4786784,4.610755E-10,4.610755E-10,-4.245045,23.9499
'[19:15:03.900 21/01/2026]',4.450729,4.151899,1.475784,4.383779,4.610755E-10,4.610755E-10,-0.7692043,-13.3244
'[19:15:03.908 21/01/2026]',-0.6985415,-0.4512658,0.4970153,-3.758211,4.610755E-10,4.610755E-10,2.86073,3.416546
'[19:15:03.916 21/01/2026]',-3.814816,-6.159944,-3.82767,-2.556046,4.610755E-10,4.610755E-10,-3.892091,-13.00212
'[19:15:03.924 21/01/2026]',-1.026776,0.9534381,-1.224484,0.9315794,4.610755E-10,4.610755E-10,-1.399526,-18.15688
'[19:15:03.932 21/01/2026]',-1.026776,0.9534381,-1.224484,0.9315794,4.610755E-10,4.610755E-10,-1.399526,-18.15688
'[19:15:03.940 21/01/2026]',3.039217,4.127731,5.305098,4.092746,4.610755E-10,4.610755E-10,2.842159,37.42456
'[19:15:03.948 21/01/2026]',-1.116209,-3.388914,-4.001963,-2.735672,4.610755E-10,4.610755E-10,-1.93528,-16.53368
'[19:15:03.956 21/01/2026]',1.025195,1.649579,1.111977,0.8395196,4.610755E-10,4.610755E-10,0.2985899,28.78997
'[19:15:03.964 21/01/2026]',-1.835184,-2.439519,-1.22483,-1.735688,4.610755E-10,4.610755E-10,-1.707785,-39.05779
'[19:15:03.972 21/01/2026]',-0.4478278,2.110666,0.6164762,0.7121038,4.610755E-10,4.610755E-10,0.8656268,29.80317
'[19:15:03.980 21/01/2026]',2.797009,3.659288,2.0383,2.605802,4.610755E-10,4.610755E-10,1.975415,18.05197
'[19:15:03.988 21/01/2026]',-3.388727,-6.775335,-2.785963,-3.346209,4.610755E-10,4.610755E-10,-3.707376,-36.04456
'[19:15:03.996 21/01/2026]',-6.34551,-7.461447,-2.257446,-3.451795,4.610755E-10,4.610755E-10,1.405296,3.207163
'[19:15:04.004 21/01/2026]',18.58812,21.90049,8.370691,8.755322,4.610755E-10,4.610755E-10,2.700811,15.62394
'[19:15:04.012 21/01/2026]',-10.45802,-9.117498,-5.88552,-4.108144,4.610755E-10,4.610755E-10,-1.956529,-25.30989
'[19:15:04.020 21/01/2026]',-10.45802,-9.117498,-5.88552,-4.108144,4.610755E-10,4.610755E-10,-1.956529,-25.30989
'[19:15:04.028 21/01/2026]',-10.45802,-9.117498,-5.88552,-4.108144,4.610755E-10,4.610755E-10,-1.956529,-25.30989
'[19:15:04.036 21/01/2026]',-3.382537,-7.832237,-0.5521055,-2.953636,4.610755E-10,4.610755E-10,-2.130821,23.65424
'[19:15:04.044 21/01/2026]',-3.382537,-7.832237,-0.5521055,-2.953636,4.610755E-10,4.610755E-10,-2.130821,23.65424
'[19:15:04.052 21/01/2026]',-3.382537,-7.832237,-0.5521055,-2.953636,4.610755E-10,4.610755E-10,-2.130821,23.65424
'[19:15:04.060 21/01/2026]',-3.382537,-7.832237,-0.5521055,-2.953636,4.610755E-10,4.610755E-10,-2.130821,23.65424
'[19:15:04.068 21/01/2026]',-1.127004,-0.1245001,-2.494292,-1.36499,4.610755E-10,4.610755E-10,-3.856942,-21.5817
'[19:15:04.076 21/01/2026]',13.14312,17.07042,9.839783,12.77611,4.610755E-10,4.610755E-10,12.67241,16.91304
'[19:15:04.084 21/01/2026]',13.14312,17.07042,9.839783,12.77611,4.610755E-10,4.610755E-10,12.67241,16.91304
'[19:15:04.092 21/01/2026]',-7.221725,-6.573614,-6.934874,-6.7127,4.610755E-10,4.610755E-10,-6.575534,3.066638
'[19:15:04.100 21/01/2026]',-0.3187686,-2.231223,3.973413,-0.2289224,4.610755E-10,4.610755E-10,-0.08430126,-7.938393
'[19:15:04.108 21/01/2026]',-0.3187686,-2.231223,3.973413,-0.2289224,4.610755E-10,4.610755E-10,-0.08430126,-7.938393
'[19:15:04.116 21/01/2026]',-0.7497172,0.2088247,-1.065673,0.8140435,4.610755E-10,4.610755E-10,1.122139,4.995117
'[19:15:04.124 21/01/2026]',-0.7497172,0.2088247,-1.065673,0.8140435,4.610755E-10,4.610755E-10,1.122139,4.995117
'[19:15:04.132 21/01/2026]',-1.030233,-4.240004,-3.202778,-0.2327868,4.610755E-10,4.610755E-10,-1.296995,22.0771
'[19:15:04.140 21/01/2026]',-1.030233,-4.240004,-3.202778,-0.2327868,4.610755E-10,4.610755E-10,-1.296995,22.0771
'[19:15:04.148 21/01/2026]',3.019446,6.28743,3.988986,2.556082,4.610755E-10,4.610755E-10,1.948874,-21.39545
'[19:15:04.156 21/01/2026]',3.019446,6.28743,3.988986,2.556082,4.610755E-10,4.610755E-10,1.948874,-21.39545
'[19:15:04.164 21/01/2026]',3.019446,6.28743,3.988986,2.556082,4.610755E-10,4.610755E-10,1.948874,-21.39545
'[19:15:04.172 21/01/2026]',-1.943615,-1.285509,-2.131021,-4.177576,4.610755E-10,4.610755E-10,-2.347199,-10.11403
'[19:15:04.180 21/01/2026]',-1.943615,-1.285509,-2.131021,-4.177576,4.610755E-10,4.610755E-10,-2.347199,-10.11403
'[19:15:04.188 21/01/2026]',-4.514477,-4.581704,-3.217346,-2.371885,4.610755E-10,4.610755E-10,-3.282396,-4.696552
'[19:15:04.196 21/01/2026]',-4.514477,-4.581704,-3.217346,-2.371885,4.610755E-10,4.610755E-10,-3.282396,-4.696552
'[19:15:04.204 21/01/2026]',-4.514477,-4.581704,-3.217346,-2.371885,4.610755E-10,4.610755E-10,-3.282396,-4.696552
'[19:15:04.212 21/01/2026]',-4.514477,-4.581704,-3.217346,-2.371885,4.610755E-10,4.610755E-10,-3.282396,-4.696552
'[19:15:04.220 21/01/2026]',5.130691,5.76135,4.939482,4.172332,4.610755E-10,4.610755E-10,2.604655,18.28862
'[19:15:04.228 21/01/2026]',5.130691,5.76135,4.939482,4.172332,4.610755E-10,4.610755E-10,2.604655,18.28862
'[19:15:04.236 21/01/2026]',4.493663,4.095485,5.4857,4.52931,4.610755E-10,4.610755E-10,6.314377,-5.974823
'[19:15:04.244 21/01/2026]',4.493663,4.095485,5.4857,4.52931,4.610755E-10,4.610755E-10,6.314377,-5.974823
'[19:15:04.252 21/01/2026]',-7.867852,-10.48174,-9.431915,-8.481493,4.610755E-10,4.610755E-10,-7.269424,-19.71431
'[19:15:04.260 21/01/2026]',1.677204,0.8104637,1.955366,-1.144387,4.610755E-10,4.610755E-10,-3.941028,18.36831
'[19:15:04.268 21/01/2026]',8.141522,10.07441,7.739181,11.6403,4.610755E-10,4.610755E-10,12.22743,-9.539092
'[19:15:04.276 21/01/2026]',8.141522,10.07441,7.739181,11.6403,4.610755E-10,4.610755E-10,12.22743,-9.539092
'[19:15:04.284 21/01/2026]',8.141522,10.07441,7.739181,11.6403,4.610755E-10,4.610755E-10,12.22743,-9.539092
'[19:15:04.292 21/01/2026]',-5.510234,-4.221033,-3.847378,-4.478839,4.610755E-10,4.610755E-10,-5.870693,15.53256
'[19:15:04.300 21/01/2026]',-5.510234,-4.221033,-3.847378,-4.478839,4.610755E-10,4.610755E-10,-5.870693,15.53256
'[19:15:04.308 21/01/2026]',-4.8496,-4.495307,-6.097245,-4.85386,4.610755E-10,4.610755E-10,-3.951525,4.680966
'[19:15:04.316 21/01/2026]',-4.8496,-4.495307,-6.097245,-4.85386,4.610755E-10,4.610755E-10,-3.951525,4.680966
'[19:15:04.324 21/01/2026]',2.674865,-0.385087,1.822925,-0.4508356,4.610755E-10,4.610755E-10,-0.3027665,-7.134696
'[19:15:04.332 21/01/2026]',2.674865,-0.385087,1.822925,-0.4508356,4.610755E-10,4.610755E-10,-0.3027665,-7.134696
'[19:15:04.340 21/01/2026]',4.499127,9.801605,7.859536,8.550333,4.610755E-10,4.610755E-10,9.857164,15.50708
'[19:15:04.348 21/01/2026]',4.499127,9.801605,7.859536,8.550333,4.610755E-10,4.610755E-10,9.857164,15.50708
'[19:15:04.356 21/01/2026]',-15.54073,-14.5531,-13.12104,-9.188858,4.610755E-10,4.610755E-10,-10.28176,-22.96434
'[19:15:04.364 21/01/2026]',-15.54073,-14.5531,-13.12104,-9.188858,4.610755E-10,4.610755E-10,-10.28176,-22.96434
'[19:15:04.372 21/01/2026]',-15.54073,-14.5531,-13.12104,-9.188858,4.610755E-10,4.610755E-10,-10.28176,-22.96434
'[19:15:04.380 21/01/2026]',11.41434,4.516494,6.367323,1.503844,4.610755E-10,4.610755E-10,2.523666,-6.372904
'[19:15:04.388 21/01/2026]',11.41434,4.516494,6.367323,1.503844,4.610755E-10,4.610755E-10,2.523666,-6.372904
'[19:15:04.396 21/01/2026]',11.41434,4.516494,6.367323,1.503844,4.610755E-10,4.610755E-10,2.523666,-6.372904
'[19:15:04.404 21/01/2026]',11.41434,4.516494,6.367323,1.503844,4.610755E-10,4.610755E-10,2.523666,-6.372904
'[19:15:04.412 21/01/2026]',9.687074,12.98913,6.489536,6.83239,4.610755E-10,4.610755E-10,3.687334,5.02937
'[19:15:04.420 21/01/2026]',-17.9572,-17.0939,-10.39594,-9.475739,4.610755E-10,4.610755E-10,-4.772235,6.665065
'[19:15:04.428 21/01/2026]',4.173241,5.305713,0.4810199,2.86545,4.610755E-10,4.610755E-10,3.310991,-0.7073075
'[19:15:04.436 21/01/2026]',4.173241,5.305713,0.4810199,2.86545,4.610755E-10,4.610755E-10,3.310991,-0.7073075
'[19:15:04.444 21/01/2026]',4.483681,2.307189,10.00534,5.517396,4.610755E-10,4.610755E-10,-0.4460212,5.202839
'[19:15:04.452 21/01/2026]',4.483681,2.307189,10.00534,5.517396,4.610755E-10,4.610755E-10,-0.4460212,5.202839
'[19:15:04.460 21/01/2026]',4.483681,2.307189,10.00534,5.517396,4.610755E-10,4.610755E-10,-0.4460212,5.202839
'[19:15:04.468 21/01/2026]',-7.884349,-6.270068,-9.180719,-8.469499,4.610755E-10,4.610755E-10,-3.1209,-2.153354
'[19:15:04.476 21/01/2026]',-7.884349,-6.270068,-9.180719,-8.469499,4.610755E-10,4.610755E-10,-3.1209,-2.153354
'[19:15:04.484 21/01/2026]',13.21743,15.14854,3.847793,8.205237,4.610755E-10,4.610755E-10,5.161505,-39.99231
'[19:15:04.492 21/01/2026]',2.395633,-12.40441,4.399004,-2.04137,4.610755E-10,4.610755E-10,-2.51945,26.80619
'[19:15:04.500 21/01/2026]',2.395633,-12.40441,4.399004,-2.04137,4.610755E-10,4.610755E-10,-2.51945,26.80619
'[19:15:04.508 21/01/2026]',-38.03493,-41.31068,-14.89395,-13.3701,4.610755E-10,4.610755E-10,-0.6583297,17.2934
'[19:15:04.516 21/01/2026]',5.824737,25.35638,2.280029,5.384365,4.610755E-10,4.610755E-10,0.197058,-14.93308
'[19:15:04.524 21/01/2026]',57.5463,72.86452,22.36938,23.94879,4.610755E-10,4.610755E-10,10.82288,50.88892
'[19:15:04.532 21/01/2026]',57.5463,72.86452,22.36938,23.94879,4.610755E-10,4.610755E-10,10.82288,50.88892
'[19:15:04.540 21/01/2026]',57.5463,72.86452,22.36938,23.94879,4.610755E-10,4.610755E-10,10.82288,50.88892
'[19:15:04.548 21/01/2026]',57.5463,72.86452,22.36938,23.94879,4.610755E-10,4.610755E-10,10.82288,50.88892
'[19:15:04.556 21/01/2026]',-19.47142,-42.00169,-8.177991,-12.50943,4.610755E-10,4.610755E-10,-6.602268,-33.89867
'[19:15:04.564 21/01/2026]',-21.5412,-23.86352,-6.623166,-4.276916,4.610755E-10,4.610755E-10,-3.256679,-14.37741
'[19:15:04.572 21/01/2026]',13.57006,23.35817,4.165254,2.615015,4.610755E-10,4.610755E-10,3.251288,10.85328
'[19:15:04.580 21/01/2026]',0.1641249,-1.313201,-0.879148,-0.1718525,4.610755E-10,4.610755E-10,-3.690028,-7.888255
'[19:15:04.588 21/01/2026]',-7.697583,-9.234074,-2.747992,-0.3813022,4.610755E-10,4.610755E-10,3.885166,45.37544
'[19:15:04.596 21/01/2026]',-0.3581467,-0.01051258,0.7213026,-1.879415,4.610755E-10,4.610755E-10,-5.16009,-8.696472
'[19:15:04.604 21/01/2026]',3.760621,5.696898,2.367758,2.93086,4.610755E-10,4.610755E-10,3.707462,-65.94285
'[19:15:04.612 21/01/2026]',-4.372007,-9.116183,-4.852846,-6.49339,4.610755E-10,4.610755E-10,-4.075016,28.89941
'[19:15:04.620 21/01/2026]',1.79169,3.718183,3.136478,7.703099,4.610755E-10,4.610755E-10,5.936477,27.07678
'[19:15:04.628 21/01/2026]',0.3610882,2.638889,0.02155494,-3.690515,4.610755E-10,4.610755E-10,-1.892148,-21.49792
'[19:15:04.636 21/01/2026]',0.3610882,2.638889,0.02155494,-3.690515,4.610755E-10,4.610755E-10,-1.892148,-21.49792
'[19:15:04.644 21/01/2026]',0.3610882,2.638889,0.02155494,-3.690515,4.610755E-10,4.610755E-10,-1.892148,-21.49792
'[19:15:04.652 21/01/2026]',1.783596,1.290389,0.7857363,0.5589563,4.610755E-10,4.610755E-10,0.3021911,13.64632
'[19:15:04.660 21/01/2026]',0.9344785,0.6813132,3.522425,4.151805,4.610755E-10,4.610755E-10,2.76008,-16.62701
'[19:15:04.668 21/01/2026]',-2.468293,-0.05041965,-4.345275,-2.288178,4.610755E-10,4.610755E-10,-1.038652,-1.242612
'[19:15:04.676 21/01/2026]',1.634345,2.30484,0.758705,-0.2901297,4.610755E-10,4.610755E-10,-1.805425,5.24182
'[19:15:04.684 21/01/2026]',-3.801908,-7.527477,-2.368994,-4.71959,4.610755E-10,4.610755E-10,-2.17322,-31.68978
'[19:15:04.692 21/01/2026]',2.870219,4.662271,3.102934,4.136229,4.610755E-10,4.610755E-10,4.587826,30.43711
'[19:15:04.700 21/01/2026]',1.084069,4.322307,2.776724,5.145962,4.610755E-10,4.610755E-10,0.5814973,17.00558
'[19:15:04.708 21/01/2026]',-1.438208,-6.382515,-5.239568,-7.368653,4.610755E-10,4.610755E-10,-3.835123,10.10559
'[19:15:04.716 21/01/2026]',-0.3654788,0.2411112,1.802031,1.359212,4.610755E-10,4.610755E-10,-0.2213563,-36.8581
'[19:15:04.724 21/01/2026]',-0.9112659,3.734876,0.8932771,2.667993,4.610755E-10,4.610755E-10,1.911921,23.47803
'[19:15:04.732 21/01/2026]',-0.9112659,3.734876,0.8932771,2.667993,4.610755E-10,4.610755E-10,1.911921,23.47803
'[19:15:04.740 21/01/2026]',-0.9112659,3.734876,0.8932771,2.667993,4.610755E-10,4.610755E-10,1.911921,23.47803
'[19:15:04.748 21/01/2026]',-2.966419,-7.63927,-2.422076,-2.148209,4.610755E-10,4.610755E-10,-3.244677,-7.390914
'[19:15:04.756 21/01/2026]',-16.00582,-24.09159,-6.572639,-9.237747,4.610755E-10,4.610755E-10,-0.4314431,-4.831388
'[19:15:04.764 21/01/2026]',22.1522,27.84751,9.244128,8.018387,4.610755E-10,4.610755E-10,1.020463,8.536208
'[19:15:04.772 21/01/2026]',26.46805,38.80823,10.83591,14.9886,4.610755E-10,4.610755E-10,3.87597,-9.904949
'[19:15:04.780 21/01/2026]',-23.53212,-37.04773,-9.545055,-12.09316,4.610755E-10,4.610755E-10,-0.09190397,-4.035827
'[19:15:04.788 21/01/2026]',-23.53212,-37.04773,-9.545055,-12.09316,4.610755E-10,4.610755E-10,-0.09190397,-4.035827
'[19:15:04.796 21/01/2026]',-20.71126,-19.34834,-11.04241,-9.751718,4.610755E-10,4.610755E-10,-9.085486,-21.64742
'[19:15:04.804 21/01/2026]',17.61553,20.57323,8.290891,8.763084,4.610755E-10,4.610755E-10,4.944009,37.10266
'[19:15:04.812 21/01/2026]',17.61553,20.57323,8.290891,8.763084,4.610755E-10,4.610755E-10,4.944009,37.10266
'[19:15:04.820 21/01/2026]',17.61553,20.57323,8.290891,8.763084,4.610755E-10,4.610755E-10,4.944009,37.10266
'[19:15:04.828 21/01/2026]',4.790213,3.2977,3.987566,1.659851,4.610755E-10,4.610755E-10,2.398082,-1.657705
'[19:15:04.836 21/01/2026]',4.790213,3.2977,3.987566,1.659851,4.610755E-10,4.610755E-10,2.398082,-1.657705
'[19:15:04.844 21/01/2026]',-15.04343,-16.34923,-11.18156,-9.685334,4.610755E-10,4.610755E-10,-9.672806,-32.81103
'[19:15:04.852 21/01/2026]',-15.04343,-16.34923,-11.18156,-9.685334,4.610755E-10,4.610755E-10,-9.672806,-32.81103
'[19:15:04.860 21/01/2026]',6.053104,7.970787,6.939506,7.673758,4.610755E-10,4.610755E-10,7.775596,1.469362
'[19:15:04.868 21/01/2026]',6.053104,7.970787,6.939506,7.673758,4.610755E-10,4.610755E-10,7.775596,1.469362
'[19:15:04.876 21/01/2026]',6.053104,7.970787,6.939506,7.673758,4.610755E-10,4.610755E-10,7.775596,1.469362
'[19:15:04.884 21/01/2026]',4.646794,5.325759,1.611087,1.514719,4.610755E-10,4.610755E-10,-1.936057,32.64997
'[19:15:04.892 21/01/2026]',4.646794,5.325759,1.611087,1.514719,4.610755E-10,4.610755E-10,-1.936057,32.64997
'[19:15:04.900 21/01/2026]',4.646794,5.325759,1.611087,1.514719,4.610755E-10,4.610755E-10,-1.936057,32.64997
'[19:15:04.908 21/01/2026]',-6.286868,-5.295028,-5.875799,-5.621426,4.610755E-10,4.610755E-10,-2.233143,-16.26447
'[19:15:04.916 21/01/2026]',-4.14112,-6.759125,-3.912651,-4.545048,4.610755E-10,4.610755E-10,-4.781601,3.606346
'[19:15:04.924 21/01/2026]',-4.14112,-6.759125,-3.912651,-4.545048,4.610755E-10,4.610755E-10,-4.781601,3.606346
'[19:15:04.932 21/01/2026]',9.579239,10.15098,8.955933,10.34772,4.610755E-10,4.610755E-10,8.708921,10.99443
'[19:15:04.940 21/01/2026]',9.579239,10.15098,8.955933,10.34772,4.610755E-10,4.610755E-10,8.708921,10.99443
'[19:15:04.948 21/01/2026]',-2.200232,-2.084918,-1.054056,-3.0042,4.610755E-10,4.610755E-10,-1.572753,-10.52425
'[19:15:04.956 21/01/2026]',-2.200232,-2.084918,-1.054056,-3.0042,4.610755E-10,4.610755E-10,-1.572753,-10.52425
'[19:15:04.964 21/01/2026]',-2.200232,-2.084918,-1.054056,-3.0042,4.610755E-10,4.610755E-10,-1.572753,-10.52425
'[19:15:04.972 21/01/2026]',-2.200232,-2.084918,-1.054056,-3.0042,4.610755E-10,4.610755E-10,-1.572753,-10.52425
'[19:15:04.980 21/01/2026]',-3.412565,-2.067681,-2.359297,-0.6873376,4.610755E-10,4.610755E-10,-1.164241,5.689631
'[19:15:04.988 21/01/2026]',3.543711,0.2076557,2.258534,0.9332809,4.610755E-10,4.610755E-10,5.32724,-11.14573
'[19:15:04.996 21/01/2026]',3.543711,0.2076557,2.258534,0.9332809,4.610755E-10,4.610755E-10,5.32724,-11.14573
'[19:15:05.004 21/01/2026]',-4.610317,-1.649366,-1.839953,-2.932131,4.610755E-10,4.610755E-10,-4.194702,3.792784
'[19:15:05.012 21/01/2026]',3.917926,4.100317,3.421554,6.353118,4.610755E-10,4.610755E-10,4.474238,-7.605442
'[19:15:05.020 21/01/2026]',3.917926,4.100317,3.421554,6.353118,4.610755E-10,4.610755E-10,4.474238,-7.605442
'[19:15:05.028 21/01/2026]',3.917926,4.100317,3.421554,6.353118,4.610755E-10,4.610755E-10,4.474238,-7.605442
'[19:15:05.036 21/01/2026]',-3.241798,-8.838833,-2.802109,-4.970442,4.610755E-10,4.610755E-10,-5.049119,-25.84939
'[19:15:05.044 21/01/2026]',-3.241798,-8.838833,-2.802109,-4.970442,4.610755E-10,4.610755E-10,-5.049119,-25.84939
'[19:15:05.052 21/01/2026]',-28.4842,-24.26028,-11.96811,-12.48291,4.610755E-10,4.610755E-10,-3.661993,58.05325
'[19:15:05.060 21/01/2026]',-28.4842,-24.26028,-11.96811,-12.48291,4.610755E-10,4.610755E-10,-3.661993,58.05325
'[19:15:05.068 21/01/2026]',-28.4842,-24.26028,-11.96811,-12.48291,4.610755E-10,4.610755E-10,-3.661993,58.05325
'[19:15:05.076 21/01/2026]',-28.4842,-24.26028,-11.96811,-12.48291,4.610755E-10,4.610755E-10,-3.661993,58.05325
'[19:15:05.084 21/01/2026]',-28.4842,-24.26028,-11.96811,-12.48291,4.610755E-10,4.610755E-10,-3.661993,58.05325
'[19:15:05.092 21/01/2026]',-28.4842,-24.26028,-11.96811,-12.48291,4.610755E-10,4.610755E-10,-3.661993,58.05325
'[19:15:05.100 21/01/2026]',16.47305,15.05963,5.677436,7.462682,4.610755E-10,4.610755E-10,3.077236,-22.38689
'[19:15:05.108 21/01/2026]',63.99308,71.45538,24.28056,25.428,4.610755E-10,4.610755E-10,8.554841,-10.65527
'[19:15:05.116 21/01/2026]',-42.69552,-54.26398,-13.24823,-16.04596,4.610755E-10,4.610755E-10,-4.248908,2.68537
'[19:15:05.124 21/01/2026]',-32.3589,-28.02284,-16.68991,-15.15899,4.610755E-10,4.610755E-10,-9.193008,-12.41323
'[19:15:05.132 21/01/2026]',31.58655,36.38476,16.98074,16.26467,4.610755E-10,4.610755E-10,11.58158,17.52531
'[19:15:05.140 21/01/2026]',31.58655,36.38476,16.98074,16.26467,4.610755E-10,4.610755E-10,11.58158,17.52531
'[19:15:05.148 21/01/2026]',4.43332,-0.510525,0.1575381,0.7301695,4.610755E-10,4.610755E-10,-2.306752,24.43433
'[19:15:05.156 21/01/2026]',4.43332,-0.510525,0.1575381,0.7301695,4.610755E-10,4.610755E-10,-2.306752,24.43433
'[19:15:05.164 21/01/2026]',4.43332,-0.510525,0.1575381,0.7301695,4.610755E-10,4.610755E-10,-2.306752,24.43433
'[19:15:05.172 21/01/2026]',-13.09309,-13.22565,-7.07839,-6.144893,4.610755E-10,4.610755E-10,-3.518078,-10.18106
'[19:15:05.180 21/01/2026]',-13.09309,-13.22565,-7.07839,-6.144893,4.610755E-10,4.610755E-10,-3.518078,-10.18106
'[19:15:05.188 21/01/2026]',-13.09309,-13.22565,-7.07839,-6.144893,4.610755E-10,4.610755E-10,-3.518078,-10.18106
'[19:15:05.196 21/01/2026]',-0.1322991,-0.4292821,2.6537,0.02236676,4.610755E-10,4.610755E-10,2.724475,-46.03128
'[19:15:05.204 21/01/2026]',8.939901,10.65948,3.757923,5.087566,4.610755E-10,4.610755E-10,3.453058,15.45902
'[19:15:05.212 21/01/2026]',8.939901,10.65948,3.757923,5.087566,4.610755E-10,4.610755E-10,3.453058,15.45902
'[19:15:05.220 21/01/2026]',-3.018091,-4.12705,-1.756997,-1.76919,4.610755E-10,4.610755E-10,-2.839309,27.56231
'[19:15:05.228 21/01/2026]',-3.018091,-4.12705,-1.756997,-1.76919,4.610755E-10,4.610755E-10,-2.839309,27.56231
'[19:15:05.236 21/01/2026]',-3.018091,-4.12705,-1.756997,-1.76919,4.610755E-10,4.610755E-10,-2.839309,27.56231
'[19:15:05.244 21/01/2026]',-3.018091,-4.12705,-1.756997,-1.76919,4.610755E-10,4.610755E-10,-2.839309,27.56231
'[19:15:05.252 21/01/2026]',-3.018091,-4.12705,-1.756997,-1.76919,4.610755E-10,4.610755E-10,-2.839309,27.56231
'[19:15:05.260 21/01/2026]',-4.464722,-4.621904,-1.329285,-2.286475,4.610755E-10,4.610755E-10,-0.1651984,-17.34622
'[19:15:05.268 21/01/2026]',-4.464722,-4.621904,-1.329285,-2.286475,4.610755E-10,4.610755E-10,-0.1651984,-17.34622
'[19:15:05.276 21/01/2026]',0.4659196,1.607953,-2.143258,2.248297,4.610755E-10,4.610755E-10,1.555382,19.1614
'[19:15:05.284 21/01/2026]',-2.204957,2.47473,1.498158,-0.5247666,4.610755E-10,4.610755E-10,1.833553,-4.68912
'[19:15:05.292 21/01/2026]',0.8495208,-5.1797,2.109678,-0.998988,4.610755E-10,4.610755E-10,-3.869594,3.930845
'[19:15:05.300 21/01/2026]',13.0271,12.77231,-0.509694,3.315237,4.610755E-10,4.610755E-10,-0.4742718,-6.36447
'[19:15:05.308 21/01/2026]',-10.9635,-8.079178,-1.427161,-2.812059,4.610755E-10,4.610755E-10,4.424855,-43.30685
'[19:15:05.316 21/01/2026]',-3.123693,-1.516014,-2.595785,0.06814026,4.610755E-10,4.610755E-10,-3.185834,26.78333
'[19:15:05.324 21/01/2026]',5.19623,2.661231,2.779423,-0.6822101,4.610755E-10,4.610755E-10,-2.372034,-3.925222
'[19:15:05.332 21/01/2026]',0.3094071,-3.300491,2.573762,0.1927674,4.610755E-10,4.610755E-10,3.243206,23.48449
'[19:15:05.340 21/01/2026]',-1.917054,2.875595,-3.007306,2.207674,4.610755E-10,4.610755E-10,1.939668,-2.760935
'[19:15:05.348 21/01/2026]',-2.057501,-2.707449,-2.442923,-6.789825,4.610755E-10,4.610755E-10,-8.207045,-8.259601
'[19:15:05.356 21/01/2026]',-2.057501,-2.707449,-2.442923,-6.789825,4.610755E-10,4.610755E-10,-8.207045,-8.259601
'[19:15:05.364 21/01/2026]',-0.2219161,-2.524178,1.639951,4.279735,4.610755E-10,4.610755E-10,7.994696,15.70164
'[19:15:05.372 21/01/2026]',10.65439,13.63154,9.352313,9.549984,4.610755E-10,4.610755E-10,3.416811,24.56549
'[19:15:05.380 21/01/2026]',-8.566961,-9.794453,-10.65645,-12.34661,4.610755E-10,4.610755E-10,-7.580504,-77.87463
'[19:15:05.388 21/01/2026]',-1.738877,-4.469667,-0.4163207,0.6793373,4.610755E-10,4.610755E-10,2.182217,-4.317829
'[19:15:05.396 21/01/2026]',2.623976,10.96821,6.351937,9.39819,4.610755E-10,4.610755E-10,3.547178,93.51225
'[19:15:05.404 21/01/2026]',6.89934,0.546382,1.502785,-1.607384,4.610755E-10,4.610755E-10,0.6647001,-59.16473
'[19:15:05.412 21/01/2026]',-9.391171,-12.31521,-5.945349,-8.959237,4.610755E-10,4.610755E-10,-6.433415,-4.93518
'[19:15:05.420 21/01/2026]',-3.027982,1.69868,-2.780834,4.040353,4.610755E-10,4.610755E-10,1.767783,36.22217
'[19:15:05.428 21/01/2026]',4.522137,5.324287,4.56366,1.903492,4.610755E-10,4.610755E-10,4.686649,-14.14448
'[19:15:05.436 21/01/2026]',4.522137,5.324287,4.56366,1.903492,4.610755E-10,4.610755E-10,4.686649,-14.14448
'[19:15:05.444 21/01/2026]',4.522137,5.324287,4.56366,1.903492,4.610755E-10,4.610755E-10,4.686649,-14.14448
'[19:15:05.452 21/01/2026]',1.691022,0.02632373,2.568643,0.6962967,4.610755E-10,4.610755E-10,-3.20795,-30.3996
'[19:15:05.460 21/01/2026]',1.691022,0.02632373,2.568643,0.6962967,4.610755E-10,4.610755E-10,-3.20795,-30.3996
'[19:15:05.468 21/01/2026]',-1.821523,-6.059402,-2.126897,-3.816641,4.610755E-10,4.610755E-10,-1.429327,14.82669
'[19:15:05.476 21/01/2026]',-3.361605,0.7990377,-4.650728,-0.3781152,4.610755E-10,4.610755E-10,-0.3794606,29.99997
'[19:15:05.484 21/01/2026]',3.045287,1.686522,3.181999,2.450137,4.610755E-10,4.610755E-10,-0.1644279,-36.39524
'[19:15:05.492 21/01/2026]',1.303901,2.077008,1.428527,0.2528555,4.610755E-10,4.610755E-10,1.304966,-4.052775
'[19:15:05.500 21/01/2026]',-2.097272,-4.688847,-2.834078,-4.285778,4.610755E-10,4.610755E-10,-1.748087,-6.945136
'[19:15:05.508 21/01/2026]',0.5314568,2.287962,0.7606511,2.274043,4.610755E-10,4.610755E-10,-1.365672,38.25508
'[19:15:05.516 21/01/2026]',2.59396,2.944878,0.8855204,2.063883,4.610755E-10,4.610755E-10,1.723584,-26.64656
'[19:15:05.524 21/01/2026]',-6.588537,-6.618164,-2.600011,-5.702324,4.610755E-10,4.610755E-10,-3.331434,11.52471
'[19:15:05.532 21/01/2026]',7.335278,7.234818,5.149917,8.237065,4.610755E-10,4.610755E-10,5.227883,-22.72902
'[19:15:05.540 21/01/2026]',-1.321202,-2.443612,-0.7474973,-1.353522,4.610755E-10,4.610755E-10,0.2731877,17.57999
'[19:15:05.548 21/01/2026]',-1.321202,-2.443612,-0.7474973,-1.353522,4.610755E-10,4.610755E-10,0.2731877,17.57999
'[19:15:05.556 21/01/2026]',-1.321202,-2.443612,-0.7474973,-1.353522,4.610755E-10,4.610755E-10,0.2731877,17.57999
'[19:15:05.564 21/01/2026]',-1.321202,-2.443612,-0.7474973,-1.353522,4.610755E-10,4.610755E-10,0.2731877,17.57999
'[19:15:05.572 21/01/2026]',-5.086151,-2.806122,-2.051647,-5.503694,4.610755E-10,4.610755E-10,-4.151606,-8.663369
'[19:15:05.580 21/01/2026]',2.471205,0.0869959,-0.5602322,1.883381,4.610755E-10,4.610755E-10,0.008355758,16.76982
'[19:15:05.588 21/01/2026]',2.471205,0.0869959,-0.5602322,1.883381,4.610755E-10,4.610755E-10,0.008355758,16.76982
'[19:15:05.596 21/01/2026]',2.471205,0.0869959,-0.5602322,1.883381,4.610755E-10,4.610755E-10,0.008355758,16.76982
'[19:15:05.604 21/01/2026]',-1.669735,-2.269662,0.317107,1.928191,4.610755E-10,4.610755E-10,5.995056,-9.825313
'[19:15:05.612 21/01/2026]',-1.669735,-2.269662,0.317107,1.928191,4.610755E-10,4.610755E-10,5.995056,-9.825313
'[19:15:05.620 21/01/2026]',1.811715,4.34326,1.636505,1.292089,4.610755E-10,4.610755E-10,-2.062734,-16.50274
'[19:15:05.628 21/01/2026]',2.776988,2.438557,0.3988681,-1.397143,4.610755E-10,4.610755E-10,-2.325757,37.64795
'[19:15:05.636 21/01/2026]',2.776988,2.438557,0.3988681,-1.397143,4.610755E-10,4.610755E-10,-2.325757,37.64795
'[19:15:05.644 21/01/2026]',-0.2665499,-3.434334,-0.7114775,0.6524209,4.610755E-10,4.610755E-10,3.802937,2.22844
'[19:15:05.652 21/01/2026]',-0.2665499,-3.434334,-0.7114775,0.6524209,4.610755E-10,4.610755E-10,3.802937,2.22844
'[19:15:05.660 21/01/2026]',-3.78213,-2.96586,-0.5856477,-1.627814,4.610755E-10,4.610755E-10,-1.472416,-67.96724
'[19:15:05.668 21/01/2026]',-3.78213,-2.96586,-0.5856477,-1.627814,4.610755E-10,4.610755E-10,-1.472416,-67.96724
'[19:15:05.676 21/01/2026]',-3.78213,-2.96586,-0.5856477,-1.627814,4.610755E-10,4.610755E-10,-1.472416,-67.96724
'[19:15:05.684 21/01/2026]',-13.90676,-8.254846,-3.369662,-0.2336679,4.610755E-10,4.610755E-10,2.850282,58.18315
'[19:15:05.692 21/01/2026]',12.49036,5.080022,2.421692,-1.276905,4.610755E-10,4.610755E-10,-0.4081088,31.02256
'[19:15:05.700 21/01/2026]',12.49036,5.080022,2.421692,-1.276905,4.610755E-10,4.610755E-10,-0.4081088,31.02256
'[19:15:05.708 21/01/2026]',12.49036,5.080022,2.421692,-1.276905,4.610755E-10,4.610755E-10,-0.4081088,31.02256
'[19:15:05.716 21/01/2026]',33.39373,31.72193,13.47873,12.28897,4.610755E-10,4.610755E-10,1.239162,-67.97462
'[19:15:05.724 21/01/2026]',33.39373,31.72193,13.47873,12.28897,4.610755E-10,4.610755E-10,1.239162,-67.97462
'[19:15:05.732 21/01/2026]',33.39373,31.72193,13.47873,12.28897,4.610755E-10,4.610755E-10,1.239162,-67.97462
'[19:15:05.740 21/01/2026]',-21.17647,-16.14076,-6.030273,-3.371052,4.610755E-10,4.610755E-10,0.4325776,15.92357
'[19:15:05.748 21/01/2026]',-18.78267,-18.61587,-7.823674,-8.111458,4.610755E-10,4.610755E-10,1.984889,18.95882
'[19:15:05.756 21/01/2026]',-18.78267,-18.61587,-7.823674,-8.111458,4.610755E-10,4.610755E-10,1.984889,18.95882
'[19:15:05.764 21/01/2026]',11.45875,10.193,1.696179,1.160396,4.610755E-10,4.610755E-10,-4.490991,-3.777534
'[19:15:05.772 21/01/2026]',11.45875,10.193,1.696179,1.160396,4.610755E-10,4.610755E-10,-4.490991,-3.777534
'[19:15:05.780 21/01/2026]',6.040024,5.070121,5.481813,4.888667,4.610755E-10,4.610755E-10,3.506903,-7.48811
'[19:15:05.788 21/01/2026]',6.040024,5.070121,5.481813,4.888667,4.610755E-10,4.610755E-10,3.506903,-7.48811
'[19:15:05.796 21/01/2026]',6.040024,5.070121,5.481813,4.888667,4.610755E-10,4.610755E-10,3.506903,-7.48811
'[19:15:05.804 21/01/2026]',-1.894129,3.892822,-0.09006704,3.772032,4.610755E-10,4.610755E-10,2.014034,-6.145776
'[19:15:05.812 21/01/2026]',-1.894129,3.892822,-0.09006704,3.772032,4.610755E-10,4.610755E-10,2.014034,-6.145776
'[19:15:05.820 21/01/2026]',-12.01894,-16.23077,-10.09808,-14.39161,4.610755E-10,4.610755E-10,-9.34755,19.44277
'[19:15:05.828 21/01/2026]',-12.01894,-16.23077,-10.09808,-14.39161,4.610755E-10,4.610755E-10,-9.34755,19.44277
'[19:15:05.836 21/01/2026]',7.87656,8.143231,7.81745,10.74297,4.610755E-10,4.610755E-10,8.928784,-5.381437
'[19:15:05.844 21/01/2026]',7.87656,8.143231,7.81745,10.74297,4.610755E-10,4.610755E-10,8.928784,-5.381437
'[19:15:05.852 21/01/2026]',2.235822,3.372131,1.044118,2.008745,4.610755E-10,4.610755E-10,-2.574601,7.371703
'[19:15:05.860 21/01/2026]',2.235822,3.372131,1.044118,2.008745,4.610755E-10,4.610755E-10,-2.574601,7.371703
'[19:15:05.868 21/01/2026]',2.235822,3.372131,1.044118,2.008745,4.610755E-10,4.610755E-10,-2.574601,7.371703
'[19:15:05.876 21/01/2026]',-2.995758,-2.635331,-2.375272,-4.880137,4.610755E-10,4.610755E-10,1.002662,12.07772
'[19:15:05.884 21/01/2026]',1.071389,-0.1608878,-0.4593449,2.492303,4.610755E-10,4.610755E-10,-3.216317,-12.18989
'[19:15:05.892 21/01/2026]',1.071389,-0.1608878,-0.4593449,2.492303,4.610755E-10,4.610755E-10,-3.216317,-12.18989
'[19:15:05.900 21/01/2026]',1.071389,-0.1608878,-0.4593449,2.492303,4.610755E-10,4.610755E-10,-3.216317,-12.18989
'[19:15:05.908 21/01/2026]',1.071389,-0.1608878,-0.4593449,2.492303,4.610755E-10,4.610755E-10,-3.216317,-12.18989
'[19:15:05.916 21/01/2026]',1.071389,-0.1608878,-0.4593449,2.492303,4.610755E-10,4.610755E-10,-3.216317,-12.18989
'[19:15:05.924 21/01/2026]',-1.286927,-1.162808,0.05788721,-2.580885,4.610755E-10,4.610755E-10,2.940328,-21.2363
'[19:15:05.932 21/01/2026]',-1.286927,-1.162808,0.05788721,-2.580885,4.610755E-10,4.610755E-10,2.940328,-21.2363
'[19:15:05.940 21/01/2026]',-2.149356,0.1485063,0.8759003,0.131822,4.610755E-10,4.610755E-10,-1.760372,0.8334234
'[19:15:05.948 21/01/2026]',0.4989903,-3.19082,-2.846834,-1.436428,4.610755E-10,4.610755E-10,-2.784963,15.27581
'[19:15:05.956 21/01/2026]',0.4989903,-3.19082,-2.846834,-1.436428,4.610755E-10,4.610755E-10,-2.784963,15.27581
'[19:15:05.964 21/01/2026]',5.650868,5.585853,6.332113,4.015663,4.610755E-10,4.610755E-10,0.9107958,-5.062602
'[19:15:05.972 21/01/2026]',5.596822,7.334025,1.191136,3.026081,4.610755E-10,4.610755E-10,4.864506,10.74927
'[19:15:05.980 21/01/2026]',5.596822,7.334025,1.191136,3.026081,4.610755E-10,4.610755E-10,4.864506,10.74927
'[19:15:05.988 21/01/2026]',5.596822,7.334025,1.191136,3.026081,4.610755E-10,4.610755E-10,4.864506,10.74927
'[19:15:05.996 21/01/2026]',-7.233578,-8.678917,-7.077726,-4.696507,4.610755E-10,4.610755E-10,-0.1093382,-27.06746
'[19:15:06.004 21/01/2026]',-7.233578,-8.678917,-7.077726,-4.696507,4.610755E-10,4.610755E-10,-0.1093382,-27.06746
'[19:15:06.012 21/01/2026]',-10.73923,-10.19102,0.3964443,-4.795083,4.610755E-10,4.610755E-10,-10.51456,-36.70845
'[19:15:06.020 21/01/2026]',12.7659,11.10168,5.193476,8.112466,4.610755E-10,4.610755E-10,8.883997,31.38508
'[19:15:06.028 21/01/2026]',-5.650695,-2.88818,-6.183698,-4.643545,4.610755E-10,4.610755E-10,0.3066922,40.00351
'[19:15:06.036 21/01/2026]',-2.222862,-3.506096,2.397727,-0.8309688,4.610755E-10,4.610755E-10,-3.68313,-22.11016
'[19:15:06.044 21/01/2026]',-2.222862,-3.506096,2.397727,-0.8309688,4.610755E-10,4.610755E-10,-3.68313,-22.11016
'[19:15:06.052 21/01/2026]',-2.222862,-3.506096,2.397727,-0.8309688,4.610755E-10,4.610755E-10,-3.68313,-22.11016
'[19:15:06.060 21/01/2026]',-2.222862,-3.506096,2.397727,-0.8309688,4.610755E-10,4.610755E-10,-3.68313,-22.11016
'[19:15:06.068 21/01/2026]',5.188745,6.843358,4.535694,5.925279,4.610755E-10,4.610755E-10,2.127219,-6.303676
'[19:15:06.076 21/01/2026]',0.8113812,-0.4682038,-4.812633,-3.499947,4.610755E-10,4.610755E-10,-0.4877474,24.08939
'[19:15:06.084 21/01/2026]',-8.768426,-8.561416,-3.174294,-4.525217,4.610755E-10,4.610755E-10,-1.905678,-12.86459
'[19:15:06.092 21/01/2026]',6.079082,7.908157,5.923246,5.711327,4.610755E-10,4.610755E-10,3.989542,-6.437294
'[19:15:06.100 21/01/2026]',4.976336,1.720725,0.2957469,0.8801074,4.610755E-10,4.610755E-10,1.586222,10.67553
'[19:15:06.108 21/01/2026]',-5.071286,-3.251501,-2.361469,-1.558249,4.610755E-10,4.610755E-10,-1.393682,-30.98651
'[19:15:06.116 21/01/2026]',1.290672,1.725514,3.948589,3.41993,4.610755E-10,4.610755E-10,1.023603,61.76787
'[19:15:06.124 21/01/2026]',-3.241954,-3.482101,-3.353286,-6.298577,4.610755E-10,4.610755E-10,-3.603067,-42.20086
'[19:15:06.132 21/01/2026]',4.691544,4.730024,1.568224,5.491351,4.610755E-10,4.610755E-10,5.574481,0.6664328
'[19:15:06.140 21/01/2026]',0.05296947,-1.608018,0.02559835,-0.6694269,4.610755E-10,4.610755E-10,0.08624664,7.832127
'[19:15:06.148 21/01/2026]',-0.5869752,0.8026064,2.017674,1.010203,4.610755E-10,4.610755E-10,-3.600937,-10.74342
'[19:15:06.156 21/01/2026]',-1.421681,-0.7862619,-2.772336,-3.926229,4.610755E-10,4.610755E-10,-1.31125,9.689515
'[19:15:06.164 21/01/2026]',1.633882,0.9334048,0.7445714,4.389372,4.610755E-10,4.610755E-10,4.4319,1.090804
'[19:15:06.172 21/01/2026]',-0.4275514,-0.5925127,0.4784077,-1.029155,4.610755E-10,4.610755E-10,-1.741204,-1.824609
'[19:15:06.180 21/01/2026]',-1.240803,0.06453225,0.09406491,-0.9200878,4.610755E-10,4.610755E-10,-1.429332,19.00238
'[19:15:06.188 21/01/2026]',-9.157007,-11.77874,-5.802509,-5.672975,4.610755E-10,4.610755E-10,-0.7666924,-25.33962
'[19:15:06.196 21/01/2026]',4.375884,3.83986,1.88077,1.412963,4.610755E-10,4.610755E-10,-0.9116401,7.708452
'[19:15:06.204 21/01/2026]',19.55862,23.59543,9.408623,13.51245,4.610755E-10,4.610755E-10,5.853268,2.325186
'[19:15:06.212 21/01/2026]',-15.05509,-16.23039,-5.430439,-9.922508,4.610755E-10,4.610755E-10,-1.413333,-2.526571
'[19:15:06.220 21/01/2026]',-6.674813,-9.664219,-5.462929,-6.24972,4.610755E-10,4.610755E-10,-2.063627,-5.809998
'[19:15:06.228 21/01/2026]',12.99205,14.25295,9.901253,13.31061,4.610755E-10,4.610755E-10,4.208856,-15.1197
'[19:15:06.236 21/01/2026]',12.99205,14.25295,9.901253,13.31061,4.610755E-10,4.610755E-10,4.208856,-15.1197
'[19:15:06.244 21/01/2026]',12.99205,14.25295,9.901253,13.31061,4.610755E-10,4.610755E-10,4.208856,-15.1197
'[19:15:06.252 21/01/2026]',0.1338595,2.436538,-2.136388,-2.636264,4.610755E-10,4.610755E-10,-2.16321,19.93123
'[19:15:06.260 21/01/2026]',-7.066339,-8.531592,-3.478628,-6.079318,4.610755E-10,4.610755E-10,-0.3022328,-11.80936
'[19:15:06.268 21/01/2026]',1.789815,1.433507,0.8055615,3.067445,4.610755E-10,4.610755E-10,2.60318,-2.732659
'[19:15:06.276 21/01/2026]',3.217882,3.260486,3.644498,2.720814,4.610755E-10,4.610755E-10,-1.166617,19.28442
'[19:15:06.284 21/01/2026]',-4.514044,-4.23979,-5.553146,-3.795093,4.610755E-10,4.610755E-10,-2.902871,-29.58412
'[19:15:06.292 21/01/2026]',-4.514044,-4.23979,-5.553146,-3.795093,4.610755E-10,4.610755E-10,-2.902871,-29.58412
'[19:15:06.300 21/01/2026]',-4.514044,-4.23979,-5.553146,-3.795093,4.610755E-10,4.610755E-10,-2.902871,-29.58412
'[19:15:06.308 21/01/2026]',1.299953,0.6299174,0.5969062,0.9995113,4.610755E-10,4.610755E-10,2.778899,13.18328
'[19:15:06.316 21/01/2026]',1.299953,0.6299174,0.5969062,0.9995113,4.610755E-10,4.610755E-10,2.778899,13.18328
'[19:15:06.324 21/01/2026]',1.442109,0.8025036,3.46927,1.513441,4.610755E-10,4.610755E-10,0.1084876,5.317454
'[19:15:06.332 21/01/2026]',1.442109,0.8025036,3.46927,1.513441,4.610755E-10,4.610755E-10,0.1084876,5.317454
'[19:15:06.340 21/01/2026]',-1.856262,-0.7265095,-2.418015,-2.247294,4.610755E-10,4.610755E-10,-2.119491,-0.9816059
'[19:15:06.348 21/01/2026]',-1.856262,-0.7265095,-2.418015,-2.247294,4.610755E-10,4.610755E-10,-2.119491,-0.9816059
'[19:15:06.356 21/01/2026]',-1.035275,-1.337321,-1.628933,-1.872283,4.610755E-10,4.610755E-10,-3.40157,11.59552
'[19:15:06.364 21/01/2026]',-1.035275,-1.337321,-1.628933,-1.872283,4.610755E-10,4.610755E-10,-3.40157,11.59552
'[19:15:06.372 21/01/2026]',-1.035275,-1.337321,-1.628933,-1.872283,4.610755E-10,4.610755E-10,-3.40157,11.59552
'[19:15:06.380 21/01/2026]',-1.035275,-1.337321,-1.628933,-1.872283,4.610755E-10,4.610755E-10,-3.40157,11.59552
'[19:15:06.388 21/01/2026]',-1.035275,-1.337321,-1.628933,-1.872283,4.610755E-10,4.610755E-10,-3.40157,11.59552
'[19:15:06.396 21/01/2026]',3.554511,3.607221,3.785655,5.352124,4.610755E-10,4.610755E-10,7.789425,-26.26536
'[19:15:06.404 21/01/2026]',3.554511,3.607221,3.785655,5.352124,4.610755E-10,4.610755E-10,7.789425,-26.26536
'[19:15:06.412 21/01/2026]',-0.9538212,-2.6879,-0.4969623,-4.242925,4.610755E-10,4.610755E-10,-4.417143,12.74852
'[19:15:06.420 21/01/2026]',3.368081,11.98152,0.4830873,4.475684,4.610755E-10,4.610755E-10,-0.2995071,4.433516
'[19:15:06.428 21/01/2026]',-0.5613847,-5.977044,1.238496,0.04601839,4.610755E-10,4.610755E-10,4.817494,-15.82578
'[19:15:06.436 21/01/2026]',-0.5613847,-5.977044,1.238496,0.04601839,4.610755E-10,4.610755E-10,4.817494,-15.82578
'[19:15:06.444 21/01/2026]',-11.48921,-17.89433,-4.860711,-6.867277,4.610755E-10,4.610755E-10,-6.303186,0.05287851
'[19:15:06.452 21/01/2026]',-11.48921,-17.89433,-4.860711,-6.867277,4.610755E-10,4.610755E-10,-6.303186,0.05287851
'[19:15:06.460 21/01/2026]',10.44635,18.37438,5.548378,6.600446,4.610755E-10,4.610755E-10,5.422338,23.45505
'[19:15:06.468 21/01/2026]',10.44635,18.37438,5.548378,6.600446,4.610755E-10,4.610755E-10,5.422338,23.45505
'[19:15:06.476 21/01/2026]',-3.835066,-6.360857,-4.197568,-4.364592,4.610755E-10,4.610755E-10,-4.600234,-6.698528
'[19:15:06.484 21/01/2026]',-3.835066,-6.360857,-4.197568,-4.364592,4.610755E-10,4.610755E-10,-4.600234,-6.698528
'[19:15:06.492 21/01/2026]',-0.6053416,0.05513841,0.2153604,2.584625,4.610755E-10,4.610755E-10,2.926966,-13.39389
'[19:15:06.500 21/01/2026]',-0.6053416,0.05513841,0.2153604,2.584625,4.610755E-10,4.610755E-10,2.926966,-13.39389
'[19:15:06.508 21/01/2026]',2.269407,0.5065526,2.657368,1.061481,4.610755E-10,4.610755E-10,-1.584716,22.05072
'[19:15:06.516 21/01/2026]',2.269407,0.5065526,2.657368,1.061481,4.610755E-10,4.610755E-10,-1.584716,22.05072
'[19:15:06.524 21/01/2026]',2.269407,0.5065526,2.657368,1.061481,4.610755E-10,4.610755E-10,-1.584716,22.05072
'[19:15:06.532 21/01/2026]',-2.998879,-2.605626,-4.76896,-4.226259,4.610755E-10,4.610755E-10,-4.029939,0.8381442
'[19:15:06.540 21/01/2026]',-2.998879,-2.605626,-4.76896,-4.226259,4.610755E-10,4.610755E-10,-4.029939,0.8381442
'[19:15:06.548 21/01/2026]',1.738042,3.050817,3.039936,3.000701,4.610755E-10,4.610755E-10,6.448068,-19.40331
'[19:15:06.556 21/01/2026]',1.738042,3.050817,3.039936,3.000701,4.610755E-10,4.610755E-10,6.448068,-19.40331
'[19:15:06.564 21/01/2026]',1.738042,3.050817,3.039936,3.000701,4.610755E-10,4.610755E-10,6.448068,-19.40331
'[19:15:06.572 21/01/2026]',1.738042,3.050817,3.039936,3.000701,4.610755E-10,4.610755E-10,6.448068,-19.40331
'[19:15:06.580 21/01/2026]',-5.563844,-9.536519,-1.742189,-1.557831,4.610755E-10,4.610755E-10,-2.577816,16.07793
'[19:15:06.588 21/01/2026]',-1.876078,-0.6271966,-3.755701,-3.331416,4.610755E-10,4.610755E-10,-3.814836,-4.95453
'[19:15:06.596 21/01/2026]',-1.876078,-0.6271966,-3.755701,-3.331416,4.610755E-10,4.610755E-10,-3.814836,-4.95453
'[19:15:06.604 21/01/2026]',11.05516,15.51311,4.041965,3.303364,4.610755E-10,4.610755E-10,-0.1135084,-13.30004
'[19:15:06.612 21/01/2026]',-3.301172,-8.292174,1.093741,-0.6745908,4.610755E-10,4.610755E-10,4.738453,-5.366667
'[19:15:06.620 21/01/2026]',-3.301172,-8.292174,1.093741,-0.6745908,4.610755E-10,4.610755E-10,4.738453,-5.366667
'[19:15:06.628 21/01/2026]',-3.301172,-8.292174,1.093741,-0.6745908,4.610755E-10,4.610755E-10,4.738453,-5.366667
'[19:15:06.636 21/01/2026]',-5.28097,-4.657695,-4.441862,-2.648866,4.610755E-10,4.610755E-10,-3.286529,12.66062
'[19:15:06.644 21/01/2026]',4.81837,6.710419,3.380191,5.933581,4.610755E-10,4.610755E-10,3.074079,13.06899
'[19:15:06.652 21/01/2026]',4.81837,6.710419,3.380191,5.933581,4.610755E-10,4.610755E-10,3.074079,13.06899
'[19:15:06.660 21/01/2026]',4.81837,6.710419,3.380191,5.933581,4.610755E-10,4.610755E-10,3.074079,13.06899
'[19:15:06.668 21/01/2026]',4.81837,6.710419,3.380191,5.933581,4.610755E-10,4.610755E-10,3.074079,13.06899
'[19:15:06.676 21/01/2026]',3.344645,1.835274,3.613904,-0.2149893,4.610755E-10,4.610755E-10,0.2086226,-28.42535
'[19:15:06.684 21/01/2026]',3.344645,1.835274,3.613904,-0.2149893,4.610755E-10,4.610755E-10,0.2086226,-28.42535
'[19:15:06.692 21/01/2026]',-2.730805,-2.028629,-1.329746,-1.965618,4.610755E-10,4.610755E-10,1.054178,15.53721
'[19:15:06.700 21/01/2026]',-3.187925,-1.79651,-4.982346,-2.081846,4.610755E-10,4.610755E-10,-2.51875,-5.496092
'[19:15:06.708 21/01/2026]',-3.187925,-1.79651,-4.982346,-2.081846,4.610755E-10,4.610755E-10,-2.51875,-5.496092
'[19:15:06.716 21/01/2026]',1.164809,-1.348655,1.065248,-0.8376601,4.610755E-10,4.610755E-10,-1.587677,-2.392518
'[19:15:06.724 21/01/2026]',1.164809,-1.348655,1.065248,-0.8376601,4.610755E-10,4.610755E-10,-1.587677,-2.392518
'[19:15:06.732 21/01/2026]',1.164809,-1.348655,1.065248,-0.8376601,4.610755E-10,4.610755E-10,-1.587677,-2.392518
'[19:15:06.740 21/01/2026]',1.164809,-1.348655,1.065248,-0.8376601,4.610755E-10,4.610755E-10,-1.587677,-2.392518
'[19:15:06.748 21/01/2026]',-0.5201148,-2.661902,0.9403577,1.598845,4.610755E-10,4.610755E-10,-0.3957248,1.687271
'[19:15:06.756 21/01/2026]',5.919298,12.51386,6.048169,8.717322,4.610755E-10,4.610755E-10,9.280077,12.57901
'[19:15:06.764 21/01/2026]',5.919298,12.51386,6.048169,8.717322,4.610755E-10,4.610755E-10,9.280077,12.57901
'[19:15:06.772 21/01/2026]',-6.195609,-8.837581,-9.24709,-12.51477,4.610755E-10,4.610755E-10,-10.22146,8.023494
'[19:15:06.780 21/01/2026]',1.264378,-1.440025,3.181036,2.831326,4.610755E-10,4.610755E-10,0.6561641,-37.39092
'[19:15:06.788 21/01/2026]',0.9750271,1.687586,2.171031,2.160018,4.610755E-10,4.610755E-10,3.21321,18.65551
'[19:15:06.796 21/01/2026]',-0.4344737,2.747118,-0.01617083,2.832321,4.610755E-10,4.610755E-10,0.5051736,35.28791
'[19:15:06.804 21/01/2026]',-5.116249,-7.95303,-4.55884,-5.057236,4.610755E-10,4.610755E-10,-2.289562,-27.28395
'[19:15:06.812 21/01/2026]',7.1923,6.858382,5.578924,1.371094,4.610755E-10,4.610755E-10,2.174819,12.61267
'[19:15:06.820 21/01/2026]',7.1923,6.858382,5.578924,1.371094,4.610755E-10,4.610755E-10,2.174819,12.61267
'[19:15:06.828 21/01/2026]',-12.15752,-8.583061,-2.296651,-0.06952316,4.610755E-10,4.610755E-10,0.2930228,2.184535
'[19:15:06.836 21/01/2026]',-16.70833,-17.83989,-6.838622,-4.210891,4.610755E-10,4.610755E-10,1.836829,0.7204127
'[19:15:06.844 21/01/2026]',51.384,50.53301,17.19159,14.04498,4.610755E-10,4.610755E-10,-1.026873,5.810129
'[19:15:06.852 21/01/2026]',51.384,50.53301,17.19159,14.04498,4.610755E-10,4.610755E-10,-1.026873,5.810129
'[19:15:06.860 21/01/2026]',9.12999,9.743694,3.585721,1.33399,4.610755E-10,4.610755E-10,1.258024,-13.561
'[19:15:06.868 21/01/2026]',-42.40123,-43.76631,-12.21175,-9.316713,4.610755E-10,4.610755E-10,3.520471,6.207044
'[19:15:06.876 21/01/2026]',1.969989,2.080345,-2.33532,-0.9726721,4.610755E-10,4.610755E-10,-5.846179,0.2439505
'[19:15:06.884 21/01/2026]',17.56278,14.97455,7.300283,4.766493,4.610755E-10,4.610755E-10,1.854551,-37.98703
'[19:15:06.892 21/01/2026]',-3.911971,-0.3267442,-1.881898,-2.291162,4.610755E-10,4.610755E-10,1.741444,34.0829
'[19:15:06.900 21/01/2026]',-3.911971,-0.3267442,-1.881898,-2.291162,4.610755E-10,4.610755E-10,1.741444,34.0829
'[19:15:06.908 21/01/2026]',-14.98697,-13.48318,-8.269829,-5.749087,4.610755E-10,4.610755E-10,-5.773072,14.38363
'[19:15:06.916 21/01/2026]',11.40056,8.613343,9.992166,10.57715,4.610755E-10,4.610755E-10,7.014373,-9.627963
'[19:15:06.924 21/01/2026]',6.644523,10.67199,2.005769,2.70041,4.610755E-10,4.610755E-10,2.114414,-27.65529
'[19:15:06.932 21/01/2026]',-12.21627,-14.15562,-10.23517,-13.27389,4.610755E-10,4.610755E-10,-7.180171,31.02724
'[19:15:06.940 21/01/2026]',4.574189,1.621093,6.493272,6.626167,4.610755E-10,4.610755E-10,2.237653,-10.55255
'[19:15:06.948 21/01/2026]',4.574189,1.621093,6.493272,6.626167,4.610755E-10,4.610755E-10,2.237653,-10.55255
'[19:15:06.956 21/01/2026]',-12.36517,-6.536377,-4.408659,0.5954248,4.610755E-10,4.610755E-10,3.487063,18.054
'[19:15:06.964 21/01/2026]',8.119879,3.500551,-1.565834,-7.010168,4.610755E-10,4.610755E-10,-5.838589,-16.60502
'[19:15:06.972 21/01/2026]',22.9136,26.53319,10.95063,14.53024,4.610755E-10,4.610755E-10,3.529727,7.093395
'[19:15:06.980 21/01/2026]',-31.05223,-30.81801,-12.46985,-14.26741,4.610755E-10,4.610755E-10,-3.536349,-9.663656
'[19:15:06.988 21/01/2026]',7.247316,7.383354,5.82582,7.519758,4.610755E-10,4.610755E-10,7.373989,8.277809
'[19:15:06.996 21/01/2026]',4.198613,2.574559,-0.3190676,-2.890908,4.610755E-10,4.610755E-10,-4.82822,6.160511
'[19:15:07.004 21/01/2026]',7.444958,7.079431,3.846748,4.700834,4.610755E-10,4.610755E-10,-0.3283609,-13.77286
'[19:15:07.012 21/01/2026]',7.444958,7.079431,3.846748,4.700834,4.610755E-10,4.610755E-10,-0.3283609,-13.77286
'[19:15:07.020 21/01/2026]',-9.403802,-13.03974,-4.87429,-6.705857,4.610755E-10,4.610755E-10,-2.959603,-3.392581
'[19:15:07.028 21/01/2026]',2.148106,4.814127,1.935611,4.429254,4.610755E-10,4.610755E-10,5.336408,-27.72755
'[19:15:07.036 21/01/2026]',2.915451,7.376881,2.113838,5.186242,4.610755E-10,4.610755E-10,3.016099,23.421
'[19:15:07.044 21/01/2026]',2.915451,7.376881,2.113838,5.186242,4.610755E-10,4.610755E-10,3.016099,23.421
'[19:15:07.052 21/01/2026]',2.915451,7.376881,2.113838,5.186242,4.610755E-10,4.610755E-10,3.016099,23.421
'[19:15:07.060 21/01/2026]',2.915451,7.376881,2.113838,5.186242,4.610755E-10,4.610755E-10,3.016099,23.421
'[19:15:07.068 21/01/2026]',2.915451,7.376881,2.113838,5.186242,4.610755E-10,4.610755E-10,3.016099,23.421
'[19:15:07.076 21/01/2026]',-2.556331,-2.591578,-1.651453,-2.367263,4.610755E-10,4.610755E-10,-2.075054,51.39812
'[19:15:07.084 21/01/2026]',-2.556331,-2.591578,-1.651453,-2.367263,4.610755E-10,4.610755E-10,-2.075054,51.39812
'[19:15:07.092 21/01/2026]',-2.556331,-2.591578,-1.651453,-2.367263,4.610755E-10,4.610755E-10,-2.075054,51.39812
'[19:15:07.100 21/01/2026]',0.5889409,-5.131726,-1.783275,-5.506787,4.610755E-10,4.610755E-10,-4.191362,-19.53289
'[19:15:07.108 21/01/2026]',1.864588,4.169782,1.155465,1.936495,4.610755E-10,4.610755E-10,-0.3400382,-44.89362
'[19:15:07.116 21/01/2026]',11.23482,8.849298,6.586539,8.925023,4.610755E-10,4.610755E-10,7.95096,24.70199
'[19:15:07.124 21/01/2026]',-18.22943,-11.82064,-8.125047,-8.867577,4.610755E-10,4.610755E-10,-4.813725,6.634753
'[19:15:07.132 21/01/2026]',-18.22943,-11.82064,-8.125047,-8.867577,4.610755E-10,4.610755E-10,-4.813725,6.634753
'[19:15:07.140 21/01/2026]',-18.22943,-11.82064,-8.125047,-8.867577,4.610755E-10,4.610755E-10,-4.813725,6.634753
'[19:15:07.148 21/01/2026]',1.016356,-1.955231,-0.3210647,-0.3648539,4.610755E-10,4.610755E-10,-2.667567,-8.200513
'[19:15:07.156 21/01/2026]',1.016356,-1.955231,-0.3210647,-0.3648539,4.610755E-10,4.610755E-10,-2.667567,-8.200513
'[19:15:07.164 21/01/2026]',6.300266,2.540755,1.455217,0.9728506,4.610755E-10,4.610755E-10,0.2520958,-15.65654
'[19:15:07.172 21/01/2026]',6.300266,2.540755,1.455217,0.9728506,4.610755E-10,4.610755E-10,0.2520958,-15.65654
'[19:15:07.180 21/01/2026]',1.372124,6.915764,3.585889,3.07393,4.610755E-10,4.610755E-10,6.088999,13.98384
'[19:15:07.188 21/01/2026]',1.372124,6.915764,3.585889,3.07393,4.610755E-10,4.610755E-10,6.088999,13.98384
'[19:15:07.196 21/01/2026]',-7.741613,-8.904819,-5.701366,-4.093932,4.610755E-10,4.610755E-10,-5.171564,1.806203
'[19:15:07.204 21/01/2026]',-7.741613,-8.904819,-5.701366,-4.093932,4.610755E-10,4.610755E-10,-5.171564,1.806203
'[19:15:07.212 21/01/2026]',7.146931,6.575789,5.785769,3.961946,4.610755E-10,4.610755E-10,3.348522,-15.15627
'[19:15:07.220 21/01/2026]',7.146931,6.575789,5.785769,3.961946,4.610755E-10,4.610755E-10,3.348522,-15.15627
'[19:15:07.228 21/01/2026]',7.146931,6.575789,5.785769,3.961946,4.610755E-10,4.610755E-10,3.348522,-15.15627
'[19:15:07.236 21/01/2026]',7.146931,6.575789,5.785769,3.961946,4.610755E-10,4.610755E-10,3.348522,-15.15627
'[19:15:07.244 21/01/2026]',-22.39532,-25.22736,-12.62305,-11.865,4.610755E-10,4.610755E-10,-8.189532,-13.02555
'[19:15:07.252 21/01/2026]',27.35802,30.17924,12.99112,13.31444,4.610755E-10,4.610755E-10,7.747979,32.3253
'[19:15:07.260 21/01/2026]',3.350044,6.561938,0.8231552,2.43747,4.610755E-10,4.610755E-10,-0.6973591,-4.038437
'[19:15:07.268 21/01/2026]',3.350044,6.561938,0.8231552,2.43747,4.610755E-10,4.610755E-10,-0.6973591,-4.038437
'[19:15:07.276 21/01/2026]',-22.00466,-27.42362,-10.22742,-12.63608,4.610755E-10,4.610755E-10,-3.729015,-22.98491
'[19:15:07.284 21/01/2026]',-22.00466,-27.42362,-10.22742,-12.63608,4.610755E-10,4.610755E-10,-3.729015,-22.98491
'[19:15:07.292 21/01/2026]',-22.00466,-27.42362,-10.22742,-12.63608,4.610755E-10,4.610755E-10,-3.729015,-22.98491
'[19:15:07.300 21/01/2026]',6.920984,8.997028,3.978639,4.758075,4.610755E-10,4.610755E-10,5.441719,4.840789
'[19:15:07.308 21/01/2026]',6.920984,8.997028,3.978639,4.758075,4.610755E-10,4.610755E-10,5.441719,4.840789
'[19:15:07.316 21/01/2026]',7.601397,7.355123,2.568586,4.566283,4.610755E-10,4.610755E-10,-4.675731,32.91845
'[19:15:07.324 21/01/2026]',7.601397,7.355123,2.568586,4.566283,4.610755E-10,4.610755E-10,-4.675731,32.91845
'[19:15:07.332 21/01/2026]',7.601397,7.355123,2.568586,4.566283,4.610755E-10,4.610755E-10,-4.675731,32.91845
'[19:15:07.340 21/01/2026]',-3.037734,-0.9304754,-0.2162091,-0.5563895,4.610755E-10,4.610755E-10,4.492075,-13.40506
'[19:15:07.348 21/01/2026]',-0.672039,-2.608997,-0.013227,-4.7691,4.610755E-10,4.610755E-10,-3.927486,-13.65437
'[19:15:07.356 21/01/2026]',-0.672039,-2.608997,-0.013227,-4.7691,4.610755E-10,4.610755E-10,-3.927486,-13.65437
'[19:15:07.364 21/01/2026]',0.7550571,0.1588056,-1.434363,1.425697,4.610755E-10,4.610755E-10,0.8813617,-0.7703243
'[19:15:07.372 21/01/2026]',0.7550571,0.1588056,-1.434363,1.425697,4.610755E-10,4.610755E-10,0.8813617,-0.7703243
'[19:15:07.380 21/01/2026]',0.7550571,0.1588056,-1.434363,1.425697,4.610755E-10,4.610755E-10,0.8813617,-0.7703243
'[19:15:07.388 21/01/2026]',0.7550571,0.1588056,-1.434363,1.425697,4.610755E-10,4.610755E-10,0.8813617,-0.7703243
'[19:15:07.396 21/01/2026]',-1.849751,-0.7462822,-0.7203435,3.469868,4.610755E-10,4.610755E-10,0.252941,-5.57785
'[19:15:07.404 21/01/2026]',-1.849751,-0.7462822,-0.7203435,3.469868,4.610755E-10,4.610755E-10,0.252941,-5.57785
'[19:15:07.412 21/01/2026]',-1.849751,-0.7462822,-0.7203435,3.469868,4.610755E-10,4.610755E-10,0.252941,-5.57785
'[19:15:07.420 21/01/2026]',-1.849751,-0.7462822,-0.7203435,3.469868,4.610755E-10,4.610755E-10,0.252941,-5.57785
'[19:15:07.428 21/01/2026]',-0.9389931,0.2880651,1.097337,-5.419504,4.610755E-10,4.610755E-10,-0.6269578,6.740138
'[19:15:07.436 21/01/2026]',-0.9389931,0.2880651,1.097337,-5.419504,4.610755E-10,4.610755E-10,-0.6269578,6.740138
'[19:15:07.444 21/01/2026]',3.617647,0.4196094,0.5118176,0.7398694,4.610755E-10,4.610755E-10,0.9639218,-9.995573
'[19:15:07.452 21/01/2026]',-3.271137,-1.945139,-1.492797,2.977491,4.610755E-10,4.610755E-10,0.3981351,-7.650249
'[19:15:07.460 21/01/2026]',-3.271137,-1.945139,-1.492797,2.977491,4.610755E-10,4.610755E-10,0.3981351,-7.650249
'[19:15:07.468 21/01/2026]',0.1699795,1.265188,0.1404528,-1.367096,4.610755E-10,4.610755E-10,0.8042941,19.33544
'[19:15:07.476 21/01/2026]',-1.101493,-1.345116,-3.543957,-5.092222,4.610755E-10,4.610755E-10,-9.07111,-14.79537
'[19:15:07.484 21/01/2026]',3.680764,3.200637,4.371106,6.188051,4.610755E-10,4.610755E-10,6.491252,29.49759
'[19:15:07.492 21/01/2026]',3.680764,3.200637,4.371106,6.188051,4.610755E-10,4.610755E-10,6.491252,29.49759
'[19:15:07.500 21/01/2026]',1.586128,2.364228,4.180178,1.883099,4.610755E-10,4.610755E-10,1.810786,-5.515736
'[19:15:07.508 21/01/2026]',1.586128,2.364228,4.180178,1.883099,4.610755E-10,4.610755E-10,1.810786,-5.515736
'[19:15:07.516 21/01/2026]',-1.911985,1.011956,-7.39599,-0.9240659,4.610755E-10,4.610755E-10,-2.884598,-19.82393
'[19:15:07.524 21/01/2026]',-3.175394,-5.346743,-5.169394,-5.505793,4.610755E-10,4.610755E-10,-5.419971,-2.596058
'[19:15:07.532 21/01/2026]',-0.2752073,-3.853862,7.933677,-0.9615601,4.610755E-10,4.610755E-10,1.83309,-8.919183
'[19:15:07.540 21/01/2026]',-0.2752073,-3.853862,7.933677,-0.9615601,4.610755E-10,4.610755E-10,1.83309,-8.919183
'[19:15:07.548 21/01/2026]',0.07685754,3.102774,-1.505872,4.916419,4.610755E-10,4.610755E-10,6.490495,-48.09009
'[19:15:07.556 21/01/2026]',2.128682,4.084933,-2.117399,1.815763,4.610755E-10,4.610755E-10,-3.424244,27.99327
'[19:15:07.564 21/01/2026]',6.753754,8.344808,5.50167,3.398492,4.610755E-10,4.610755E-10,2.687241,95.80598
'[19:15:07.572 21/01/2026]',-5.596571,-10.71369,-2.384844,-6.838809,4.610755E-10,4.610755E-10,-1.499474,-50.06888
'[19:15:07.580 21/01/2026]',-13.89971,-13.48758,-7.251609,-6.242807,4.610755E-10,4.610755E-10,-5.07422,-47.60435
'[19:15:07.588 21/01/2026]',11.16973,14.432,1.841091,6.724151,4.610755E-10,4.610755E-10,2.273945,47.59293
'[19:15:07.596 21/01/2026]',0.4846694,-0.966488,3.904132,0.3962897,4.610755E-10,4.610755E-10,1.120129,9.188821
'[19:15:07.604 21/01/2026]',0.4846694,-0.966488,3.904132,0.3962897,4.610755E-10,4.610755E-10,1.120129,9.188821
'[19:15:07.612 21/01/2026]',0.4846694,-0.966488,3.904132,0.3962897,4.610755E-10,4.610755E-10,1.120129,9.188821
'[19:15:07.620 21/01/2026]',-4.628372,-4.851737,-3.879926,-3.302927,4.610755E-10,4.610755E-10,-4.324648,-26.20679
'[19:15:07.628 21/01/2026]',2.586305,4.094756,2.243711,2.109669,4.610755E-10,4.610755E-10,3.786554,5.647813
'[19:15:07.636 21/01/2026]',-3.409522,-3.723925,-4.339126,-3.775825,4.610755E-10,4.610755E-10,-2.031169,29.11127
'[19:15:07.644 21/01/2026]',2.13065,0.6728384,2.90055,4.890394,4.610755E-10,4.610755E-10,1.606192,-17.62059
'[19:15:07.652 21/01/2026]',2.13065,0.6728384,2.90055,4.890394,4.610755E-10,4.610755E-10,1.606192,-17.62059
'[19:15:07.660 21/01/2026]',12.33092,13.2744,8.170364,6.16148,4.610755E-10,4.610755E-10,7.148315,15.83067
'[19:15:07.668 21/01/2026]',-6.150625,-6.970519,-5.784585,-6.156001,4.610755E-10,4.610755E-10,-7.427902,-8.138262
'[19:15:07.676 21/01/2026]',-13.35416,-13.61732,-2.75152,-1.48413,4.610755E-10,4.610755E-10,2.242647,-2.361701
'[19:15:07.684 21/01/2026]',9.803601,11.72383,3.149841,2.368183,4.610755E-10,4.610755E-10,1.792168,-14.0617
'[19:15:07.692 21/01/2026]',-2.662218,-3.510579,-3.9375,-4.795509,4.610755E-10,4.610755E-10,-3.833784,17.47241
'[19:15:07.700 21/01/2026]',-20.29158,-20.35077,-7.503554,-3.848799,4.610755E-10,4.610755E-10,-0.6821862,27.49663
'[19:15:07.708 21/01/2026]',20.64513,18.10731,10.26554,7.382222,4.610755E-10,4.610755E-10,4.140128,-70.1789
'[19:15:07.716 21/01/2026]',11.48358,17.48351,3.261416,2.041617,4.610755E-10,4.610755E-10,-3.880644,47.31605
'[19:15:07.724 21/01/2026]',-20.39128,-24.183,-8.515679,-6.904404,4.610755E-10,4.610755E-10,2.831089,12.84346
'[19:15:07.732 21/01/2026]',3.408514,3.094431,1.307635,0.483401,4.610755E-10,4.610755E-10,-4.650562,-47.77613
'[19:15:07.740 21/01/2026]',3.408514,3.094431,1.307635,0.483401,4.610755E-10,4.610755E-10,-4.650562,-47.77613
'[19:15:07.748 21/01/2026]',4.15918,5.047664,0.6081745,0.7446924,4.610755E-10,4.610755E-10,-1.25183,25.61669
'[19:15:07.756 21/01/2026]',0.8268851,0.06519848,1.942265,1.90943,4.610755E-10,4.610755E-10,5.549941,-12.43297
'[19:15:07.764 21/01/2026]',-0.9314356,-1.057873,-0.01386006,1.602592,4.610755E-10,4.610755E-10,0.2019735,1.137817
'[19:15:07.772 21/01/2026]',-3.732538,-2.884946,-2.968124,-6.233044,4.610755E-10,4.610755E-10,-6.839818,-9.698302
'[19:15:07.780 21/01/2026]',-3.732538,-2.884946,-2.968124,-6.233044,4.610755E-10,4.610755E-10,-6.839818,-9.698302
'[19:15:07.788 21/01/2026]',-3.732538,-2.884946,-2.968124,-6.233044,4.610755E-10,4.610755E-10,-6.839818,-9.698302
'[19:15:07.796 21/01/2026]',-3.732538,-2.884946,-2.968124,-6.233044,4.610755E-10,4.610755E-10,-6.839818,-9.698302
'[19:15:07.804 21/01/2026]',1.433036,2.416913,0.2224794,2.202386,4.610755E-10,4.610755E-10,2.873227,25.10322
'[19:15:07.812 21/01/2026]',4.018556,3.352204,2.447928,2.854235,4.610755E-10,4.610755E-10,0.5210001,-29.0837
'[19:15:07.820 21/01/2026]',4.018556,3.352204,2.447928,2.854235,4.610755E-10,4.610755E-10,0.5210001,-29.0837
'[19:15:07.828 21/01/2026]',4.018556,3.352204,2.447928,2.854235,4.610755E-10,4.610755E-10,0.5210001,-29.0837
'[19:15:07.836 21/01/2026]',5.734661,3.762551,2.05402,3.798466,4.610755E-10,4.610755E-10,2.901833,30.15291
'[19:15:07.844 21/01/2026]',-9.195685,-6.071049,-4.252536,-5.414564,4.610755E-10,4.610755E-10,-3.657954,-8.159509
'[19:15:07.852 21/01/2026]',-9.195685,-6.071049,-4.252536,-5.414564,4.610755E-10,4.610755E-10,-3.657954,-8.159509
'[19:15:07.860 21/01/2026]',-4.839311,-6.1201,-0.827763,-2.204735,4.610755E-10,4.610755E-10,-1.944831,8.421534
'[19:15:07.868 21/01/2026]',-4.839311,-6.1201,-0.827763,-2.204735,4.610755E-10,4.610755E-10,-1.944831,8.421534
'[19:15:07.876 21/01/2026]',-4.839311,-6.1201,-0.827763,-2.204735,4.610755E-10,4.610755E-10,-1.944831,8.421534
'[19:15:07.884 21/01/2026]',7.181754,7.722851,1.948789,4.757735,4.610755E-10,4.610755E-10,3.271783,-12.64618
'[19:15:07.892 21/01/2026]',7.181754,7.722851,1.948789,4.757735,4.610755E-10,4.610755E-10,3.271783,-12.64618
'[19:15:07.900 21/01/2026]',7.181754,7.722851,1.948789,4.757735,4.610755E-10,4.610755E-10,3.271783,-12.64618
'[19:15:07.908 21/01/2026]',7.181754,7.722851,1.948789,4.757735,4.610755E-10,4.610755E-10,3.271783,-12.64618
'[19:15:07.916 21/01/2026]',-4.800652,-6.086804,-2.674222,-4.388948,4.610755E-10,4.610755E-10,-0.6476614,-0.3835453
'[19:15:07.924 21/01/2026]',8.244532,9.366831,10.4096,7.352656,4.610755E-10,4.610755E-10,8.666104,19.93313
'[19:15:07.932 21/01/2026]',-3.485922,-3.352055,-8.036251,-3.405159,4.610755E-10,4.610755E-10,-6.888504,-29.57817
'[19:15:07.940 21/01/2026]',-3.485922,-3.352055,-8.036251,-3.405159,4.610755E-10,4.610755E-10,-6.888504,-29.57817
'[19:15:07.948 21/01/2026]',0.5973202,-0.9020072,1.99482,0.5983261,4.610755E-10,4.610755E-10,0.2064738,27.22071
'[19:15:07.956 21/01/2026]',0.5973202,-0.9020072,1.99482,0.5983261,4.610755E-10,4.610755E-10,0.2064738,27.22071
'[19:15:07.964 21/01/2026]',-4.421058,-2.04046,-1.466389,-2.406158,4.610755E-10,4.610755E-10,4.878123,1.838426
'[19:15:07.972 21/01/2026]',-4.421058,-2.04046,-1.466389,-2.406158,4.610755E-10,4.610755E-10,4.878123,1.838426
'[19:15:07.980 21/01/2026]',-4.421058,-2.04046,-1.466389,-2.406158,4.610755E-10,4.610755E-10,4.878123,1.838426
'[19:15:07.988 21/01/2026]',-3.772142,-7.998553,-0.3549628,0.2453092,4.610755E-10,4.610755E-10,-4.525989,-43.86484
'[19:15:07.996 21/01/2026]',-3.772142,-7.998553,-0.3549628,0.2453092,4.610755E-10,4.610755E-10,-4.525989,-43.86484
'[19:15:08.004 21/01/2026]',-4.809297,-3.62823,-3.130784,-2.699437,4.610755E-10,4.610755E-10,-1.138174,28.99033
'[19:15:08.012 21/01/2026]',-4.809297,-3.62823,-3.130784,-2.699437,4.610755E-10,4.610755E-10,-1.138174,28.99033
'[19:15:08.020 21/01/2026]',-4.809297,-3.62823,-3.130784,-2.699437,4.610755E-10,4.610755E-10,-1.138174,28.99033
'[19:15:08.028 21/01/2026]',31.77411,34.96529,12.19805,8.695836,4.610755E-10,4.610755E-10,2.630114,-10.14521
'[19:15:08.036 21/01/2026]',-4.208985,0.04327426,-3.058006,1.519732,4.610755E-10,4.610755E-10,2.441719,27.46307
'[19:15:08.044 21/01/2026]',-4.208985,0.04327426,-3.058006,1.519732,4.610755E-10,4.610755E-10,2.441719,27.46307
'[19:15:08.052 21/01/2026]',-29.34467,-35.04888,-9.251671,-10.72282,4.610755E-10,4.610755E-10,-4.794469,-15.7619
'[19:15:08.060 21/01/2026]',-29.34467,-35.04888,-9.251671,-10.72282,4.610755E-10,4.610755E-10,-4.794469,-15.7619
'[19:15:08.068 21/01/2026]',-29.34467,-35.04888,-9.251671,-10.72282,4.610755E-10,4.610755E-10,-4.794469,-15.7619
'[19:15:08.076 21/01/2026]',-29.34467,-35.04888,-9.251671,-10.72282,4.610755E-10,4.610755E-10,-4.794469,-15.7619
'[19:15:08.084 21/01/2026]',11.23831,10.62082,3.342106,3.941743,4.610755E-10,4.610755E-10,-1.059045,-0.5760633
'[19:15:08.092 21/01/2026]',11.23831,10.62082,3.342106,3.941743,4.610755E-10,4.610755E-10,-1.059045,-0.5760633
'[19:15:08.100 21/01/2026]',11.23831,10.62082,3.342106,3.941743,4.610755E-10,4.610755E-10,-1.059045,-0.5760633
'[19:15:08.108 21/01/2026]',4.456171,8.398737,-0.3298081,-0.7349148,4.610755E-10,4.610755E-10,2.018553,3.734847
'[19:15:08.116 21/01/2026]',-2.596986,-4.633077,1.255429,0.826677,4.610755E-10,4.610755E-10,0.02704297,-12.71883
'[19:15:08.124 21/01/2026]',-0.8833485,-2.223666,-1.832729,1.248849,4.610755E-10,4.610755E-10,-4.189073,29.95362
'[19:15:08.132 21/01/2026]',-0.8833485,-2.223666,-1.832729,1.248849,4.610755E-10,4.610755E-10,-4.189073,29.95362
'[19:15:08.140 21/01/2026]',2.321314,3.531846,3.634868,-2.836302,4.610755E-10,4.610755E-10,5.288349,-56.56636
'[19:15:08.148 21/01/2026]',2.321314,3.531846,3.634868,-2.836302,4.610755E-10,4.610755E-10,5.288349,-56.56636
'[19:15:08.156 21/01/2026]',-5.178011,-1.524748,-4.218626,-1.041655,4.610755E-10,4.610755E-10,-1.735075,31.55298
'[19:15:08.164 21/01/2026]',-5.178011,-1.524748,-4.218626,-1.041655,4.610755E-10,4.610755E-10,-1.735075,31.55298
'[19:15:08.172 21/01/2026]',-5.178011,-1.524748,-4.218626,-1.041655,4.610755E-10,4.610755E-10,-1.735075,31.55298
'[19:15:08.180 21/01/2026]',-0.9652267,-6.521719,-0.8251287,-0.01905616,4.610755E-10,4.610755E-10,-2.505495,14.36727
'[19:15:08.188 21/01/2026]',-0.9652267,-6.521719,-0.8251287,-0.01905616,4.610755E-10,4.610755E-10,-2.505495,14.36727
'[19:15:08.196 21/01/2026]',9.100556,11.54375,7.074648,7.066765,4.610755E-10,4.610755E-10,6.879505,-14.63567
'[19:15:08.204 21/01/2026]',9.100556,11.54375,7.074648,7.066765,4.610755E-10,4.610755E-10,6.879505,-14.63567
'[19:15:08.212 21/01/2026]',-3.097889,-1.715832,-2.453026,-4.421303,4.610755E-10,4.610755E-10,-3.12554,1.505835
'[19:15:08.220 21/01/2026]',-3.097889,-1.715832,-2.453026,-4.421303,4.610755E-10,4.610755E-10,-3.12554,1.505835
'[19:15:08.228 21/01/2026]',-1.950476,-3.371948,-0.5194583,0.04055073,4.610755E-10,4.610755E-10,1.248464,-3.213555
'[19:15:08.236 21/01/2026]',-1.950476,-3.371948,-0.5194583,0.04055073,4.610755E-10,4.610755E-10,1.248464,-3.213555
'[19:15:08.244 21/01/2026]',1.433805,-0.7304034,-0.2632883,4.40206,4.610755E-10,4.610755E-10,0.9847119,29.57976
'[19:15:08.252 21/01/2026]',1.433805,-0.7304034,-0.2632883,4.40206,4.610755E-10,4.610755E-10,0.9847119,29.57976
'[19:15:08.260 21/01/2026]',1.433805,-0.7304034,-0.2632883,4.40206,4.610755E-10,4.610755E-10,0.9847119,29.57976
'[19:15:08.268 21/01/2026]',1.433805,-0.7304034,-0.2632883,4.40206,4.610755E-10,4.610755E-10,0.9847119,29.57976
'[19:15:08.276 21/01/2026]',1.722643,5.026819,0.4410604,-5.831496,4.610755E-10,4.610755E-10,-2.43147,-6.957103
'[19:15:08.284 21/01/2026]',-0.3005809,-0.0901579,0.4902751,4.043015,4.610755E-10,4.610755E-10,-0.8285567,-18.54232
'[19:15:08.292 21/01/2026]',-5.621507,-7.388782,-5.208584,-2.806295,4.610755E-10,4.610755E-10,1.664263,18.88509
'[19:15:08.300 21/01/2026]',5.774404,4.60762,7.820532,2.636363,4.610755E-10,4.610755E-10,3.756874,-3.021527
'[19:15:08.308 21/01/2026]',-3.323537,-1.630521,-5.6414,-2.080739,4.610755E-10,4.610755E-10,-6.901452,9.825199
'[19:15:08.316 21/01/2026]',2.632877,2.318241,2.34376,0.6436966,4.610755E-10,4.610755E-10,2.432663,-23.68904
'[19:15:08.324 21/01/2026]',1.457437,0.3299127,3.022315,3.038501,4.610755E-10,4.610755E-10,2.097199,2.982408
'[19:15:08.332 21/01/2026]',-2.773426,-2.780386,-3.595537,-4.988816,4.610755E-10,4.610755E-10,0.1166192,3.942044
'[19:15:08.340 21/01/2026]',-5.233885,-3.641169,-3.481516,-1.435123,4.610755E-10,4.610755E-10,-1.20518,-8.522932
'[19:15:08.348 21/01/2026]',1.837051,0.638547,1.888852,0.8840458,4.610755E-10,4.610755E-10,-4.719481,-1.372562
'[19:15:08.356 21/01/2026]',7.537553,8.557744,3.805616,4.971417,4.610755E-10,4.610755E-10,5.135156,18.74163
'[19:15:08.364 21/01/2026]',-3.314873,-5.111385,-1.611954,-1.91712,4.610755E-10,4.610755E-10,-1.153722,-13.40477
'[19:15:08.372 21/01/2026]',-3.832855,-1.310888,-3.459775,-3.429131,4.610755E-10,4.610755E-10,-3.211623,-4.672134
'[19:15:08.380 21/01/2026]',5.522254,4.368506,3.215796,2.786042,4.610755E-10,4.610755E-10,0.645978,18.01256
'[19:15:08.388 21/01/2026]',5.002195,2.279987,4.367768,4.592341,4.610755E-10,4.610755E-10,5.10142,-18.86393
'[19:15:08.396 21/01/2026]',-12.55501,-10.45626,-9.635487,-8.740078,4.610755E-10,4.610755E-10,-9.002951,36.74126
'[19:15:08.404 21/01/2026]',-4.765487,-3.902355,-0.1681808,-1.988781,4.610755E-10,4.610755E-10,0.6148192,-40.80907
'[19:15:08.412 21/01/2026]',17.84635,15.37048,12.86281,13.62549,4.610755E-10,4.610755E-10,14.36589,22.40288
'[19:15:08.420 21/01/2026]',-9.762866,-6.655085,-10.58433,-9.383307,4.610755E-10,4.610755E-10,-11.0712,24.9027
'[19:15:08.428 21/01/2026]',-1.126787,-2.855629,1.449556,-1.195234,4.610755E-10,4.610755E-10,-1.373291,-65.27886
'[19:15:08.436 21/01/2026]',-1.126787,-2.855629,1.449556,-1.195234,4.610755E-10,4.610755E-10,-1.373291,-65.27886
'[19:15:08.444 21/01/2026]',6.16821,6.442567,4.314425,6.903718,4.610755E-10,4.610755E-10,7.593142,42.47206
'[19:15:08.452 21/01/2026]',-5.103758,-5.531974,-3.755047,-5.788228,4.610755E-10,4.610755E-10,-3.689243,-22.82047
'[19:15:08.460 21/01/2026]',0.09743061,2.017869,-1.359913,0.1122038,4.610755E-10,4.610755E-10,-4.130705,4.391735
'[19:15:08.468 21/01/2026]',0.4977279,0.1616616,0.7434058,0.8673586,4.610755E-10,4.610755E-10,1.498017,2.358837
'[19:15:08.476 21/01/2026]',1.637025,1.229889,3.149687,2.366687,4.610755E-10,4.610755E-10,4.092546,-8.82981
'[19:15:08.484 21/01/2026]',-6.541344,-4.061327,-7.233591,-5.869728,4.610755E-10,4.610755E-10,-8.390667,30.07246
'[19:15:08.492 21/01/2026]',2.043103,-0.3877947,1.600307,2.848325,4.610755E-10,4.610755E-10,3.051392,-28.93462
'[19:15:08.500 21/01/2026]',3.93019,3.868736,2.06174,0.4974781,4.610755E-10,4.610755E-10,2.91654,17.25211
'[19:15:08.508 21/01/2026]',-1.806492,-1.385795,-0.01531676,0.1575515,4.610755E-10,4.610755E-10,-1.812585,1.348634
'[19:15:08.516 21/01/2026]',-1.806492,-1.385795,-0.01531676,0.1575515,4.610755E-10,4.610755E-10,-1.812585,1.348634
'[19:15:08.524 21/01/2026]',-0.633547,1.725473,-0.3373045,-0.2840556,4.610755E-10,4.610755E-10,-3.20277,-0.3090463
'[19:15:08.532 21/01/2026]',-0.633547,1.725473,-0.3373045,-0.2840556,4.610755E-10,4.610755E-10,-3.20277,-0.3090463
'[19:15:08.540 21/01/2026]',-0.633547,1.725473,-0.3373045,-0.2840556,4.610755E-10,4.610755E-10,-3.20277,-0.3090463
'[19:15:08.548 21/01/2026]',-0.633547,1.725473,-0.3373045,-0.2840556,4.610755E-10,4.610755E-10,-3.20277,-0.3090463
'[19:15:08.556 21/01/2026]',-0.69579,-2.331946,-0.3733803,-0.5664493,4.610755E-10,4.610755E-10,4.146116,-31.42719
'[19:15:08.564 21/01/2026]',2.368106,-0.02818643,-0.2962093,0.9467347,4.610755E-10,4.610755E-10,-1.57073,35.8294
'[19:15:08.572 21/01/2026]',2.368106,-0.02818643,-0.2962093,0.9467347,4.610755E-10,4.610755E-10,-1.57073,35.8294
'[19:15:08.580 21/01/2026]',4.227497,0.4267078,3.050327,-0.0910181,4.610755E-10,4.610755E-10,-0.2640269,-39.57786
'[19:15:08.588 21/01/2026]',4.227497,0.4267078,3.050327,-0.0910181,4.610755E-10,4.610755E-10,-0.2640269,-39.57786
