'Time and date','Fp1.','Fp2.','C3.','C4.','P3.','P4.','O1.','O2.'
'hh:mm:ss.mmm dd/mm/yyyy','uV','uV','uV','uV','uV','uV','uV','uV'
'[18:09:00.000 20/01/2026]',5.612455,2.225544,2.373841,3.070877,4.610755E-10,4.610755E-10,-1.338782,0.1093697
'[18:09:00.008 20/01/2026]',-0.8331032,0.8860925,-0.6591152,-0.7632315,4.610755E-10,4.610755E-10,-3.178571,-2.29689
'[18:09:00.016 20/01/2026]',-2.22234,-3.541352,-1.033092,-6.290807,4.610755E-10,4.610755E-10,4.399671,-0.3537697
'[18:09:00.024 20/01/2026]',-0.5672576,2.981425,1.583898,8.463957,4.610755E-10,4.610755E-10,-0.2401575,4.439761
'[18:09:00.032 20/01/2026]',-0.5672576,2.981425,1.583898,8.463957,4.610755E-10,4.610755E-10,-0.2401575,4.439761
'[18:09:00.040 20/01/2026]',-0.5672576,2.981425,1.583898,8.463957,4.610755E-10,4.610755E-10,-0.2401575,4.439761
'[18:09:00.048 20/01/2026]',-0.3673759,-4.245843,-0.8649558,-5.436464,4.610755E-10,4.610755E-10,-6.739355,-9.621126
'[18:09:00.056 20/01/2026]',-3.097979,-1.635068,0.7438132,-0.6758937,4.610755E-10,4.610755E-10,6.118128,6.688971
'[18:09:00.064 20/01/2026]',-3.097979,-1.635068,0.7438132,-0.6758937,4.610755E-10,4.610755E-10,6.118128,6.688971
'[18:09:00.072 20/01/2026]',-3.097979,-1.635068,0.7438132,-0.6758937,4.610755E-10,4.610755E-10,6.118128,6.688971
'[18:09:00.080 20/01/2026]',-3.097979,-1.635068,0.7438132,-0.6758937,4.610755E-10,4.610755E-10,6.118128,6.688971
'[18:09:00.088 20/01/2026]',-3.097979,-1.635068,0.7438132,-0.6758937,4.610755E-10,4.610755E-10,6.118128,6.688971
'[18:09:00.096 20/01/2026]',-18.45044,-21.24324,-10.78853,-2.468949,4.610755E-10,4.610755E-10,-0.244445,0.6461
'[18:09:00.104 20/01/2026]',5.38695,5.7733,5.881854,-5.57293,4.610755E-10,4.610755E-10,-6.28363,-7.121078
'[18:09:00.112 20/01/2026]',63.26726,70.07798,17.94704,25.65176,4.610755E-10,4.610755E-10,3.897597,6.595676
'[18:09:00.120 20/01/2026]',63.26726,70.07798,17.94704,25.65176,4.610755E-10,4.610755E-10,3.897597,6.595676
'[18:09:00.128 20/01/2026]',63.26726,70.07798,17.94704,25.65176,4.610755E-10,4.610755E-10,3.897597,6.595676
'[18:09:00.136 20/01/2026]',63.26726,70.07798,17.94704,25.65176,4.610755E-10,4.610755E-10,3.897597,6.595676
'[18:09:00.144 20/01/2026]',63.26726,70.07798,17.94704,25.65176,4.610755E-10,4.610755E-10,3.897597,6.595676
'[18:09:00.152 20/01/2026]',-33.57776,-36.5979,-12.96339,-8.824348,4.610755E-10,4.610755E-10,5.561469,1.396249
'[18:09:00.160 20/01/2026]',-35.0339,-38.12636,-7.007681,-12.17722,4.610755E-10,4.610755E-10,-6.801795,-5.034767
'[18:09:00.168 20/01/2026]',29.48303,29.53671,9.65355,9.187577,4.610755E-10,4.610755E-10,2.751426,3.388742
'[18:09:00.176 20/01/2026]',29.48303,29.53671,9.65355,9.187577,4.610755E-10,4.610755E-10,2.751426,3.388742
'[18:09:00.184 20/01/2026]',29.48303,29.53671,9.65355,9.187577,4.610755E-10,4.610755E-10,2.751426,3.388742
'[18:09:00.192 20/01/2026]',1.204202,3.615009,-2.838147,6.043796,4.610755E-10,4.610755E-10,1.647905,-0.1116751
'[18:09:00.200 20/01/2026]',-10.32657,-10.83072,-1.938711,-12.98639,4.610755E-10,4.610755E-10,-8.405967,-4.88597
'[18:09:00.208 20/01/2026]',-11.79118,-12.16514,-9.27169,-7.041045,4.610755E-10,4.610755E-10,-3.881435,-4.955063
'[18:09:00.216 20/01/2026]',-11.79118,-12.16514,-9.27169,-7.041045,4.610755E-10,4.610755E-10,-3.881435,-4.955063
'[18:09:00.224 20/01/2026]',-11.79118,-12.16514,-9.27169,-7.041045,4.610755E-10,4.610755E-10,-3.881435,-4.955063
'[18:09:00.232 20/01/2026]',-11.79118,-12.16514,-9.27169,-7.041045,4.610755E-10,4.610755E-10,-3.881435,-4.955063
'[18:09:00.240 20/01/2026]',10.26074,11.34259,6.612141,5.748376,4.610755E-10,4.610755E-10,7.986899,5.166546
'[18:09:00.248 20/01/2026]',6.438264,7.732129,5.111833,8.301126,4.610755E-10,4.610755E-10,5.399189,7.56041
'[18:09:00.256 20/01/2026]',6.438264,7.732129,5.111833,8.301126,4.610755E-10,4.610755E-10,5.399189,7.56041
'[18:09:00.264 20/01/2026]',6.438264,7.732129,5.111833,8.301126,4.610755E-10,4.610755E-10,5.399189,7.56041
'[18:09:00.272 20/01/2026]',6.438264,7.732129,5.111833,8.301126,4.610755E-10,4.610755E-10,5.399189,7.56041
'[18:09:00.280 20/01/2026]',4.358427,-0.9204773,5.667762,3.112322,4.610755E-10,4.610755E-10,2.524311,0.1534538
'[18:09:00.288 20/01/2026]',4.358427,-0.9204773,5.667762,3.112322,4.610755E-10,4.610755E-10,2.524311,0.1534538
'[18:09:00.296 20/01/2026]',4.358427,-0.9204773,5.667762,3.112322,4.610755E-10,4.610755E-10,2.524311,0.1534538
'[18:09:00.304 20/01/2026]',4.358427,-0.9204773,5.667762,3.112322,4.610755E-10,4.610755E-10,2.524311,0.1534538
'[18:09:00.312 20/01/2026]',-6.213497,-4.528954,-6.899623,-9.944049,4.610755E-10,4.610755E-10,-8.551488,-5.335882
'[18:09:00.320 20/01/2026]',-2.776304,-1.718282,-1.416732,2.649634,4.610755E-10,4.610755E-10,4.10858,2.708562
'[18:09:00.328 20/01/2026]',4.53821,3.881394,3.151348,5.178133,4.610755E-10,4.610755E-10,-1.651606,-1.265284
'[18:09:00.336 20/01/2026]',4.53821,3.881394,3.151348,5.178133,4.610755E-10,4.610755E-10,-1.651606,-1.265284
'[18:09:00.344 20/01/2026]',4.53821,3.881394,3.151348,5.178133,4.610755E-10,4.610755E-10,-1.651606,-1.265284
'[18:09:00.352 20/01/2026]',4.53821,3.881394,3.151348,5.178133,4.610755E-10,4.610755E-10,-1.651606,-1.265284
'[18:09:00.360 20/01/2026]',0.9431639,2.270999,0.9241244,-2.782105,4.610755E-10,4.610755E-10,3.930713,4.146696
'[18:09:00.368 20/01/2026]',-1.356822,-5.736227,-2.598812,-1.035925,4.610755E-10,4.610755E-10,-4.576947,-4.398499
'[18:09:00.376 20/01/2026]',-2.059265,2.424842,0.448056,0.701555,4.610755E-10,4.610755E-10,1.303853,-0.8722619
'[18:09:00.384 20/01/2026]',-2.059265,2.424842,0.448056,0.701555,4.610755E-10,4.610755E-10,1.303853,-0.8722619
'[18:09:00.392 20/01/2026]',-2.059265,2.424842,0.448056,0.701555,4.610755E-10,4.610755E-10,1.303853,-0.8722619
'[18:09:00.400 20/01/2026]',-2.059265,2.424842,0.448056,0.701555,4.610755E-10,4.610755E-10,1.303853,-0.8722619
'[18:09:00.408 20/01/2026]',3.420162,2.418748,1.336268,2.670644,4.610755E-10,4.610755E-10,2.637218,4.832881
'[18:09:00.416 20/01/2026]',1.68946,0.9661638,-0.9596348,-7.010678,4.610755E-10,4.610755E-10,-5.498079,-4.340979
'[18:09:00.424 20/01/2026]',-3.606947,-3.146344,-1.080575,4.271782,4.610755E-10,4.610755E-10,-0.09894399,-0.0291428
'[18:09:00.432 20/01/2026]',-3.606947,-3.146344,-1.080575,4.271782,4.610755E-10,4.610755E-10,-0.09894399,-0.0291428
'[18:09:00.440 20/01/2026]',-3.606947,-3.146344,-1.080575,4.271782,4.610755E-10,4.610755E-10,-0.09894399,-0.0291428
'[18:09:00.448 20/01/2026]',-3.606947,-3.146344,-1.080575,4.271782,4.610755E-10,4.610755E-10,-0.09894399,-0.0291428
'[18:09:00.456 20/01/2026]',1.616997,-0.01120441,1.40295,-0.0201594,4.610755E-10,4.610755E-10,4.364477,0.5198904
'[18:09:00.464 20/01/2026]',-3.553771,-4.055098,-4.222537,-6.783783,4.610755E-10,4.610755E-10,-4.667902,-1.063035
'[18:09:00.472 20/01/2026]',6.565427,9.346551,6.270442,11.47432,4.610755E-10,4.610755E-10,3.771461,4.309467
'[18:09:00.480 20/01/2026]',6.565427,9.346551,6.270442,11.47432,4.610755E-10,4.610755E-10,3.771461,4.309467
'[18:09:00.488 20/01/2026]',6.565427,9.346551,6.270442,11.47432,4.610755E-10,4.610755E-10,3.771461,4.309467
'[18:09:00.496 20/01/2026]',6.565427,9.346551,6.270442,11.47432,4.610755E-10,4.610755E-10,3.771461,4.309467
'[18:09:00.504 20/01/2026]',-5.888638,-6.169078,-4.785004,-7.703653,4.610755E-10,4.610755E-10,-3.461209,-5.804657
'[18:09:00.512 20/01/2026]',1.485511,-0.663177,3.242723,-0.2489306,4.610755E-10,4.610755E-10,3.043182,2.616493
'[18:09:00.520 20/01/2026]',1.485511,-0.663177,3.242723,-0.2489306,4.610755E-10,4.610755E-10,3.043182,2.616493
'[18:09:00.528 20/01/2026]',1.485511,-0.663177,3.242723,-0.2489306,4.610755E-10,4.610755E-10,3.043182,2.616493
'[18:09:00.536 20/01/2026]',1.485511,-0.663177,3.242723,-0.2489306,4.610755E-10,4.610755E-10,3.043182,2.616493
'[18:09:00.544 20/01/2026]',1.011828,3.985401,-0.9582875,3.568116,4.610755E-10,4.610755E-10,-0.1479329,0.2682919
'[18:09:00.552 20/01/2026]',-1.088984,-2.123765,-3.989853,-4.830826,4.610755E-10,4.610755E-10,-3.245527,-1.074697
'[18:09:00.560 20/01/2026]',0.3809702,0.4126674,5.283289,4.404183,4.610755E-10,4.610755E-10,2.388157,0.09398154
'[18:09:00.568 20/01/2026]',0.3809702,0.4126674,5.283289,4.404183,4.610755E-10,4.610755E-10,2.388157,0.09398154
'[18:09:00.576 20/01/2026]',0.3809702,0.4126674,5.283289,4.404183,4.610755E-10,4.610755E-10,2.388157,0.09398154
'[18:09:00.584 20/01/2026]',0.3809702,0.4126674,5.283289,4.404183,4.610755E-10,4.610755E-10,2.388157,0.09398154
'[18:09:00.592 20/01/2026]',0.3809702,0.4126674,5.283289,4.404183,4.610755E-10,4.610755E-10,2.388157,0.09398154
'[18:09:00.600 20/01/2026]',0.5622748,1.351815,1.107974,0.8677061,4.610755E-10,4.610755E-10,1.850587,2.360192
'[18:09:00.608 20/01/2026]',-1.95014,-3.296349,-2.920908,-3.966673,4.610755E-10,4.610755E-10,-2.172484,-2.539146
'[18:09:00.616 20/01/2026]',-0.2871934,-0.5850584,-3.197633,0.5589719,4.610755E-10,4.610755E-10,-1.920153,-0.7241126
'[18:09:00.624 20/01/2026]',-0.2871934,-0.5850584,-3.197633,0.5589719,4.610755E-10,4.610755E-10,-1.920153,-0.7241126
'[18:09:00.632 20/01/2026]',-0.2871934,-0.5850584,-3.197633,0.5589719,4.610755E-10,4.610755E-10,-1.920153,-0.7241126
'[18:09:00.640 20/01/2026]',0.6245646,0.7186044,3.585186,1.650815,4.610755E-10,4.610755E-10,3.387776,1.638218
'[18:09:00.648 20/01/2026]',1.048553,1.529807,0.4715857,-0.324266,4.610755E-10,4.610755E-10,0.7763918,0.9205392
'[18:09:00.656 20/01/2026]',-1.570384,-1.068809,-2.736652,0.9941506,4.610755E-10,4.610755E-10,-4.743322,-2.255674
'[18:09:00.664 20/01/2026]',-1.570384,-1.068809,-2.736652,0.9941506,4.610755E-10,4.610755E-10,-4.743322,-2.255674
'[18:09:00.672 20/01/2026]',-1.570384,-1.068809,-2.736652,0.9941506,4.610755E-10,4.610755E-10,-4.743322,-2.255674
'[18:09:00.680 20/01/2026]',-1.570384,-1.068809,-2.736652,0.9941506,4.610755E-10,4.610755E-10,-4.743322,-2.255674
'[18:09:00.688 20/01/2026]',-0.6355506,-0.0583066,1.369254,-3.836267,4.610755E-10,4.610755E-10,2.123205,-1.741158
'[18:09:00.696 20/01/2026]',1.144629,-0.1854049,-0.553217,-0.5257571,4.610755E-10,4.610755E-10,0.213445,3.114645
'[18:09:00.704 20/01/2026]',1.144629,-0.1854049,-0.553217,-0.5257571,4.610755E-10,4.610755E-10,0.213445,3.114645
'[18:09:00.712 20/01/2026]',1.144629,-0.1854049,-0.553217,-0.5257571,4.610755E-10,4.610755E-10,0.213445,3.114645
'[18:09:00.720 20/01/2026]',1.144629,-0.1854049,-0.553217,-0.5257571,4.610755E-10,4.610755E-10,0.213445,3.114645
'[18:09:00.728 20/01/2026]',1.144629,-0.1854049,-0.553217,-0.5257571,4.610755E-10,4.610755E-10,0.213445,3.114645
'[18:09:00.736 20/01/2026]',0.9533605,0.3043071,0.1023474,4.681483,4.610755E-10,4.610755E-10,2.161922,1.555048
'[18:09:00.744 20/01/2026]',-0.9557003,1.618501,2.104653,-2.779127,4.610755E-10,4.610755E-10,-2.593621,-4.177923
'[18:09:00.752 20/01/2026]',-1.28995,-0.0253708,-2.505867,-1.805817,4.610755E-10,4.610755E-10,-2.968705,-1.680887
'[18:09:00.760 20/01/2026]',-1.28995,-0.0253708,-2.505867,-1.805817,4.610755E-10,4.610755E-10,-2.968705,-1.680887
'[18:09:00.768 20/01/2026]',-1.28995,-0.0253708,-2.505867,-1.805817,4.610755E-10,4.610755E-10,-2.968705,-1.680887
'[18:09:00.776 20/01/2026]',-1.28995,-0.0253708,-2.505867,-1.805817,4.610755E-10,4.610755E-10,-2.968705,-1.680887
'[18:09:00.784 20/01/2026]',1.539807,-0.4803004,2.346567,8.414635,4.610755E-10,4.610755E-10,4.015386,5.36886
'[18:09:00.792 20/01/2026]',0.7803409,-1.132522,-0.1004014,-6.444593,4.610755E-10,4.610755E-10,1.605255,-0.4385087
'[18:09:00.800 20/01/2026]',-3.223675,1.411419,-1.786823,-1.521074,4.610755E-10,4.610755E-10,-5.37235,-3.624784
'[18:09:00.808 20/01/2026]',-3.223675,1.411419,-1.786823,-1.521074,4.610755E-10,4.610755E-10,-5.37235,-3.624784
'[18:09:00.816 20/01/2026]',-3.223675,1.411419,-1.786823,-1.521074,4.610755E-10,4.610755E-10,-5.37235,-3.624784
'[18:09:00.824 20/01/2026]',-3.223675,1.411419,-1.786823,-1.521074,4.610755E-10,4.610755E-10,-5.37235,-3.624784
'[18:09:00.832 20/01/2026]',0.5778713,-1.904954,1.188882,6.737438,4.610755E-10,4.610755E-10,-0.6474103,-2.257993
'[18:09:00.840 20/01/2026]',-10.73931,-12.92998,-3.41445,-3.705799,4.610755E-10,4.610755E-10,4.007663,6.351376
'[18:09:00.848 20/01/2026]',-15.79607,-9.497046,-4.676129,-9.315674,4.610755E-10,4.610755E-10,1.995867,1.092367
'[18:09:00.856 20/01/2026]',-15.79607,-9.497046,-4.676129,-9.315674,4.610755E-10,4.610755E-10,1.995867,1.092367
'[18:09:00.864 20/01/2026]',-15.79607,-9.497046,-4.676129,-9.315674,4.610755E-10,4.610755E-10,1.995867,1.092367
'[18:09:00.872 20/01/2026]',57.70559,65.78181,17.35587,12.99781,4.610755E-10,4.610755E-10,-0.217694,-0.2479078
'[18:09:00.880 20/01/2026]',-2.556803,-20.85592,-1.602077,4.316995,4.610755E-10,4.610755E-10,-2.753254,-2.255925
'[18:09:00.888 20/01/2026]',-2.556803,-20.85592,-1.602077,4.316995,4.610755E-10,4.610755E-10,-2.753254,-2.255925
'[18:09:00.896 20/01/2026]',-2.556803,-20.85592,-1.602077,4.316995,4.610755E-10,4.610755E-10,-2.753254,-2.255925
'[18:09:00.904 20/01/2026]',-2.556803,-20.85592,-1.602077,4.316995,4.610755E-10,4.610755E-10,-2.753254,-2.255925
'[18:09:00.912 20/01/2026]',-2.556803,-20.85592,-1.602077,4.316995,4.610755E-10,4.610755E-10,-2.753254,-2.255925
'[18:09:00.920 20/01/2026]',-49.85534,-49.59902,-14.10803,-16.93963,4.610755E-10,4.610755E-10,-1.07802,-3.502577
'[18:09:00.928 20/01/2026]',16.77224,31.58529,6.708456,9.745905,4.610755E-10,4.610755E-10,2.306423,3.632212
'[18:09:00.936 20/01/2026]',12.41724,5.09303,-1.33834,-3.113412,4.610755E-10,4.610755E-10,-1.374986,-3.759278
'[18:09:00.944 20/01/2026]',12.41724,5.09303,-1.33834,-3.113412,4.610755E-10,4.610755E-10,-1.374986,-3.759278
'[18:09:00.952 20/01/2026]',12.41724,5.09303,-1.33834,-3.113412,4.610755E-10,4.610755E-10,-1.374986,-3.759278
'[18:09:00.960 20/01/2026]',12.41724,5.09303,-1.33834,-3.113412,4.610755E-10,4.610755E-10,-1.374986,-3.759278
'[18:09:00.968 20/01/2026]',12.41724,5.09303,-1.33834,-3.113412,4.610755E-10,4.610755E-10,-1.374986,-3.759278
'[18:09:00.976 20/01/2026]',-3.198985,-9.400926,2.396379,-1.807351,4.610755E-10,4.610755E-10,-1.905834,1.354062
'[18:09:00.984 20/01/2026]',-9.9511,-3.457615,-3.963265,3.712193,4.610755E-10,4.610755E-10,2.403672,4.361037
'[18:09:00.992 20/01/2026]',-4.649629,-6.794107,-7.772537,-12.16053,4.610755E-10,4.610755E-10,-8.565901,-15.66168
'[18:09:01.000 20/01/2026]',-4.649629,-6.794107,-7.772537,-12.16053,4.610755E-10,4.610755E-10,-8.565901,-15.66168
'[18:09:01.008 20/01/2026]',-4.649629,-6.794107,-7.772537,-12.16053,4.610755E-10,4.610755E-10,-8.565901,-15.66168
'[18:09:01.016 20/01/2026]',5.855345,7.007216,4.847071,8.375175,4.610755E-10,4.610755E-10,0.1795033,5.336615
'[18:09:01.024 20/01/2026]',14.58262,12.18597,12.55451,12.37826,4.610755E-10,4.610755E-10,18.23002,19.17865
'[18:09:01.032 20/01/2026]',14.58262,12.18597,12.55451,12.37826,4.610755E-10,4.610755E-10,18.23002,19.17865
'[18:09:01.040 20/01/2026]',14.58262,12.18597,12.55451,12.37826,4.610755E-10,4.610755E-10,18.23002,19.17865
'[18:09:01.048 20/01/2026]',14.58262,12.18597,12.55451,12.37826,4.610755E-10,4.610755E-10,18.23002,19.17865
'[18:09:01.056 20/01/2026]',14.58262,12.18597,12.55451,12.37826,4.610755E-10,4.610755E-10,18.23002,19.17865
'[18:09:01.064 20/01/2026]',-8.69098,-6.38621,-4.57138,-5.023167,4.610755E-10,4.610755E-10,-7.416816,-9.66261
'[18:09:01.072 20/01/2026]',-6.257504,-5.970344,-5.617869,-10.88621,4.610755E-10,4.610755E-10,-5.569097,-4.971454
'[18:09:01.080 20/01/2026]',5.910587,4.883743,3.896387,11.18353,4.610755E-10,4.610755E-10,4.801321,4.93113
'[18:09:01.088 20/01/2026]',5.910587,4.883743,3.896387,11.18353,4.610755E-10,4.610755E-10,4.801321,4.93113
'[18:09:01.096 20/01/2026]',5.910587,4.883743,3.896387,11.18353,4.610755E-10,4.610755E-10,4.801321,4.93113
'[18:09:01.104 20/01/2026]',1.861063,-0.6032359,-0.6684267,-2.380193,4.610755E-10,4.610755E-10,-2.934819,-1.31321
'[18:09:01.112 20/01/2026]',-7.927808,-12.78148,-1.094434,-6.539518,4.610755E-10,4.610755E-10,2.682967,-1.740299
'[18:09:01.120 20/01/2026]',4.04116,4.750532,0.3649844,2.104496,4.610755E-10,4.610755E-10,-2.734766,0.3002152
'[18:09:01.128 20/01/2026]',4.04116,4.750532,0.3649844,2.104496,4.610755E-10,4.610755E-10,-2.734766,0.3002152
'[18:09:01.136 20/01/2026]',4.04116,4.750532,0.3649844,2.104496,4.610755E-10,4.610755E-10,-2.734766,0.3002152
'[18:09:01.144 20/01/2026]',4.04116,4.750532,0.3649844,2.104496,4.610755E-10,4.610755E-10,-2.734766,0.3002152
'[18:09:01.152 20/01/2026]',6.560838,19.61859,2.949539,4.821098,4.610755E-10,4.610755E-10,4.352488,5.159019
'[18:09:01.160 20/01/2026]',-8.281728,-16.82064,-4.329523,-3.545597,4.610755E-10,4.610755E-10,-5.073387,-4.6749
'[18:09:01.168 20/01/2026]',-8.281728,-16.82064,-4.329523,-3.545597,4.610755E-10,4.610755E-10,-5.073387,-4.6749
'[18:09:01.176 20/01/2026]',-8.281728,-16.82064,-4.329523,-3.545597,4.610755E-10,4.610755E-10,-5.073387,-4.6749
'[18:09:01.184 20/01/2026]',-8.281728,-16.82064,-4.329523,-3.545597,4.610755E-10,4.610755E-10,-5.073387,-4.6749
'[18:09:01.192 20/01/2026]',-8.281728,-16.82064,-4.329523,-3.545597,4.610755E-10,4.610755E-10,-5.073387,-4.6749
'[18:09:01.200 20/01/2026]',-0.7191359,-0.4030544,1.474312,0.3951188,4.610755E-10,4.610755E-10,4.736812,-2.341575
'[18:09:01.208 20/01/2026]',1.664966,1.955087,-0.6008282,-5.763658,4.610755E-10,4.610755E-10,-7.562263,3.107579
'[18:09:01.216 20/01/2026]',1.261703,3.25723,2.342137,7.133346,4.610755E-10,4.610755E-10,10.01754,2.018051
'[18:09:01.224 20/01/2026]',1.261703,3.25723,2.342137,7.133346,4.610755E-10,4.610755E-10,10.01754,2.018051
'[18:09:01.232 20/01/2026]',1.261703,3.25723,2.342137,7.133346,4.610755E-10,4.610755E-10,10.01754,2.018051
'[18:09:01.240 20/01/2026]',1.261703,3.25723,2.342137,7.133346,4.610755E-10,4.610755E-10,10.01754,2.018051
'[18:09:01.248 20/01/2026]',-5.297183,-7.131013,-5.794926,-7.434504,4.610755E-10,4.610755E-10,-8.335689,-5.59147
'[18:09:01.256 20/01/2026]',1.236566,1.909228,6.206125,3.262709,4.610755E-10,4.610755E-10,4.42913,3.606655
'[18:09:01.264 20/01/2026]',-1.352848,-3.746397,-7.550497,-0.9833032,4.610755E-10,4.610755E-10,-7.343417,-3.768743
'[18:09:01.272 20/01/2026]',-1.352848,-3.746397,-7.550497,-0.9833032,4.610755E-10,4.610755E-10,-7.343417,-3.768743
'[18:09:01.280 20/01/2026]',-1.352848,-3.746397,-7.550497,-0.9833032,4.610755E-10,4.610755E-10,-7.343417,-3.768743
'[18:09:01.288 20/01/2026]',-1.352848,-3.746397,-7.550497,-0.9833032,4.610755E-10,4.610755E-10,-7.343417,-3.768743
'[18:09:01.296 20/01/2026]',5.829732,10.47324,10.52232,-0.1072486,4.610755E-10,4.610755E-10,8.531628,4.218103
'[18:09:01.304 20/01/2026]',-2.415527,-4.639995,-8.065615,-13.44056,4.610755E-10,4.610755E-10,3.177743,3.105412
'[18:09:01.312 20/01/2026]',-2.415527,-4.639995,-8.065615,-13.44056,4.610755E-10,4.610755E-10,3.177743,3.105412
'[18:09:01.320 20/01/2026]',-2.415527,-4.639995,-8.065615,-13.44056,4.610755E-10,4.610755E-10,3.177743,3.105412
'[18:09:01.328 20/01/2026]',-2.415527,-4.639995,-8.065615,-13.44056,4.610755E-10,4.610755E-10,3.177743,3.105412
'[18:09:01.336 20/01/2026]',-2.415527,-4.639995,-8.065615,-13.44056,4.610755E-10,4.610755E-10,3.177743,3.105412
'[18:09:01.344 20/01/2026]',-30.84385,-35.40415,-8.666185,20.32549,4.610755E-10,4.610755E-10,-9.241301,-14.23927
'[18:09:01.352 20/01/2026]',35.02248,46.89946,14.99837,13.76024,4.610755E-10,4.610755E-10,2.670533,10.00135
'[18:09:01.360 20/01/2026]',48.71774,45.73727,13.19028,-18.31149,4.610755E-10,4.610755E-10,-2.728162,6.338723
'[18:09:01.368 20/01/2026]',48.71774,45.73727,13.19028,-18.31149,4.610755E-10,4.610755E-10,-2.728162,6.338723
'[18:09:01.376 20/01/2026]',48.71774,45.73727,13.19028,-18.31149,4.610755E-10,4.610755E-10,-2.728162,6.338723
'[18:09:01.384 20/01/2026]',-57.05574,-73.40754,-22.85072,-18.79,4.610755E-10,4.610755E-10,5.055464,-7.405752
'[18:09:01.392 20/01/2026]',-57.05574,-73.40754,-22.85072,-18.79,4.610755E-10,4.610755E-10,5.055464,-7.405752
'[18:09:01.400 20/01/2026]',-15.16085,-2.31541,-11.87334,-16.68604,4.610755E-10,4.610755E-10,-2.187781,-33.2294
'[18:09:01.408 20/01/2026]',32.6364,20.06275,27.69535,-39.63622,4.610755E-10,4.610755E-10,8.781325,1.971267
'[18:09:01.416 20/01/2026]',32.6364,20.06275,27.69535,-39.63622,4.610755E-10,4.610755E-10,8.781325,1.971267
'[18:09:01.424 20/01/2026]',32.6364,20.06275,27.69535,-39.63622,4.610755E-10,4.610755E-10,8.781325,1.971267
'[18:09:01.432 20/01/2026]',20.64828,27.89849,10.76182,145.0327,4.610755E-10,4.610755E-10,8.043905,54.21331
'[18:09:01.440 20/01/2026]',-32.76076,-14.18165,-22.28706,19.08773,4.610755E-10,4.610755E-10,-28.63366,58.10241
'[18:09:01.448 20/01/2026]',-9.50532,-20.15555,16.50728,-90.37695,4.610755E-10,4.610755E-10,13.23782,-45.1941
'[18:09:01.456 20/01/2026]',-9.50532,-20.15555,16.50728,-90.37695,4.610755E-10,4.610755E-10,13.23782,-45.1941
'[18:09:01.464 20/01/2026]',-9.50532,-20.15555,16.50728,-90.37695,4.610755E-10,4.610755E-10,13.23782,-45.1941
'[18:09:01.472 20/01/2026]',-9.50532,-20.15555,16.50728,-90.37695,4.610755E-10,4.610755E-10,13.23782,-45.1941
'[18:09:01.480 20/01/2026]',18.90265,2.478467,-13.18954,-68.18908,4.610755E-10,4.610755E-10,9.287273,-95.9953
'[18:09:01.488 20/01/2026]',-6.082253,10.32709,-15.74056,34.2868,4.610755E-10,4.610755E-10,-12.84587,40.08311
'[18:09:01.496 20/01/2026]',-6.082253,10.32709,-15.74056,34.2868,4.610755E-10,4.610755E-10,-12.84587,40.08311
'[18:09:01.504 20/01/2026]',-6.082253,10.32709,-15.74056,34.2868,4.610755E-10,4.610755E-10,-12.84587,40.08311
'[18:09:01.512 20/01/2026]',-6.082253,10.32709,-15.74056,34.2868,4.610755E-10,4.610755E-10,-12.84587,40.08311
'[18:09:01.520 20/01/2026]',-6.082253,10.32709,-15.74056,34.2868,4.610755E-10,4.610755E-10,-12.84587,40.08311
'[18:09:01.528 20/01/2026]',1.185721,0.05001365,25.82856,184.8385,4.610755E-10,4.610755E-10,-7.909782,65.1627
'[18:09:01.536 20/01/2026]',-2.001101,-8.640967,-9.49839,-144.2772,4.610755E-10,4.610755E-10,1.307445,-39.73747
'[18:09:01.544 20/01/2026]',-0.1949119,4.706479,-11.12013,-28.40331,4.610755E-10,4.610755E-10,8.216866,-18.41399
'[18:09:01.552 20/01/2026]',-0.1949119,4.706479,-11.12013,-28.40331,4.610755E-10,4.610755E-10,8.216866,-18.41399
'[18:09:01.560 20/01/2026]',-0.1949119,4.706479,-11.12013,-28.40331,4.610755E-10,4.610755E-10,8.216866,-18.41399
'[18:09:01.568 20/01/2026]',-0.1949119,4.706479,-11.12013,-28.40331,4.610755E-10,4.610755E-10,8.216866,-18.41399
'[18:09:01.576 20/01/2026]',0.8593433,1.414144,-7.603136,-35.76054,4.610755E-10,4.610755E-10,3.379094,-8.010192
'[18:09:01.584 20/01/2026]',5.206745,1.122015,31.55286,82.08865,4.610755E-10,4.610755E-10,-1.636573,24.60131
'[18:09:01.592 20/01/2026]',5.206745,1.122015,31.55286,82.08865,4.610755E-10,4.610755E-10,-1.636573,24.60131
'[18:09:01.600 20/01/2026]',5.206745,1.122015,31.55286,82.08865,4.610755E-10,4.610755E-10,-1.636573,24.60131
'[18:09:01.608 20/01/2026]',5.206745,1.122015,31.55286,82.08865,4.610755E-10,4.610755E-10,-1.636573,24.60131
'[18:09:01.616 20/01/2026]',5.206745,1.122015,31.55286,82.08865,4.610755E-10,4.610755E-10,-1.636573,24.60131
'[18:09:01.624 20/01/2026]',-14.2764,-17.45729,-10.51575,-10.10206,4.610755E-10,4.610755E-10,0.2133672,25.35387
'[18:09:01.632 20/01/2026]',-10.53395,4.199456,-12.49952,-27.47643,4.610755E-10,4.610755E-10,-1.912369,-41.14001
'[18:09:01.640 20/01/2026]',47.80013,37.44819,14.28824,23.89308,4.610755E-10,4.610755E-10,3.423612,3.275248
'[18:09:01.648 20/01/2026]',-20.61887,-27.18779,-2.701988,4.161504,4.610755E-10,4.610755E-10,-7.541191,16.83009
'[18:09:01.656 20/01/2026]',-20.61887,-27.18779,-2.701988,4.161504,4.610755E-10,4.610755E-10,-7.541191,16.83009
'[18:09:01.664 20/01/2026]',-20.61887,-27.18779,-2.701988,4.161504,4.610755E-10,4.610755E-10,-7.541191,16.83009
'[18:09:01.672 20/01/2026]',-31.97165,-21.43321,-28.06568,-13.42103,4.610755E-10,4.610755E-10,-7.249301,-8.142601
'[18:09:01.680 20/01/2026]',33.98106,30.80052,42.44218,-10.79624,4.610755E-10,4.610755E-10,22.38027,-2.828939
'[18:09:01.688 20/01/2026]',33.98106,30.80052,42.44218,-10.79624,4.610755E-10,4.610755E-10,22.38027,-2.828939
'[18:09:01.696 20/01/2026]',33.98106,30.80052,42.44218,-10.79624,4.610755E-10,4.610755E-10,22.38027,-2.828939
'[18:09:01.704 20/01/2026]',33.98106,30.80052,42.44218,-10.79624,4.610755E-10,4.610755E-10,22.38027,-2.828939
'[18:09:01.712 20/01/2026]',33.98106,30.80052,42.44218,-10.79624,4.610755E-10,4.610755E-10,22.38027,-2.828939
'[18:09:01.720 20/01/2026]',-2.836319,0.518815,-4.289131,18.38296,4.610755E-10,4.610755E-10,-9.446297,0.2164799
'[18:09:01.728 20/01/2026]',-13.78984,-12.67134,-28.88109,0.6075994,4.610755E-10,4.610755E-10,-8.296485,-0.1348104
'[18:09:01.736 20/01/2026]',-13.76524,-18.25977,-2.987632,-29.08267,4.610755E-10,4.610755E-10,8.710759,18.19038
'[18:09:01.744 20/01/2026]',-13.76524,-18.25977,-2.987632,-29.08267,4.610755E-10,4.610755E-10,8.710759,18.19038
'[18:09:01.752 20/01/2026]',-13.76524,-18.25977,-2.987632,-29.08267,4.610755E-10,4.610755E-10,8.710759,18.19038
'[18:09:01.760 20/01/2026]',-13.76524,-18.25977,-2.987632,-29.08267,4.610755E-10,4.610755E-10,8.710759,18.19038
'[18:09:01.768 20/01/2026]',25.48987,24.24111,13.73651,-33.10261,4.610755E-10,4.610755E-10,-11.50442,-1.743454
'[18:09:01.776 20/01/2026]',6.354982,10.29336,2.415875,73.38809,4.610755E-10,4.610755E-10,8.26127,-42.37537
'[18:09:01.784 20/01/2026]',-27.13262,-21.23503,-8.115342,14.55759,4.610755E-10,4.610755E-10,-7.352935,-19.08405
'[18:09:01.792 20/01/2026]',-27.13262,-21.23503,-8.115342,14.55759,4.610755E-10,4.610755E-10,-7.352935,-19.08405
'[18:09:01.800 20/01/2026]',-27.13262,-21.23503,-8.115342,14.55759,4.610755E-10,4.610755E-10,-7.352935,-19.08405
'[18:09:01.808 20/01/2026]',25.01378,14.07389,30.07017,-48.11164,4.610755E-10,4.610755E-10,12.67481,81.0936
'[18:09:01.816 20/01/2026]',-1.915428,-3.469341,-12.24031,29.2317,4.610755E-10,4.610755E-10,-9.19123,-20.94439
'[18:09:01.824 20/01/2026]',-1.915428,-3.469341,-12.24031,29.2317,4.610755E-10,4.610755E-10,-9.19123,-20.94439
'[18:09:01.832 20/01/2026]',-1.915428,-3.469341,-12.24031,29.2317,4.610755E-10,4.610755E-10,-9.19123,-20.94439
'[18:09:01.840 20/01/2026]',-1.915428,-3.469341,-12.24031,29.2317,4.610755E-10,4.610755E-10,-9.19123,-20.94439
'[18:09:01.848 20/01/2026]',-1.915428,-3.469341,-12.24031,29.2317,4.610755E-10,4.610755E-10,-9.19123,-20.94439
'[18:09:01.856 20/01/2026]',-9.523867,-1.212437,-6.57253,-35.84495,4.610755E-10,4.610755E-10,3.355371,-46.11581
'[18:09:01.864 20/01/2026]',-0.8624999,0.8801796,-2.57523,-14.18595,4.610755E-10,4.610755E-10,-7.546539,35.32874
'[18:09:01.872 20/01/2026]',2.773247,0.9352633,-9.682805,76.12173,4.610755E-10,4.610755E-10,7.275339,19.59258
'[18:09:01.880 20/01/2026]',2.773247,0.9352633,-9.682805,76.12173,4.610755E-10,4.610755E-10,7.275339,19.59258
'[18:09:01.888 20/01/2026]',2.773247,0.9352633,-9.682805,76.12173,4.610755E-10,4.610755E-10,7.275339,19.59258
'[18:09:01.896 20/01/2026]',2.773247,0.9352633,-9.682805,76.12173,4.610755E-10,4.610755E-10,7.275339,19.59258
'[18:09:01.904 20/01/2026]',1.863505,-1.656588,15.33239,-11.27332,4.610755E-10,4.610755E-10,4.176699,-41.52128
'[18:09:01.912 20/01/2026]',-0.121374,-0.2028251,5.772521,-33.51495,4.610755E-10,4.610755E-10,-4.289094,14.60333
'[18:09:01.920 20/01/2026]',-0.121374,-0.2028251,5.772521,-33.51495,4.610755E-10,4.610755E-10,-4.289094,14.60333
'[18:09:01.928 20/01/2026]',-0.121374,-0.2028251,5.772521,-33.51495,4.610755E-10,4.610755E-10,-4.289094,14.60333
'[18:09:01.936 20/01/2026]',-0.121374,-0.2028251,5.772521,-33.51495,4.610755E-10,4.610755E-10,-4.289094,14.60333
'[18:09:01.944 20/01/2026]',3.523882,14.64244,3.055155,23.7625,4.610755E-10,4.610755E-10,15.12468,5.705041
'[18:09:01.952 20/01/2026]',-2.946812,-2.622701,-19.69039,6.222583,4.610755E-10,4.610755E-10,-14.07597,-4.434149
'[18:09:01.960 20/01/2026]',-12.20042,-23.24255,-11.92208,5.711133,4.610755E-10,4.610755E-10,-3.012926,18.50273
'[18:09:01.968 20/01/2026]',-12.20042,-23.24255,-11.92208,5.711133,4.610755E-10,4.610755E-10,-3.012926,18.50273
'[18:09:01.976 20/01/2026]',-12.20042,-23.24255,-11.92208,5.711133,4.610755E-10,4.610755E-10,-3.012926,18.50273
'[18:09:01.984 20/01/2026]',-12.20042,-23.24255,-11.92208,5.711133,4.610755E-10,4.610755E-10,-3.012926,18.50273
'[18:09:01.992 20/01/2026]',2.212596,14.55729,33.52803,-3.216813,4.610755E-10,4.610755E-10,27.74218,25.83037
'[18:09:02.000 20/01/2026]',8.917625,2.174379,-2.445174,-59.45827,4.610755E-10,4.610755E-10,-41.20555,-87.34118
'[18:09:02.008 20/01/2026]',-5.18196,-10.13247,-34.19061,2.831816,4.610755E-10,4.610755E-10,-38.40135,-4.666816
'[18:09:02.016 20/01/2026]',-5.18196,-10.13247,-34.19061,2.831816,4.610755E-10,4.610755E-10,-38.40135,-4.666816
'[18:09:02.024 20/01/2026]',-5.18196,-10.13247,-34.19061,2.831816,4.610755E-10,4.610755E-10,-38.40135,-4.666816
'[18:09:02.032 20/01/2026]',-5.18196,-10.13247,-34.19061,2.831816,4.610755E-10,4.610755E-10,-38.40135,-4.666816
'[18:09:02.040 20/01/2026]',11.03663,-2.701256,28.33804,-35.07748,4.610755E-10,4.610755E-10,64.25423,76.52819
'[18:09:02.048 20/01/2026]',9.993058,37.23563,29.77193,106.76,4.610755E-10,4.610755E-10,58.38222,52.21043
'[18:09:02.056 20/01/2026]',-27.35451,-18.73133,-33.97108,1.862064,4.610755E-10,4.610755E-10,-89.13366,-139.8071
'[18:09:02.064 20/01/2026]',-27.35451,-18.73133,-33.97108,1.862064,4.610755E-10,4.610755E-10,-89.13366,-139.8071
'[18:09:02.072 20/01/2026]',-27.35451,-18.73133,-33.97108,1.862064,4.610755E-10,4.610755E-10,-89.13366,-139.8071
'[18:09:02.080 20/01/2026]',-27.35451,-18.73133,-33.97108,1.862064,4.610755E-10,4.610755E-10,-89.13366,-139.8071
'[18:09:02.088 20/01/2026]',6.479641,-34.11744,0.9351938,-16.68918,4.610755E-10,4.610755E-10,42.11205,69.45333
'[18:09:02.096 20/01/2026]',15.86682,40.11769,2.826161,-30.6911,4.610755E-10,4.610755E-10,-34.49922,6.185793
'[18:09:02.104 20/01/2026]',15.86682,40.11769,2.826161,-30.6911,4.610755E-10,4.610755E-10,-34.49922,6.185793
'[18:09:02.112 20/01/2026]',15.86682,40.11769,2.826161,-30.6911,4.610755E-10,4.610755E-10,-34.49922,6.185793
'[18:09:02.120 20/01/2026]',15.86682,40.11769,2.826161,-30.6911,4.610755E-10,4.610755E-10,-34.49922,6.185793
'[18:09:02.128 20/01/2026]',15.86682,40.11769,2.826161,-30.6911,4.610755E-10,4.610755E-10,-34.49922,6.185793
'[18:09:02.136 20/01/2026]',-2.61618,9.733447,9.44921,-6.525909,4.610755E-10,4.610755E-10,27.34562,-0.6292423
'[18:09:02.144 20/01/2026]',-19.77006,-30.60519,-1.939622,83.04537,4.610755E-10,4.610755E-10,-11.19312,0.4947499
'[18:09:02.152 20/01/2026]',-10.62551,-9.048047,-35.9585,-114.0597,4.610755E-10,4.610755E-10,-38.27065,-48.12471
'[18:09:02.160 20/01/2026]',-10.62551,-9.048047,-35.9585,-114.0597,4.610755E-10,4.610755E-10,-38.27065,-48.12471
'[18:09:02.168 20/01/2026]',-10.62551,-9.048047,-35.9585,-114.0597,4.610755E-10,4.610755E-10,-38.27065,-48.12471
'[18:09:02.176 20/01/2026]',-10.62551,-9.048047,-35.9585,-114.0597,4.610755E-10,4.610755E-10,-38.27065,-48.12471
'[18:09:02.184 20/01/2026]',33.60014,17.61684,12.00114,51.01394,4.610755E-10,4.610755E-10,52.78646,72.33617
'[18:09:02.192 20/01/2026]',-15.61965,22.67418,15.65474,45.66958,4.610755E-10,4.610755E-10,-25.97939,-42.69597
'[18:09:02.200 20/01/2026]',-7.686796,-38.28626,47.47392,-51.01683,4.610755E-10,4.610755E-10,20.97135,-51.92812
'[18:09:02.208 20/01/2026]',-7.686796,-38.28626,47.47392,-51.01683,4.610755E-10,4.610755E-10,20.97135,-51.92812
'[18:09:02.216 20/01/2026]',-7.686796,-38.28626,47.47392,-51.01683,4.610755E-10,4.610755E-10,20.97135,-51.92812
'[18:09:02.224 20/01/2026]',-7.686796,-38.28626,47.47392,-51.01683,4.610755E-10,4.610755E-10,20.97135,-51.92812
'[18:09:02.232 20/01/2026]',3.068974,-58.87991,-95.29823,-164.9673,4.610755E-10,4.610755E-10,-18.52877,-110.3762
'[18:09:02.240 20/01/2026]',41.15558,131.5516,61.68651,66.77696,4.610755E-10,4.610755E-10,11.13303,254.3265
'[18:09:02.248 20/01/2026]',-31.37644,-93.82702,35.61172,128.4081,4.610755E-10,4.610755E-10,-1.95458,51.15167
'[18:09:02.256 20/01/2026]',-31.37644,-93.82702,35.61172,128.4081,4.610755E-10,4.610755E-10,-1.95458,51.15167
'[18:09:02.264 20/01/2026]',-31.37644,-93.82702,35.61172,128.4081,4.610755E-10,4.610755E-10,-1.95458,51.15167
'[18:09:02.272 20/01/2026]',-25.91739,34.16694,-56.32572,-30.26616,4.610755E-10,4.610755E-10,1.947061,-369.9454
'[18:09:02.280 20/01/2026]',20.11109,36.674,-7.892694,-178.6666,4.610755E-10,4.610755E-10,-13.09579,85.52502
'[18:09:02.288 20/01/2026]',20.11109,36.674,-7.892694,-178.6666,4.610755E-10,4.610755E-10,-13.09579,85.52502
'[18:09:02.296 20/01/2026]',20.11109,36.674,-7.892694,-178.6666,4.610755E-10,4.610755E-10,-13.09579,85.52502
'[18:09:02.304 20/01/2026]',20.11109,36.674,-7.892694,-178.6666,4.610755E-10,4.610755E-10,-13.09579,85.52502
'[18:09:02.312 20/01/2026]',20.11109,36.674,-7.892694,-178.6666,4.610755E-10,4.610755E-10,-13.09579,85.52502
'[18:09:02.320 20/01/2026]',-0.8853627,-65.77869,-107.7694,359.7758,4.610755E-10,4.610755E-10,-0.9044319,434.2104
'[18:09:02.328 20/01/2026]',2.718833,32.75406,223.9184,-300.3247,4.610755E-10,4.610755E-10,7.193694,-297.147
'[18:09:02.336 20/01/2026]',-2.098857,5.633715,-139.5875,59.02954,4.610755E-10,4.610755E-10,10.32675,-152.8991
'[18:09:02.344 20/01/2026]',-2.098857,5.633715,-139.5875,59.02954,4.610755E-10,4.610755E-10,10.32675,-152.8991
'[18:09:02.352 20/01/2026]',-2.098857,5.633715,-139.5875,59.02954,4.610755E-10,4.610755E-10,10.32675,-152.8991
'[18:09:02.360 20/01/2026]',-2.098857,5.633715,-139.5875,59.02954,4.610755E-10,4.610755E-10,10.32675,-152.8991
'[18:09:02.368 20/01/2026]',-0.5556846,-35.65542,2.471758,84.47565,4.610755E-10,4.610755E-10,-9.664132,198.8702
'[18:09:02.376 20/01/2026]',-0.5556846,-35.65542,2.471758,84.47565,4.610755E-10,4.610755E-10,-9.664132,198.8702
'[18:09:02.384 20/01/2026]',-0.5556846,-35.65542,2.471758,84.47565,4.610755E-10,4.610755E-10,-9.664132,198.8702
'[18:09:02.392 20/01/2026]',-0.5556846,-35.65542,2.471758,84.47565,4.610755E-10,4.610755E-10,-9.664132,198.8702
'[18:09:02.400 20/01/2026]',-0.5556846,-35.65542,2.471758,84.47565,4.610755E-10,4.610755E-10,-9.664132,198.8702
'[18:09:02.408 20/01/2026]',-0.5556846,-35.65542,2.471758,84.47565,4.610755E-10,4.610755E-10,-9.664132,198.8702
'[18:09:02.416 20/01/2026]',11.14949,72.63673,94.95493,-112.9733,4.610755E-10,4.610755E-10,2.640256,161.4334
'[18:09:02.424 20/01/2026]',-16.69725,-53.26546,-55.67084,272.7073,4.610755E-10,4.610755E-10,24.70322,-214.6596
'[18:09:02.432 20/01/2026]',-15.57368,-20.48323,-22.27259,-170.9401,4.610755E-10,4.610755E-10,-18.56742,13.93061
'[18:09:02.440 20/01/2026]',3.123747,18.01468,15.56161,-124.0366,4.610755E-10,4.610755E-10,-13.9623,41.25711
'[18:09:02.448 20/01/2026]',3.123747,18.01468,15.56161,-124.0366,4.610755E-10,4.610755E-10,-13.9623,41.25711
'[18:09:02.456 20/01/2026]',3.123747,18.01468,15.56161,-124.0366,4.610755E-10,4.610755E-10,-13.9623,41.25711
'[18:09:02.464 20/01/2026]',49.01735,45.83168,2.973455,102.642,4.610755E-10,4.610755E-10,10.45294,-35.90803
'[18:09:02.472 20/01/2026]',9.449958,15.8125,8.194536,75.63795,4.610755E-10,4.610755E-10,21.12419,-18.51198
'[18:09:02.480 20/01/2026]',-64.94749,-75.24628,-13.66447,-103.2446,4.610755E-10,4.610755E-10,-34.12783,8.944991
'[18:09:02.488 20/01/2026]',-64.94749,-75.24628,-13.66447,-103.2446,4.610755E-10,4.610755E-10,-34.12783,8.944991
'[18:09:02.496 20/01/2026]',-64.94749,-75.24628,-13.66447,-103.2446,4.610755E-10,4.610755E-10,-34.12783,8.944991
'[18:09:02.504 20/01/2026]',-64.94749,-75.24628,-13.66447,-103.2446,4.610755E-10,4.610755E-10,-34.12783,8.944991
'[18:09:02.512 20/01/2026]',12.67892,-2.293347,-32.43384,0.5673996,4.610755E-10,4.610755E-10,-4.443284,61.95477
'[18:09:02.520 20/01/2026]',14.98884,20.93913,71.45894,-7.097619,4.610755E-10,4.610755E-10,3.485914,5.475087
'[18:09:02.528 20/01/2026]',6.869833,31.36775,-21.26761,38.72974,4.610755E-10,4.610755E-10,38.96292,-43.5647
'[18:09:02.536 20/01/2026]',6.869833,31.36775,-21.26761,38.72974,4.610755E-10,4.610755E-10,38.96292,-43.5647
'[18:09:02.544 20/01/2026]',6.869833,31.36775,-21.26761,38.72974,4.610755E-10,4.610755E-10,38.96292,-43.5647
'[18:09:02.552 20/01/2026]',6.869833,31.36775,-21.26761,38.72974,4.610755E-10,4.610755E-10,38.96292,-43.5647
'[18:09:02.560 20/01/2026]',-18.77361,-31.09199,-73.66727,-46.05429,4.610755E-10,4.610755E-10,-31.28948,-36.17243
'[18:09:02.568 20/01/2026]',-0.2568161,-0.2004144,63.50798,58.42373,4.610755E-10,4.610755E-10,-3.073609,-18.96784
'[18:09:02.576 20/01/2026]',-0.2568161,-0.2004144,63.50798,58.42373,4.610755E-10,4.610755E-10,-3.073609,-18.96784
'[18:09:02.584 20/01/2026]',-0.2568161,-0.2004144,63.50798,58.42373,4.610755E-10,4.610755E-10,-3.073609,-18.96784
'[18:09:02.592 20/01/2026]',-0.2568161,-0.2004144,63.50798,58.42373,4.610755E-10,4.610755E-10,-3.073609,-18.96784
'[18:09:02.600 20/01/2026]',16.18134,4.396946,39.57264,27.4223,4.610755E-10,4.610755E-10,16.25955,68.45644
'[18:09:02.608 20/01/2026]',-19.66822,-14.50451,-63.14539,-38.41792,4.610755E-10,4.610755E-10,-18.49498,-49.97505
'[18:09:02.616 20/01/2026]',22.43919,36.06485,27.33102,48.66637,4.610755E-10,4.610755E-10,26.90029,60.769
'[18:09:02.624 20/01/2026]',22.43919,36.06485,27.33102,48.66637,4.610755E-10,4.610755E-10,26.90029,60.769
'[18:09:02.632 20/01/2026]',22.43919,36.06485,27.33102,48.66637,4.610755E-10,4.610755E-10,26.90029,60.769
'[18:09:02.640 20/01/2026]',22.43919,36.06485,27.33102,48.66637,4.610755E-10,4.610755E-10,26.90029,60.769
'[18:09:02.648 20/01/2026]',-13.3848,-17.98873,8.828887,-38.52231,4.610755E-10,4.610755E-10,-6.21098,24.24298
'[18:09:02.656 20/01/2026]',-4.970448,-13.78633,12.76356,31.05226,4.610755E-10,4.610755E-10,-27.71951,3.437402
'[18:09:02.664 20/01/2026]',-2.382215,-0.4493131,-116.7343,-118.7004,4.610755E-10,4.610755E-10,5.938097,-164.4379
'[18:09:02.672 20/01/2026]',-2.382215,-0.4493131,-116.7343,-118.7004,4.610755E-10,4.610755E-10,5.938097,-164.4379
'[18:09:02.680 20/01/2026]',-2.382215,-0.4493131,-116.7343,-118.7004,4.610755E-10,4.610755E-10,5.938097,-164.4379
'[18:09:02.688 20/01/2026]',-2.382215,-0.4493131,-116.7343,-118.7004,4.610755E-10,4.610755E-10,5.938097,-164.4379
'[18:09:02.696 20/01/2026]',3.756568,13.50705,37.22137,0.2992792,4.610755E-10,4.610755E-10,10.26945,46.28407
'[18:09:02.704 20/01/2026]',14.14575,-17.73037,188.2057,36.76708,4.610755E-10,4.610755E-10,1.569276,184.452
'[18:09:02.712 20/01/2026]',-19.48039,9.063094,-168.5034,58.82275,4.610755E-10,4.610755E-10,-9.548727,-251.0898
'[18:09:02.720 20/01/2026]',-19.48039,9.063094,-168.5034,58.82275,4.610755E-10,4.610755E-10,-9.548727,-251.0898
'[18:09:02.728 20/01/2026]',-19.48039,9.063094,-168.5034,58.82275,4.610755E-10,4.610755E-10,-9.548727,-251.0898
'[18:09:02.736 20/01/2026]',-19.48039,9.063094,-168.5034,58.82275,4.610755E-10,4.610755E-10,-9.548727,-251.0898
'[18:09:02.744 20/01/2026]',-14.52178,-3.108755,-77.33945,82.02631,4.610755E-10,4.610755E-10,2.287061,132.86
'[18:09:02.752 20/01/2026]',11.06385,-11.75508,151.7457,-155.3145,4.610755E-10,4.610755E-10,3.211149,68.70412
'[18:09:02.760 20/01/2026]',11.06385,-11.75508,151.7457,-155.3145,4.610755E-10,4.610755E-10,3.211149,68.70412
'[18:09:02.768 20/01/2026]',11.06385,-11.75508,151.7457,-155.3145,4.610755E-10,4.610755E-10,3.211149,68.70412
'[18:09:02.776 20/01/2026]',11.06385,-11.75508,151.7457,-155.3145,4.610755E-10,4.610755E-10,3.211149,68.70412
'[18:09:02.784 20/01/2026]',11.06385,-11.75508,151.7457,-155.3145,4.610755E-10,4.610755E-10,3.211149,68.70412
'[18:09:02.792 20/01/2026]',11.06385,-11.75508,151.7457,-155.3145,4.610755E-10,4.610755E-10,3.211149,68.70412
'[18:09:02.800 20/01/2026]',11.06385,-11.75508,151.7457,-155.3145,4.610755E-10,4.610755E-10,3.211149,68.70412
'[18:09:02.808 20/01/2026]',11.06385,-11.75508,151.7457,-155.3145,4.610755E-10,4.610755E-10,3.211149,68.70412
'[18:09:02.816 20/01/2026]',11.06385,-11.75508,151.7457,-155.3145,4.610755E-10,4.610755E-10,3.211149,68.70412
'[18:09:02.824 20/01/2026]',11.06385,-11.75508,151.7457,-155.3145,4.610755E-10,4.610755E-10,3.211149,68.70412
'[18:09:02.832 20/01/2026]',37.37157,49.97449,34.90373,80.29334,4.610755E-10,4.610755E-10,4.503179,-24.44129
'[18:09:02.840 20/01/2026]',-38.00248,-19.11519,-70.93783,112.5329,4.610755E-10,4.610755E-10,-5.027014,-193.0223
'[18:09:02.848 20/01/2026]',13.40355,37.0553,-100.9203,137.8798,4.610755E-10,4.610755E-10,32.30357,170.1711
'[18:09:02.856 20/01/2026]',13.40355,37.0553,-100.9203,137.8798,4.610755E-10,4.610755E-10,32.30357,170.1711
'[18:09:02.864 20/01/2026]',13.40355,37.0553,-100.9203,137.8798,4.610755E-10,4.610755E-10,32.30357,170.1711
'[18:09:02.872 20/01/2026]',13.40355,37.0553,-100.9203,137.8798,4.610755E-10,4.610755E-10,32.30357,170.1711
'[18:09:02.880 20/01/2026]',13.40355,37.0553,-100.9203,137.8798,4.610755E-10,4.610755E-10,32.30357,170.1711
'[18:09:02.888 20/01/2026]',17.99389,-11.33354,145.7455,-543.0108,4.610755E-10,4.610755E-10,-45.84935,35.54203
'[18:09:02.896 20/01/2026]',-71.95101,-279.7306,-45.31081,-272.3206,4.610755E-10,4.610755E-10,-41.04812,-139.721
'[18:09:02.904 20/01/2026]',56.96967,193.0371,22.7877,256.4673,4.610755E-10,4.610755E-10,105.3596,273.4232
'[18:09:02.912 20/01/2026]',61.95731,334.3327,-1.209865,914.6328,4.610755E-10,4.610755E-10,21.18518,-201.3069
'[18:09:02.920 20/01/2026]',-110.859,-355.9699,-124.1949,-783.0051,4.610755E-10,4.610755E-10,-137.4398,-289.7497
'[18:09:02.928 20/01/2026]',17.38461,-17.29431,-33.60563,-118.9728,4.610755E-10,4.610755E-10,49.3801,433.7545
'[18:09:02.936 20/01/2026]',56.58802,152.1421,307.8496,154.2539,4.610755E-10,4.610755E-10,26.84123,-96.92798
'[18:09:02.944 20/01/2026]',-31.18781,8.279246,-100.1826,-0.9103254,4.610755E-10,4.610755E-10,10.38939,45.40029
'[18:09:02.952 20/01/2026]',-31.18781,8.279246,-100.1826,-0.9103254,4.610755E-10,4.610755E-10,10.38939,45.40029
'[18:09:02.960 20/01/2026]',-31.18781,8.279246,-100.1826,-0.9103254,4.610755E-10,4.610755E-10,10.38939,45.40029
'[18:09:02.968 20/01/2026]',-31.18781,8.279246,-100.1826,-0.9103254,4.610755E-10,4.610755E-10,10.38939,45.40029
'[18:09:02.976 20/01/2026]',-27.23096,-139.34,-138.5916,374.148,4.610755E-10,4.610755E-10,-65.55276,-192.8312
'[18:09:02.984 20/01/2026]',32.47257,-57.43304,132.6662,-536.9548,4.610755E-10,4.610755E-10,33.59845,156.8784
'[18:09:02.992 20/01/2026]',-8.182756,191.6952,-83.70216,125.3119,4.610755E-10,4.610755E-10,42.28368,20.32718
'[18:09:03.000 20/01/2026]',-8.182756,191.6952,-83.70216,125.3119,4.610755E-10,4.610755E-10,42.28368,20.32718
'[18:09:03.008 20/01/2026]',-8.182756,191.6952,-83.70216,125.3119,4.610755E-10,4.610755E-10,42.28368,20.32718
'[18:09:03.016 20/01/2026]',-8.182756,191.6952,-83.70216,125.3119,4.610755E-10,4.610755E-10,42.28368,20.32718
'[18:09:03.024 20/01/2026]',-8.182756,191.6952,-83.70216,125.3119,4.610755E-10,4.610755E-10,42.28368,20.32718
'[18:09:03.032 20/01/2026]',-3.302714,6.345548,54.93465,232.0942,4.610755E-10,4.610755E-10,-61.49462,-212.8286
'[18:09:03.040 20/01/2026]',16.04046,-100.7008,-36.29487,-176.7396,4.610755E-10,4.610755E-10,40.14021,248.7992
'[18:09:03.048 20/01/2026]',-7.480182,6.946349,2.796435,75.06886,4.610755E-10,4.610755E-10,-4.733092,-138.2136
'[18:09:03.056 20/01/2026]',-7.480182,6.946349,2.796435,75.06886,4.610755E-10,4.610755E-10,-4.733092,-138.2136
'[18:09:03.064 20/01/2026]',-7.480182,6.946349,2.796435,75.06886,4.610755E-10,4.610755E-10,-4.733092,-138.2136
'[18:09:03.072 20/01/2026]',-8.791224,19.23176,-5.615673,-96.79433,4.610755E-10,4.610755E-10,-21.63417,0.955995
'[18:09:03.080 20/01/2026]',4.145617,13.6531,-4.153055,47.99836,4.610755E-10,4.610755E-10,27.48376,51.24639
'[18:09:03.088 20/01/2026]',4.145617,13.6531,-4.153055,47.99836,4.610755E-10,4.610755E-10,27.48376,51.24639
'[18:09:03.096 20/01/2026]',4.145617,13.6531,-4.153055,47.99836,4.610755E-10,4.610755E-10,27.48376,51.24639
'[18:09:03.104 20/01/2026]',4.145617,13.6531,-4.153055,47.99836,4.610755E-10,4.610755E-10,27.48376,51.24639
'[18:09:03.112 20/01/2026]',4.145617,13.6531,-4.153055,47.99836,4.610755E-10,4.610755E-10,27.48376,51.24639
'[18:09:03.120 20/01/2026]',-0.3251153,1.886336,32.09735,103.4033,4.610755E-10,4.610755E-10,5.063927,-138.4005
'[18:09:03.128 20/01/2026]',8.943991,-62.49281,46.20639,-525.5612,4.610755E-10,4.610755E-10,-54.73423,148.8381
'[18:09:03.136 20/01/2026]',-9.946483,29.37845,-112.4539,417.2131,4.610755E-10,4.610755E-10,40.97177,65.36534
'[18:09:03.144 20/01/2026]',-9.946483,29.37845,-112.4539,417.2131,4.610755E-10,4.610755E-10,40.97177,65.36534
'[18:09:03.152 20/01/2026]',-9.946483,29.37845,-112.4539,417.2131,4.610755E-10,4.610755E-10,40.97177,65.36534
'[18:09:03.160 20/01/2026]',32.54501,86.99806,-5.575937,619.4661,4.610755E-10,4.610755E-10,66.71515,-2.531956
'[18:09:03.168 20/01/2026]',-53.31155,-128.3251,172.6398,-909.6476,4.610755E-10,4.610755E-10,-95.0764,-211.409
'[18:09:03.176 20/01/2026]',-48.91858,-37.15616,-159.6285,223.9335,4.610755E-10,4.610755E-10,-27.83838,-76.57719
'[18:09:03.184 20/01/2026]',-48.91858,-37.15616,-159.6285,223.9335,4.610755E-10,4.610755E-10,-27.83838,-76.57719
'[18:09:03.192 20/01/2026]',-48.91858,-37.15616,-159.6285,223.9335,4.610755E-10,4.610755E-10,-27.83838,-76.57719
'[18:09:03.200 20/01/2026]',-48.91858,-37.15616,-159.6285,223.9335,4.610755E-10,4.610755E-10,-27.83838,-76.57719
'[18:09:03.208 20/01/2026]',136.623,177.9879,20.63692,25.9756,4.610755E-10,4.610755E-10,89.04195,122.8413
'[18:09:03.216 20/01/2026]',-23.25439,-8.135101,80.77278,251.5442,4.610755E-10,4.610755E-10,-5.180053,402.2662
'[18:09:03.224 20/01/2026]',-23.25439,-8.135101,80.77278,251.5442,4.610755E-10,4.610755E-10,-5.180053,402.2662
'[18:09:03.232 20/01/2026]',-23.25439,-8.135101,80.77278,251.5442,4.610755E-10,4.610755E-10,-5.180053,402.2662
'[18:09:03.240 20/01/2026]',-23.25439,-8.135101,80.77278,251.5442,4.610755E-10,4.610755E-10,-5.180053,402.2662
'[18:09:03.248 20/01/2026]',-23.25439,-8.135101,80.77278,251.5442,4.610755E-10,4.610755E-10,-5.180053,402.2662
'[18:09:03.256 20/01/2026]',-87.36145,-104.5832,-29.27151,-103.2065,4.610755E-10,4.610755E-10,-46.20753,-258.3311
'[18:09:03.264 20/01/2026]',30.9796,-7.020391,-23.31048,-256.5641,4.610755E-10,4.610755E-10,-6.215375,-273.2696
'[18:09:03.272 20/01/2026]',38.51205,49.74441,-5.969495,239.1,4.610755E-10,4.610755E-10,38.50183,279.9781
'[18:09:03.280 20/01/2026]',38.51205,49.74441,-5.969495,239.1,4.610755E-10,4.610755E-10,38.50183,279.9781
'[18:09:03.288 20/01/2026]',38.51205,49.74441,-5.969495,239.1,4.610755E-10,4.610755E-10,38.50183,279.9781
'[18:09:03.296 20/01/2026]',38.51205,49.74441,-5.969495,239.1,4.610755E-10,4.610755E-10,38.50183,279.9781
'[18:09:03.304 20/01/2026]',-20.11352,2.338954,18.57944,-34.42241,4.610755E-10,4.610755E-10,-4.875278,-6.850406
'[18:09:03.312 20/01/2026]',-21.97104,-31.63559,-34.20588,-139.4612,4.610755E-10,4.610755E-10,-30.10619,-137.5111
'[18:09:03.320 20/01/2026]',-21.97104,-31.63559,-34.20588,-139.4612,4.610755E-10,4.610755E-10,-30.10619,-137.5111
'[18:09:03.328 20/01/2026]',-21.97104,-31.63559,-34.20588,-139.4612,4.610755E-10,4.610755E-10,-30.10619,-137.5111
'[18:09:03.336 20/01/2026]',-21.97104,-31.63559,-34.20588,-139.4612,4.610755E-10,4.610755E-10,-30.10619,-137.5111
'[18:09:03.344 20/01/2026]',-21.97104,-31.63559,-34.20588,-139.4612,4.610755E-10,4.610755E-10,-30.10619,-137.5111
'[18:09:03.352 20/01/2026]',7.441687,5.640026,-9.225715,82.38668,4.610755E-10,4.610755E-10,16.07201,18.69231
'[18:09:03.360 20/01/2026]',24.00067,15.79717,56.63049,27.91259,4.610755E-10,4.610755E-10,7.048942,86.41734
'[18:09:03.368 20/01/2026]',-10.17199,-9.003276,-10.28156,8.987166,4.610755E-10,4.610755E-10,3.589299,-8.122974
'[18:09:03.376 20/01/2026]',-10.17199,-9.003276,-10.28156,8.987166,4.610755E-10,4.610755E-10,3.589299,-8.122974
'[18:09:03.384 20/01/2026]',-10.17199,-9.003276,-10.28156,8.987166,4.610755E-10,4.610755E-10,3.589299,-8.122974
'[18:09:03.392 20/01/2026]',-10.17199,-9.003276,-10.28156,8.987166,4.610755E-10,4.610755E-10,3.589299,-8.122974
'[18:09:03.400 20/01/2026]',-15.6485,-8.635127,-39.56689,-36.63728,4.610755E-10,4.610755E-10,-17.62877,-75.73645
'[18:09:03.408 20/01/2026]',14.00951,13.57785,31.46871,2.323178,4.610755E-10,4.610755E-10,15.76291,55.73455
'[18:09:03.416 20/01/2026]',-3.376437,3.018027,8.097376,61.36473,4.610755E-10,4.610755E-10,-0.8813434,43.86054
'[18:09:03.424 20/01/2026]',-3.376437,3.018027,8.097376,61.36473,4.610755E-10,4.610755E-10,-0.8813434,43.86054
'[18:09:03.432 20/01/2026]',-3.376437,3.018027,8.097376,61.36473,4.610755E-10,4.610755E-10,-0.8813434,43.86054
'[18:09:03.440 20/01/2026]',-0.5964857,-14.74214,-2.718914,-15.40649,4.610755E-10,4.610755E-10,-6.562612,4.704204
'[18:09:03.448 20/01/2026]',3.747851,2.464061,-27.53402,-151.7262,4.610755E-10,4.610755E-10,0.2655042,-85.33971
'[18:09:03.456 20/01/2026]',3.747851,2.464061,-27.53402,-151.7262,4.610755E-10,4.610755E-10,0.2655042,-85.33971
'[18:09:03.464 20/01/2026]',3.747851,2.464061,-27.53402,-151.7262,4.610755E-10,4.610755E-10,0.2655042,-85.33971
'[18:09:03.472 20/01/2026]',3.747851,2.464061,-27.53402,-151.7262,4.610755E-10,4.610755E-10,0.2655042,-85.33971
'[18:09:03.480 20/01/2026]',3.747851,2.464061,-27.53402,-151.7262,4.610755E-10,4.610755E-10,0.2655042,-85.33971
'[18:09:03.488 20/01/2026]',-8.695803,33.44448,-41.99265,183.2533,4.610755E-10,4.610755E-10,6.967954,-236.031
'[18:09:03.496 20/01/2026]',-7.742972,-16.24323,62.377,35.46183,4.610755E-10,4.610755E-10,-2.282558,318.3909
'[18:09:03.504 20/01/2026]',15.05255,-142.86,11.74042,-595.2571,4.610755E-10,4.610755E-10,-50.47894,-167.7657
'[18:09:03.512 20/01/2026]',15.05255,-142.86,11.74042,-595.2571,4.610755E-10,4.610755E-10,-50.47894,-167.7657
'[18:09:03.520 20/01/2026]',15.05255,-142.86,11.74042,-595.2571,4.610755E-10,4.610755E-10,-50.47894,-167.7657
'[18:09:03.528 20/01/2026]',15.05255,-142.86,11.74042,-595.2571,4.610755E-10,4.610755E-10,-50.47894,-167.7657
'[18:09:03.536 20/01/2026]',0.003356695,157.3213,-51.20947,735.253,4.610755E-10,4.610755E-10,70.81267,499.3033
'[18:09:03.544 20/01/2026]',4.898758,39.29148,51.82317,-169.9939,4.610755E-10,4.610755E-10,-5.610353,-452.5141
'[18:09:03.552 20/01/2026]',-2.390196,-82.18884,-78.1279,-156.3623,4.610755E-10,4.610755E-10,-26.49452,-136.9634
'[18:09:03.560 20/01/2026]',-2.390196,-82.18884,-78.1279,-156.3623,4.610755E-10,4.610755E-10,-26.49452,-136.9634
'[18:09:03.568 20/01/2026]',-2.390196,-82.18884,-78.1279,-156.3623,4.610755E-10,4.610755E-10,-26.49452,-136.9634
'[18:09:03.576 20/01/2026]',-2.390196,-82.18884,-78.1279,-156.3623,4.610755E-10,4.610755E-10,-26.49452,-136.9634
'[18:09:03.584 20/01/2026]',-5.229609,-11.69069,102.0447,111.0056,4.610755E-10,4.610755E-10,13.74017,367.8796
'[18:09:03.592 20/01/2026]',-8.922277,20.03831,-19.59797,351.6493,4.610755E-10,4.610755E-10,4.248959,84.70187
'[18:09:03.600 20/01/2026]',-36.02457,-17.73867,-30.29414,-779.3457,4.610755E-10,4.610755E-10,-36.43552,-673.6624
'[18:09:03.608 20/01/2026]',-36.02457,-17.73867,-30.29414,-779.3457,4.610755E-10,4.610755E-10,-36.43552,-673.6624
'[18:09:03.616 20/01/2026]',-36.02457,-17.73867,-30.29414,-779.3457,4.610755E-10,4.610755E-10,-36.43552,-673.6624
'[18:09:03.624 20/01/2026]',-36.02457,-17.73867,-30.29414,-779.3457,4.610755E-10,4.610755E-10,-36.43552,-673.6624
'[18:09:03.632 20/01/2026]',67.91011,38.51765,-18.71944,-210.2569,4.610755E-10,4.610755E-10,9.608697,698.2148
'[18:09:03.640 20/01/2026]',19.00698,5.684426,70.28748,936.8008,4.610755E-10,4.610755E-10,43.39116,-293.7411
'[18:09:03.648 20/01/2026]',-58.24755,-28.72793,-64.98191,125.6607,4.610755E-10,4.610755E-10,-23.5971,49.67697
'[18:09:03.656 20/01/2026]',-58.24755,-28.72793,-64.98191,125.6607,4.610755E-10,4.610755E-10,-23.5971,49.67697
'[18:09:03.664 20/01/2026]',-58.24755,-28.72793,-64.98191,125.6607,4.610755E-10,4.610755E-10,-23.5971,49.67697
'[18:09:03.672 20/01/2026]',5.024014,-1.976817,-19.8359,-158.9806,4.610755E-10,4.610755E-10,-20.28817,6.203088
'[18:09:03.680 20/01/2026]',20.55221,21.42258,65.45628,-1364.783,4.610755E-10,4.610755E-10,27.78383,-23.91531
'[18:09:03.688 20/01/2026]',20.55221,21.42258,65.45628,-1364.783,4.610755E-10,4.610755E-10,27.78383,-23.91531
'[18:09:03.696 20/01/2026]',20.55221,21.42258,65.45628,-1364.783,4.610755E-10,4.610755E-10,27.78383,-23.91531
'[18:09:03.704 20/01/2026]',20.55221,21.42258,65.45628,-1364.783,4.610755E-10,4.610755E-10,27.78383,-23.91531
'[18:09:03.712 20/01/2026]',20.55221,21.42258,65.45628,-1364.783,4.610755E-10,4.610755E-10,27.78383,-23.91531
'[18:09:03.720 20/01/2026]',20.55221,21.42258,65.45628,-1364.783,4.610755E-10,4.610755E-10,27.78383,-23.91531
'[18:09:03.728 20/01/2026]',-7.202858,-11.82038,-27.72913,1364.076,4.610755E-10,4.610755E-10,-8.222915,1.801154
'[18:09:03.736 20/01/2026]',-5.187509,-14.19649,-9.625932,312.0249,4.610755E-10,4.610755E-10,-12.96683,-24.37659
'[18:09:03.744 20/01/2026]',-1.482753,13.0632,7.746984,-1237.304,4.610755E-10,4.610755E-10,19.44781,80.65519
'[18:09:03.752 20/01/2026]',-1.482753,13.0632,7.746984,-1237.304,4.610755E-10,4.610755E-10,19.44781,80.65519
'[18:09:03.760 20/01/2026]',-1.482753,13.0632,7.746984,-1237.304,4.610755E-10,4.610755E-10,19.44781,80.65519
'[18:09:03.768 20/01/2026]',-1.482753,13.0632,7.746984,-1237.304,4.610755E-10,4.610755E-10,19.44781,80.65519
'[18:09:03.776 20/01/2026]',1.94661,-1.782554,-13.50022,728.8181,4.610755E-10,4.610755E-10,-7.776258,-21.61643
'[18:09:03.784 20/01/2026]',1.378427,3.634021,12.71204,83.23114,4.610755E-10,4.610755E-10,-8.490147,-112.7582
'[18:09:03.792 20/01/2026]',2.384984,12.07689,11.5195,-316.2249,4.610755E-10,4.610755E-10,10.559,74.47274
'[18:09:03.800 20/01/2026]',2.384984,12.07689,11.5195,-316.2249,4.610755E-10,4.610755E-10,10.559,74.47274
'[18:09:03.808 20/01/2026]',2.384984,12.07689,11.5195,-316.2249,4.610755E-10,4.610755E-10,10.559,74.47274
'[18:09:03.816 20/01/2026]',-2.093932,-31.31864,-21.54992,33.64465,4.610755E-10,4.610755E-10,-1.206806,86.59333
'[18:09:03.824 20/01/2026]',-8.462724,12.68294,1.159408,133.406,4.610755E-10,4.610755E-10,-4.363408,-91.12782
'[18:09:03.832 20/01/2026]',-8.462724,12.68294,1.159408,133.406,4.610755E-10,4.610755E-10,-4.363408,-91.12782
'[18:09:03.840 20/01/2026]',-8.462724,12.68294,1.159408,133.406,4.610755E-10,4.610755E-10,-4.363408,-91.12782
'[18:09:03.848 20/01/2026]',-8.462724,12.68294,1.159408,133.406,4.610755E-10,4.610755E-10,-4.363408,-91.12782
'[18:09:03.856 20/01/2026]',-8.462724,12.68294,1.159408,133.406,4.610755E-10,4.610755E-10,-4.363408,-91.12782
'[18:09:03.864 20/01/2026]',12.58751,17.06257,6.398218,-263.3052,4.610755E-10,4.610755E-10,8.691574,-59.83133
'[18:09:03.872 20/01/2026]',-2.625092,-5.733538,-8.734902,327.3629,4.610755E-10,4.610755E-10,-12.74499,112.3902
'[18:09:03.880 20/01/2026]',-8.158365,-12.24464,-18.27966,371.4027,4.610755E-10,4.610755E-10,2.88695,72.55047
'[18:09:03.888 20/01/2026]',-8.158365,-12.24464,-18.27966,371.4027,4.610755E-10,4.610755E-10,2.88695,72.55047
'[18:09:03.896 20/01/2026]',-8.158365,-12.24464,-18.27966,371.4027,4.610755E-10,4.610755E-10,2.88695,72.55047
'[18:09:03.904 20/01/2026]',-8.158365,-12.24464,-18.27966,371.4027,4.610755E-10,4.610755E-10,2.88695,72.55047
'[18:09:03.912 20/01/2026]',5.516231,1.865157,54.43937,-1030.29,4.610755E-10,4.610755E-10,13.91204,-146.9096
'[18:09:03.920 20/01/2026]',2.097768,1.294101,-2.782191,509.0994,4.610755E-10,4.610755E-10,-20.80204,-17.54982
'[18:09:03.928 20/01/2026]',-3.703408,3.310569,-53.3282,410.6425,4.610755E-10,4.610755E-10,4.93601,84.71735
'[18:09:03.936 20/01/2026]',-3.703408,3.310569,-53.3282,410.6425,4.610755E-10,4.610755E-10,4.93601,84.71735
'[18:09:03.944 20/01/2026]',-3.703408,3.310569,-53.3282,410.6425,4.610755E-10,4.610755E-10,4.93601,84.71735
'[18:09:03.952 20/01/2026]',-3.703408,3.310569,-53.3282,410.6425,4.610755E-10,4.610755E-10,4.93601,84.71735
'[18:09:03.960 20/01/2026]',-0.6546553,4.283694,23.11635,-596.6416,4.610755E-10,4.610755E-10,10.63741,-11.18159
'[18:09:03.968 20/01/2026]',-1.218676,-15.01241,18.24982,486.9631,4.610755E-10,4.610755E-10,-9.7437,-93.1423
'[18:09:03.976 20/01/2026]',-4.480769,-4.905368,-18.97106,-23.49966,4.610755E-10,4.610755E-10,-3.636774,22.36178
'[18:09:03.984 20/01/2026]',-4.480769,-4.905368,-18.97106,-23.49966,4.610755E-10,4.610755E-10,-3.636774,22.36178
'[18:09:03.992 20/01/2026]',-4.480769,-4.905368,-18.97106,-23.49966,4.610755E-10,4.610755E-10,-3.636774,22.36178
'[18:09:04.000 20/01/2026]',-35.64404,-22.76787,21.85945,-705.0454,4.610755E-10,4.610755E-10,4.516733,-42.16312
'[18:09:04.008 20/01/2026]',37.31216,40.76948,-15.72318,337.9183,4.610755E-10,4.610755E-10,-3.849494,-53.19946
'[18:09:04.016 20/01/2026]',37.31216,40.76948,-15.72318,337.9183,4.610755E-10,4.610755E-10,-3.849494,-53.19946
'[18:09:04.024 20/01/2026]',37.31216,40.76948,-15.72318,337.9183,4.610755E-10,4.610755E-10,-3.849494,-53.19946
'[18:09:04.032 20/01/2026]',53.80185,45.91379,-56.09168,452.0954,4.610755E-10,4.610755E-10,11.95632,483.4417
'[18:09:04.040 20/01/2026]',-44.73417,-54.12459,77.82751,-188.2951,4.610755E-10,4.610755E-10,-2.467211,-456.419
'[18:09:04.048 20/01/2026]',-44.73417,-54.12459,77.82751,-188.2951,4.610755E-10,4.610755E-10,-2.467211,-456.419
'[18:09:04.056 20/01/2026]',-44.73417,-54.12459,77.82751,-188.2951,4.610755E-10,4.610755E-10,-2.467211,-456.419
'[18:09:04.064 20/01/2026]',-25.49334,-13.45624,-8.189201,-412.4411,4.610755E-10,4.610755E-10,-11.2784,15.96493
'[18:09:04.072 20/01/2026]',23.83407,23.0422,-73.27285,446.9859,4.610755E-10,4.610755E-10,1.843013,255.4938
'[18:09:04.080 20/01/2026]',23.83407,23.0422,-73.27285,446.9859,4.610755E-10,4.610755E-10,1.843013,255.4938
'[18:09:04.088 20/01/2026]',7.09782,-4.046291,100.8115,0.2798673,4.610755E-10,4.610755E-10,5.196412,-182.2508
'[18:09:04.096 20/01/2026]',7.09782,-4.046291,100.8115,0.2798673,4.610755E-10,4.610755E-10,5.196412,-182.2508
'[18:09:04.104 20/01/2026]',-12.96009,-7.008214,-30.18737,-213.4953,4.610755E-10,4.610755E-10,1.65206,-67.94841
'[18:09:04.112 20/01/2026]',-12.96009,-7.008214,-30.18737,-213.4953,4.610755E-10,4.610755E-10,1.65206,-67.94841
'[18:09:04.120 20/01/2026]',-2.873112,2.702181,-29.96221,39.7095,4.610755E-10,4.610755E-10,-1.391093,55.05296
'[18:09:04.128 20/01/2026]',-2.873112,2.702181,-29.96221,39.7095,4.610755E-10,4.610755E-10,-1.391093,55.05296
'[18:09:04.136 20/01/2026]',6.748652,1.970032,18.64258,-83.63909,4.610755E-10,4.610755E-10,-0.8369598,154.2634
'[18:09:04.144 20/01/2026]',6.748652,1.970032,18.64258,-83.63909,4.610755E-10,4.610755E-10,-0.8369598,154.2634
'[18:09:04.152 20/01/2026]',6.748652,1.970032,18.64258,-83.63909,4.610755E-10,4.610755E-10,-0.8369598,154.2634
'[18:09:04.160 20/01/2026]',6.748652,1.970032,18.64258,-83.63909,4.610755E-10,4.610755E-10,-0.8369598,154.2634
'[18:09:04.168 20/01/2026]',-0.6768091,-0.9392149,5.44339,219.2854,4.610755E-10,4.610755E-10,8.16813,-149.5501
'[18:09:04.176 20/01/2026]',-0.6768091,-0.9392149,5.44339,219.2854,4.610755E-10,4.610755E-10,8.16813,-149.5501
'[18:09:04.184 20/01/2026]',-0.6768091,-0.9392149,5.44339,219.2854,4.610755E-10,4.610755E-10,8.16813,-149.5501
'[18:09:04.192 20/01/2026]',-0.6768091,-0.9392149,5.44339,219.2854,4.610755E-10,4.610755E-10,8.16813,-149.5501
'[18:09:04.200 20/01/2026]',-1.420448,0.4549153,-10.00879,-11.15186,4.610755E-10,4.610755E-10,-9.355141,4.556049
'[18:09:04.208 20/01/2026]',-0.5777943,-1.023372,-3.803129,-11.95382,4.610755E-10,4.610755E-10,-5.117666,0.04109564
'[18:09:04.216 20/01/2026]',-0.5764606,-2.516271,15.63043,-195.1996,4.610755E-10,4.610755E-10,3.842889,18.56778
'[18:09:04.224 20/01/2026]',-0.5764606,-2.516271,15.63043,-195.1996,4.610755E-10,4.610755E-10,3.842889,18.56778
'[18:09:04.232 20/01/2026]',0.7469099,7.679865,-5.717919,150.1976,4.610755E-10,4.610755E-10,8.253016,-5.686971
'[18:09:04.240 20/01/2026]',0.7469099,7.679865,-5.717919,150.1976,4.610755E-10,4.610755E-10,8.253016,-5.686971
'[18:09:04.248 20/01/2026]',0.7469099,7.679865,-5.717919,150.1976,4.610755E-10,4.610755E-10,8.253016,-5.686971
'[18:09:04.256 20/01/2026]',0.9421763,-3.94622,-7.246406,12.00488,4.610755E-10,4.610755E-10,-4.972048,4.257806
'[18:09:04.264 20/01/2026]',-2.698076,-2.15352,-0.4854309,10.10937,4.610755E-10,4.610755E-10,-4.782783,0.01685925
'[18:09:04.272 20/01/2026]',-2.698076,-2.15352,-0.4854309,10.10937,4.610755E-10,4.610755E-10,-4.782783,0.01685925
'[18:09:04.280 20/01/2026]',0.1918623,5.960795,8.66202,-108.2244,4.610755E-10,4.610755E-10,8.884016,-21.87969
'[18:09:04.288 20/01/2026]',0.1918623,5.960795,8.66202,-108.2244,4.610755E-10,4.610755E-10,8.884016,-21.87969
'[18:09:04.296 20/01/2026]',5.35837,6.089491,-1.497469,83.81113,4.610755E-10,4.610755E-10,0.829295,24.48941
'[18:09:04.304 20/01/2026]',5.35837,6.089491,-1.497469,83.81113,4.610755E-10,4.610755E-10,0.829295,24.48941
'[18:09:04.312 20/01/2026]',5.35837,6.089491,-1.497469,83.81113,4.610755E-10,4.610755E-10,0.829295,24.48941
'[18:09:04.320 20/01/2026]',5.35837,6.089491,-1.497469,83.81113,4.610755E-10,4.610755E-10,0.829295,24.48941
'[18:09:04.328 20/01/2026]',-7.438296,-17.52444,-4.854486,-14.01566,4.610755E-10,4.610755E-10,-13.89233,-0.2755792
'[18:09:04.336 20/01/2026]',2.370486,5.009398,1.250552,4.271584,4.610755E-10,4.610755E-10,8.799411,-16.8168
'[18:09:04.344 20/01/2026]',2.370486,5.009398,1.250552,4.271584,4.610755E-10,4.610755E-10,8.799411,-16.8168
'[18:09:04.352 20/01/2026]',2.370486,5.009398,1.250552,4.271584,4.610755E-10,4.610755E-10,8.799411,-16.8168
'[18:09:04.360 20/01/2026]',2.370486,5.009398,1.250552,4.271584,4.610755E-10,4.610755E-10,8.799411,-16.8168
'[18:09:04.368 20/01/2026]',2.370486,5.009398,1.250552,4.271584,4.610755E-10,4.610755E-10,8.799411,-16.8168
'[18:09:04.376 20/01/2026]',2.684446,5.305032,-0.7553647,42.65516,4.610755E-10,4.610755E-10,2.508581,4.105201
'[18:09:04.384 20/01/2026]',-2.115111,-3.42484,1.13711,-55.31519,4.610755E-10,4.610755E-10,-5.144016,5.723361
'[18:09:04.392 20/01/2026]',-0.3796567,-0.5812058,2.299826,-17.0652,4.610755E-10,4.610755E-10,-1.470781,-6.960235
'[18:09:04.400 20/01/2026]',-0.3796567,-0.5812058,2.299826,-17.0652,4.610755E-10,4.610755E-10,-1.470781,-6.960235
'[18:09:04.408 20/01/2026]',-0.3796567,-0.5812058,2.299826,-17.0652,4.610755E-10,4.610755E-10,-1.470781,-6.960235
'[18:09:04.416 20/01/2026]',-0.3796567,-0.5812058,2.299826,-17.0652,4.610755E-10,4.610755E-10,-1.470781,-6.960235
'[18:09:04.424 20/01/2026]',2.300627,3.519437,-5.29452,31.0993,4.610755E-10,4.610755E-10,6.720258,15.00849
'[18:09:04.432 20/01/2026]',0.4464673,-1.509947,0.6679245,-25.41307,4.610755E-10,4.610755E-10,-2.960234,-10.87706
'[18:09:04.440 20/01/2026]',0.4464673,-1.509947,0.6679245,-25.41307,4.610755E-10,4.610755E-10,-2.960234,-10.87706
'[18:09:04.448 20/01/2026]',0.4464673,-1.509947,0.6679245,-25.41307,4.610755E-10,4.610755E-10,-2.960234,-10.87706
'[18:09:04.456 20/01/2026]',0.4464673,-1.509947,0.6679245,-25.41307,4.610755E-10,4.610755E-10,-2.960234,-10.87706
'[18:09:04.464 20/01/2026]',0.4464673,-1.509947,0.6679245,-25.41307,4.610755E-10,4.610755E-10,-2.960234,-10.87706
'[18:09:04.472 20/01/2026]',-1.520256,-0.1720611,8.784726,47.70952,4.610755E-10,4.610755E-10,2.252373,-44.15654
'[18:09:04.480 20/01/2026]',0.3104795,-2.903241,-7.655536,-22.42441,4.610755E-10,4.610755E-10,-2.393032,109.8727
'[18:09:04.488 20/01/2026]',-8.007048,-7.479929,-1.956477,-60.80933,4.610755E-10,4.610755E-10,-1.738437,-81.86077
'[18:09:04.496 20/01/2026]',-8.007048,-7.479929,-1.956477,-60.80933,4.610755E-10,4.610755E-10,-1.738437,-81.86077
'[18:09:04.504 20/01/2026]',-8.007048,-7.479929,-1.956477,-60.80933,4.610755E-10,4.610755E-10,-1.738437,-81.86077
'[18:09:04.512 20/01/2026]',-24.10319,-20.33395,-6.164817,54.42147,4.610755E-10,4.610755E-10,-2.300728,-15.84394
'[18:09:04.520 20/01/2026]',37.69648,41.23313,11.77893,48.98347,4.610755E-10,4.610755E-10,9.293199,47.53905
'[18:09:04.528 20/01/2026]',42.04371,32.21572,13.40617,-52.51083,4.610755E-10,4.610755E-10,-1.580682,1.351345
'[18:09:04.536 20/01/2026]',42.04371,32.21572,13.40617,-52.51083,4.610755E-10,4.610755E-10,-1.580682,1.351345
'[18:09:04.544 20/01/2026]',42.04371,32.21572,13.40617,-52.51083,4.610755E-10,4.610755E-10,-1.580682,1.351345
'[18:09:04.552 20/01/2026]',42.04371,32.21572,13.40617,-52.51083,4.610755E-10,4.610755E-10,-1.580682,1.351345
'[18:09:04.560 20/01/2026]',-57.10722,-54.84081,-17.12586,-39.22794,4.610755E-10,4.610755E-10,-6.933823,-14.74191
'[18:09:04.568 20/01/2026]',-11.73478,-5.242602,-4.955442,37.51767,4.610755E-10,4.610755E-10,0.9934174,-13.258
'[18:09:04.576 20/01/2026]',-11.73478,-5.242602,-4.955442,37.51767,4.610755E-10,4.610755E-10,0.9934174,-13.258
'[18:09:04.584 20/01/2026]',-11.73478,-5.242602,-4.955442,37.51767,4.610755E-10,4.610755E-10,0.9934174,-13.258
'[18:09:04.592 20/01/2026]',-11.73478,-5.242602,-4.955442,37.51767,4.610755E-10,4.610755E-10,0.9934174,-13.258
'[18:09:04.600 20/01/2026]',-11.73478,-5.242602,-4.955442,37.51767,4.610755E-10,4.610755E-10,0.9934174,-13.258
'[18:09:04.608 20/01/2026]',30.00648,26.83263,9.611569,41.48372,4.610755E-10,4.610755E-10,6.284857,9.465906
'[18:09:04.616 20/01/2026]',-3.386312,-5.304464,-0.4653119,-27.37308,4.610755E-10,4.610755E-10,-4.752694,-3.138981
'[18:09:04.624 20/01/2026]',-9.926001,-10.81736,-2.354022,-20.1561,4.610755E-10,4.610755E-10,0.5304213,9.149863
'[18:09:04.632 20/01/2026]',-9.926001,-10.81736,-2.354022,-20.1561,4.610755E-10,4.610755E-10,0.5304213,9.149863
'[18:09:04.640 20/01/2026]',-9.926001,-10.81736,-2.354022,-20.1561,4.610755E-10,4.610755E-10,0.5304213,9.149863
'[18:09:04.648 20/01/2026]',-9.926001,-10.81736,-2.354022,-20.1561,4.610755E-10,4.610755E-10,0.5304213,9.149863
'[18:09:04.656 20/01/2026]',-0.178496,5.048668,-2.443508,31.78406,4.610755E-10,4.610755E-10,3.109172,-46.76857
'[18:09:04.664 20/01/2026]',6.272012,11.99404,-0.6495194,-182.9496,4.610755E-10,4.610755E-10,7.142986,52.65779
'[18:09:04.672 20/01/2026]',6.272012,11.99404,-0.6495194,-182.9496,4.610755E-10,4.610755E-10,7.142986,52.65779
'[18:09:04.680 20/01/2026]',6.272012,11.99404,-0.6495194,-182.9496,4.610755E-10,4.610755E-10,7.142986,52.65779
'[18:09:04.688 20/01/2026]',6.272012,11.99404,-0.6495194,-182.9496,4.610755E-10,4.610755E-10,7.142986,52.65779
'[18:09:04.696 20/01/2026]',6.272012,11.99404,-0.6495194,-182.9496,4.610755E-10,4.610755E-10,7.142986,52.65779
'[18:09:04.704 20/01/2026]',-0.3342865,-11.77131,-5.518899,103.2251,4.610755E-10,4.610755E-10,6.316857,81.75381
'[18:09:04.712 20/01/2026]',-5.855385,-8.919174,12.187,-62.0891,4.610755E-10,4.610755E-10,-56.59758,-95.42031
'[18:09:04.720 20/01/2026]',4.57266,5.950133,6.277054,309.827,4.610755E-10,4.610755E-10,20.82185,-38.24429
'[18:09:04.728 20/01/2026]',-1.176467,6.01392,-38.72728,-311.218,4.610755E-10,4.610755E-10,54.20988,-12.96359
'[18:09:04.736 20/01/2026]',-1.176467,6.01392,-38.72728,-311.218,4.610755E-10,4.610755E-10,54.20988,-12.96359
'[18:09:04.744 20/01/2026]',-1.176467,6.01392,-38.72728,-311.218,4.610755E-10,4.610755E-10,54.20988,-12.96359
'[18:09:04.752 20/01/2026]',6.307855,-0.58484,36.19504,353.9111,4.610755E-10,4.610755E-10,-32.59988,-74.0869
'[18:09:04.760 20/01/2026]',-7.81431,-5.843081,39.383,-257.8025,4.610755E-10,4.610755E-10,-76.41629,213.1332
'[18:09:04.768 20/01/2026]',-7.81431,-5.843081,39.383,-257.8025,4.610755E-10,4.610755E-10,-76.41629,213.1332
'[18:09:04.776 20/01/2026]',-7.81431,-5.843081,39.383,-257.8025,4.610755E-10,4.610755E-10,-76.41629,213.1332
'[18:09:04.784 20/01/2026]',-7.81431,-5.843081,39.383,-257.8025,4.610755E-10,4.610755E-10,-76.41629,213.1332
'[18:09:04.792 20/01/2026]',-4.276777,-7.849463,-64.13786,145.0161,4.610755E-10,4.610755E-10,70.81364,96.26793
'[18:09:04.800 20/01/2026]',16.16712,18.33737,32.84402,-113.1394,4.610755E-10,4.610755E-10,68.23309,-278.0797
'[18:09:04.808 20/01/2026]',-1.575948,2.307546,7.575727,264.7645,4.610755E-10,4.610755E-10,-128.9524,37.07933
'[18:09:04.816 20/01/2026]',-1.575948,2.307546,7.575727,264.7645,4.610755E-10,4.610755E-10,-128.9524,37.07933
'[18:09:04.824 20/01/2026]',-1.575948,2.307546,7.575727,264.7645,4.610755E-10,4.610755E-10,-128.9524,37.07933
'[18:09:04.832 20/01/2026]',-1.575948,2.307546,7.575727,264.7645,4.610755E-10,4.610755E-10,-128.9524,37.07933
'[18:09:04.840 20/01/2026]',-1.575948,2.307546,7.575727,264.7645,4.610755E-10,4.610755E-10,-128.9524,37.07933
'[18:09:04.848 20/01/2026]',-16.32631,-17.58985,-14.74627,-707.2209,4.610755E-10,4.610755E-10,45.74089,220.0282
'[18:09:04.856 20/01/2026]',2.833754,-4.774791,-21.62676,332.1761,4.610755E-10,4.610755E-10,7.448895,-190.3358
'[18:09:04.864 20/01/2026]',21.15262,35.7645,22.05787,293.3029,4.610755E-10,4.610755E-10,29.21315,-55.49361
'[18:09:04.872 20/01/2026]',21.15262,35.7645,22.05787,293.3029,4.610755E-10,4.610755E-10,29.21315,-55.49361
'[18:09:04.880 20/01/2026]',21.15262,35.7645,22.05787,293.3029,4.610755E-10,4.610755E-10,29.21315,-55.49361
'[18:09:04.888 20/01/2026]',-6.561573,-14.04225,26.60003,63.21641,4.610755E-10,4.610755E-10,-14.44585,91.98165
'[18:09:04.896 20/01/2026]',-9.243183,-7.542492,-26.04739,-456.8424,4.610755E-10,4.610755E-10,-20.42007,43.52769
'[18:09:04.904 20/01/2026]',3.051611,-5.389133,-4.52599,138.8023,4.610755E-10,4.610755E-10,15.02232,8.656199
'[18:09:04.912 20/01/2026]',3.051611,-5.389133,-4.52599,138.8023,4.610755E-10,4.610755E-10,15.02232,8.656199
'[18:09:04.920 20/01/2026]',3.051611,-5.389133,-4.52599,138.8023,4.610755E-10,4.610755E-10,15.02232,8.656199
'[18:09:04.928 20/01/2026]',3.051611,-5.389133,-4.52599,138.8023,4.610755E-10,4.610755E-10,15.02232,8.656199
'[18:09:04.936 20/01/2026]',0.6035202,6.562547,12.00128,253.6361,4.610755E-10,4.610755E-10,-12.27265,-42.59786
'[18:09:04.944 20/01/2026]',0.6641843,2.607266,7.467665,-216.0865,4.610755E-10,4.610755E-10,3.807804,-58.50155
'[18:09:04.952 20/01/2026]',0.6641843,2.607266,7.467665,-216.0865,4.610755E-10,4.610755E-10,3.807804,-58.50155
'[18:09:04.960 20/01/2026]',-6.256523,-5.52166,-35.53665,42.27463,4.610755E-10,4.610755E-10,6.350947,63.14094
'[18:09:04.968 20/01/2026]',-9.596254,-9.935783,-38.46373,-46.60496,4.610755E-10,4.610755E-10,-20.11416,47.7326
'[18:09:04.976 20/01/2026]',-9.596254,-9.935783,-38.46373,-46.60496,4.610755E-10,4.610755E-10,-20.11416,47.7326
'[18:09:04.984 20/01/2026]',-9.596254,-9.935783,-38.46373,-46.60496,4.610755E-10,4.610755E-10,-20.11416,47.7326
'[18:09:04.992 20/01/2026]',-10.59065,-1.612079,25.75871,265.4035,4.610755E-10,4.610755E-10,14.80719,-171.5461
'[18:09:05.000 20/01/2026]',54.58072,86.65742,173.5852,-307.1043,4.610755E-10,4.610755E-10,6.345223,121.6378
'[18:09:05.008 20/01/2026]',54.58072,86.65742,173.5852,-307.1043,4.610755E-10,4.610755E-10,6.345223,121.6378
'[18:09:05.016 20/01/2026]',54.58072,86.65742,173.5852,-307.1043,4.610755E-10,4.610755E-10,6.345223,121.6378
'[18:09:05.024 20/01/2026]',-3.949686,-129.3124,-240.7727,-37.47435,4.610755E-10,4.610755E-10,28.91849,30.59027
'[18:09:05.032 20/01/2026]',-49.61306,14.49472,68.48611,59.04176,4.610755E-10,4.610755E-10,-42.05032,-170.0406
'[18:09:05.040 20/01/2026]',-49.61306,14.49472,68.48611,59.04176,4.610755E-10,4.610755E-10,-42.05032,-170.0406
'[18:09:05.048 20/01/2026]',-49.61306,14.49472,68.48611,59.04176,4.610755E-10,4.610755E-10,-42.05032,-170.0406
'[18:09:05.056 20/01/2026]',-49.61306,14.49472,68.48611,59.04176,4.610755E-10,4.610755E-10,-42.05032,-170.0406
'[18:09:05.064 20/01/2026]',-49.61306,14.49472,68.48611,59.04176,4.610755E-10,4.610755E-10,-42.05032,-170.0406
'[18:09:05.072 20/01/2026]',22.90905,104.3473,107.6441,249.1598,4.610755E-10,4.610755E-10,3.745947,179.9806
'[18:09:05.080 20/01/2026]',6.516696,-60.09033,-139.3887,-73.40119,4.610755E-10,4.610755E-10,11.75809,-12.70288
'[18:09:05.088 20/01/2026]',6.516696,-60.09033,-139.3887,-73.40119,4.610755E-10,4.610755E-10,11.75809,-12.70288
'[18:09:05.096 20/01/2026]',-3.914574,-18.06141,47.42656,-36.94813,4.610755E-10,4.610755E-10,-4.292101,34.48194
'[18:09:05.104 20/01/2026]',-6.604097,8.596699,22.14016,-321.814,4.610755E-10,4.610755E-10,-2.694042,-62.19322
'[18:09:05.112 20/01/2026]',-6.604097,8.596699,22.14016,-321.814,4.610755E-10,4.610755E-10,-2.694042,-62.19322
'[18:09:05.120 20/01/2026]',0.1334954,9.51906,-9.235849,348.6712,4.610755E-10,4.610755E-10,3.587632,-15.4303
'[18:09:05.128 20/01/2026]',0.1334954,9.51906,-9.235849,348.6712,4.610755E-10,4.610755E-10,3.587632,-15.4303
'[18:09:05.136 20/01/2026]',5.464443,8.974069,-26.86818,75.69354,4.610755E-10,4.610755E-10,4.450782,31.78384
'[18:09:05.144 20/01/2026]',5.464443,8.974069,-26.86818,75.69354,4.610755E-10,4.610755E-10,4.450782,31.78384
'[18:09:05.152 20/01/2026]',5.464443,8.974069,-26.86818,75.69354,4.610755E-10,4.610755E-10,4.450782,31.78384
'[18:09:05.160 20/01/2026]',5.464443,8.974069,-26.86818,75.69354,4.610755E-10,4.610755E-10,4.450782,31.78384
'[18:09:05.168 20/01/2026]',5.464443,8.974069,-26.86818,75.69354,4.610755E-10,4.610755E-10,4.450782,31.78384
'[18:09:05.176 20/01/2026]',5.464443,8.974069,-26.86818,75.69354,4.610755E-10,4.610755E-10,4.450782,31.78384
'[18:09:05.184 20/01/2026]',-0.2052365,-12.5645,11.41027,-251.2336,4.610755E-10,4.610755E-10,-4.148818,-11.84009
'[18:09:05.192 20/01/2026]',-6.029863,3.936645,38.95568,-78.87939,4.610755E-10,4.610755E-10,-6.537964,-7.535358
'[18:09:05.200 20/01/2026]',4.280854,-4.785594,-44.93754,335.562,4.610755E-10,4.610755E-10,3.430118,12.52686
'[18:09:05.208 20/01/2026]',-0.9023216,0.004003904,-1.728539,-125.5686,4.610755E-10,4.610755E-10,3.604916,-37.21498
'[18:09:05.216 20/01/2026]',-0.9023216,0.004003904,-1.728539,-125.5686,4.610755E-10,4.610755E-10,3.604916,-37.21498
'[18:09:05.224 20/01/2026]',-0.9023216,0.004003904,-1.728539,-125.5686,4.610755E-10,4.610755E-10,3.604916,-37.21498
'[18:09:05.232 20/01/2026]',-0.9023216,0.004003904,-1.728539,-125.5686,4.610755E-10,4.610755E-10,3.604916,-37.21498
'[18:09:05.240 20/01/2026]',-2.503056,5.175651,27.59779,-175.4251,4.610755E-10,4.610755E-10,-1.608679,35.95016
'[18:09:05.248 20/01/2026]',-2.503056,5.175651,27.59779,-175.4251,4.610755E-10,4.610755E-10,-1.608679,35.95016
'[18:09:05.256 20/01/2026]',5.171095,-2.53153,-3.753392,79.13394,4.610755E-10,4.610755E-10,6.158176,8.027776
'[18:09:05.264 20/01/2026]',-5.824194,-2.957733,-35.64847,133.7014,4.610755E-10,4.610755E-10,-17.37179,-41.39173
'[18:09:05.272 20/01/2026]',-5.824194,-2.957733,-35.64847,133.7014,4.610755E-10,4.610755E-10,-17.37179,-41.39173
'[18:09:05.280 20/01/2026]',-5.824194,-2.957733,-35.64847,133.7014,4.610755E-10,4.610755E-10,-17.37179,-41.39173
'[18:09:05.288 20/01/2026]',1.548898,6.845775,41.62806,-47.30543,4.610755E-10,4.610755E-10,13.89408,43.45798
'[18:09:05.296 20/01/2026]',1.548898,6.845775,41.62806,-47.30543,4.610755E-10,4.610755E-10,13.89408,43.45798
'[18:09:05.304 20/01/2026]',0.265435,-12.64573,-14.34864,-27.4101,4.610755E-10,4.610755E-10,0.2751854,-16.63246
'[18:09:05.312 20/01/2026]',0.4591876,-1.728983,-8.560908,-45.84499,4.610755E-10,4.610755E-10,-20.47329,-0.6300731
'[18:09:05.320 20/01/2026]',0.4591876,-1.728983,-8.560908,-45.84499,4.610755E-10,4.610755E-10,-20.47329,-0.6300731
'[18:09:05.328 20/01/2026]',0.4591876,-1.728983,-8.560908,-45.84499,4.610755E-10,4.610755E-10,-20.47329,-0.6300731
'[18:09:05.336 20/01/2026]',0.0338333,15.23608,15.45362,20.25453,4.610755E-10,4.610755E-10,18.10101,-12.15858
'[18:09:05.344 20/01/2026]',0.0338333,15.23608,15.45362,20.25453,4.610755E-10,4.610755E-10,18.10101,-12.15858
'[18:09:05.352 20/01/2026]',-0.2309944,-2.926447,-3.532116,58.40252,4.610755E-10,4.610755E-10,1.299548,-4.837223
'[18:09:05.360 20/01/2026]',-0.2309944,-2.926447,-3.532116,58.40252,4.610755E-10,4.610755E-10,1.299548,-4.837223
'[18:09:05.368 20/01/2026]',-1.741001,-6.391354,-9.070714,-20.4274,4.610755E-10,4.610755E-10,-5.345916,30.88941
'[18:09:05.376 20/01/2026]',-1.741001,-6.391354,-9.070714,-20.4274,4.610755E-10,4.610755E-10,-5.345916,30.88941
'[18:09:05.384 20/01/2026]',3.012758,2.705397,6.820989,-61.54144,4.610755E-10,4.610755E-10,0.01388749,-10.93701
'[18:09:05.392 20/01/2026]',3.012758,2.705397,6.820989,-61.54144,4.610755E-10,4.610755E-10,0.01388749,-10.93701
'[18:09:05.400 20/01/2026]',3.012758,2.705397,6.820989,-61.54144,4.610755E-10,4.610755E-10,0.01388749,-10.93701
'[18:09:05.408 20/01/2026]',3.012758,2.705397,6.820989,-61.54144,4.610755E-10,4.610755E-10,0.01388749,-10.93701
'[18:09:05.416 20/01/2026]',3.012758,2.705397,6.820989,-61.54144,4.610755E-10,4.610755E-10,0.01388749,-10.93701
'[18:09:05.424 20/01/2026]',3.012758,2.705397,6.820989,-61.54144,4.610755E-10,4.610755E-10,0.01388749,-10.93701
'[18:09:05.432 20/01/2026]',-5.268682,2.017264,-2.316075,28.50476,4.610755E-10,4.610755E-10,2.534183,-10.98247
'[18:09:05.440 20/01/2026]',4.18876,2.559151,3.251088,44.08384,4.610755E-10,4.610755E-10,-2.793557,8.365204
'[18:09:05.448 20/01/2026]',-2.510292,-8.295182,-5.248497,-46.19984,4.610755E-10,4.610755E-10,-0.1870659,14.53545
'[18:09:05.456 20/01/2026]',1.906162,-2.032084,-1.248673,-10.677,4.610755E-10,4.610755E-10,-0.7524684,-24.80876
'[18:09:05.464 20/01/2026]',1.906162,-2.032084,-1.248673,-10.677,4.610755E-10,4.610755E-10,-0.7524684,-24.80876
'[18:09:05.472 20/01/2026]',1.906162,-2.032084,-1.248673,-10.677,4.610755E-10,4.610755E-10,-0.7524684,-24.80876
'[18:09:05.480 20/01/2026]',1.906162,-2.032084,-1.248673,-10.677,4.610755E-10,4.610755E-10,-0.7524684,-24.80876
'[18:09:05.488 20/01/2026]',0.5445951,13.47861,2.912579,40.77011,4.610755E-10,4.610755E-10,4.163611,-32.91828
'[18:09:05.496 20/01/2026]',-4.076637,-10.76483,14.29687,-29.8549,4.610755E-10,4.610755E-10,0.08440616,36.91413
'[18:09:05.504 20/01/2026]',4.591386,-1.55832,-20.39702,-0.8369086,4.610755E-10,4.610755E-10,-3.964873,50.4763
'[18:09:05.512 20/01/2026]',4.591386,-1.55832,-20.39702,-0.8369086,4.610755E-10,4.610755E-10,-3.964873,50.4763
'[18:09:05.520 20/01/2026]',-9.080194,6.099815,-8.657753,23.75723,4.610755E-10,4.610755E-10,2.057843,-69.82077
'[18:09:05.528 20/01/2026]',-9.080194,6.099815,-8.657753,23.75723,4.610755E-10,4.610755E-10,2.057843,-69.82077
'[18:09:05.536 20/01/2026]',5.115595,-3.378299,14.97784,-57.6448,4.610755E-10,4.610755E-10,-1.042068,47.7271
'[18:09:05.544 20/01/2026]',5.115595,-3.378299,14.97784,-57.6448,4.610755E-10,4.610755E-10,-1.042068,47.7271
'[18:09:05.552 20/01/2026]',4.018246,-0.2795839,14.58049,57.09076,4.610755E-10,4.610755E-10,-0.5600877,-37.94305
'[18:09:05.560 20/01/2026]',4.018246,-0.2795839,14.58049,57.09076,4.610755E-10,4.610755E-10,-0.5600877,-37.94305
'[18:09:05.568 20/01/2026]',4.018246,-0.2795839,14.58049,57.09076,4.610755E-10,4.610755E-10,-0.5600877,-37.94305
'[18:09:05.576 20/01/2026]',4.018246,-0.2795839,14.58049,57.09076,4.610755E-10,4.610755E-10,-0.5600877,-37.94305
'[18:09:05.584 20/01/2026]',4.018246,-0.2795839,14.58049,57.09076,4.610755E-10,4.610755E-10,-0.5600877,-37.94305
'[18:09:05.592 20/01/2026]',-7.035728,-3.655052,-19.22988,4.02731,4.610755E-10,4.610755E-10,-3.118837,5.397418
'[18:09:05.600 20/01/2026]',-7.035728,-3.655052,-19.22988,4.02731,4.610755E-10,4.610755E-10,-3.118837,5.397418
'[18:09:05.608 20/01/2026]',2.11338,7.36076,-7.597115,-9.511707,4.610755E-10,4.610755E-10,5.010756,24.05692
'[18:09:05.616 20/01/2026]',0.5050609,-0.1903726,24.89657,-21.16496,4.610755E-10,4.610755E-10,5.636841,-10.13868
'[18:09:05.624 20/01/2026]',0.5050609,-0.1903726,24.89657,-21.16496,4.610755E-10,4.610755E-10,5.636841,-10.13868
'[18:09:05.632 20/01/2026]',0.3263263,-5.517791,-13.04026,34.04311,4.610755E-10,4.610755E-10,-9.882928,-10.6748
'[18:09:05.640 20/01/2026]',0.08149072,2.929724,-4.681184,-9.072382,4.610755E-10,4.610755E-10,0.3298155,6.460953
'[18:09:05.648 20/01/2026]',0.08149072,2.929724,-4.681184,-9.072382,4.610755E-10,4.610755E-10,0.3298155,6.460953
'[18:09:05.656 20/01/2026]',-2.906731,-3.584822,1.980978,-31.32425,4.610755E-10,4.610755E-10,-0.4866087,-0.3030297
'[18:09:05.664 20/01/2026]',-2.906731,-3.584822,1.980978,-31.32425,4.610755E-10,4.610755E-10,-0.4866087,-0.3030297
'[18:09:05.672 20/01/2026]',-2.906731,-3.584822,1.980978,-31.32425,4.610755E-10,4.610755E-10,-0.4866087,-0.3030297
'[18:09:05.680 20/01/2026]',2.341008,3.865963,3.689263,9.269804,4.610755E-10,4.610755E-10,7.57716,6.301901
'[18:09:05.688 20/01/2026]',2.341008,3.865963,3.689263,9.269804,4.610755E-10,4.610755E-10,7.57716,6.301901
'[18:09:05.696 20/01/2026]',2.369478,-0.0585101,-0.6233336,34.62107,4.610755E-10,4.610755E-10,-4.973459,-5.841969
'[18:09:05.704 20/01/2026]',2.369478,-0.0585101,-0.6233336,34.62107,4.610755E-10,4.610755E-10,-4.973459,-5.841969
'[18:09:05.712 20/01/2026]',-5.067137,-5.112292,-2.17524,-18.2358,4.610755E-10,4.610755E-10,-4.308668,-3.724731
'[18:09:05.720 20/01/2026]',-5.067137,-5.112292,-2.17524,-18.2358,4.610755E-10,4.610755E-10,-4.308668,-3.724731
'[18:09:05.728 20/01/2026]',4.165748,4.37116,0.1355448,-21.1273,4.610755E-10,4.610755E-10,6.883201,4.01574
'[18:09:05.736 20/01/2026]',4.165748,4.37116,0.1355448,-21.1273,4.610755E-10,4.610755E-10,6.883201,4.01574
'[18:09:05.744 20/01/2026]',4.165748,4.37116,0.1355448,-21.1273,4.610755E-10,4.610755E-10,6.883201,4.01574
'[18:09:05.752 20/01/2026]',4.165748,4.37116,0.1355448,-21.1273,4.610755E-10,4.610755E-10,6.883201,4.01574
'[18:09:05.760 20/01/2026]',-2.369513,-1.961766,-1.165364,10.22081,4.610755E-10,4.610755E-10,-2.566503,-0.417725
'[18:09:05.768 20/01/2026]',-2.369513,-1.961766,-1.165364,10.22081,4.610755E-10,4.610755E-10,-2.566503,-0.417725
'[18:09:05.776 20/01/2026]',-2.369513,-1.961766,-1.165364,10.22081,4.610755E-10,4.610755E-10,-2.566503,-0.417725
'[18:09:05.784 20/01/2026]',-2.369513,-1.961766,-1.165364,10.22081,4.610755E-10,4.610755E-10,-2.566503,-0.417725
'[18:09:05.792 20/01/2026]',-2.369513,-1.961766,-1.165364,10.22081,4.610755E-10,4.610755E-10,-2.566503,-0.417725
'[18:09:05.800 20/01/2026]',-2.369513,-1.961766,-1.165364,10.22081,4.610755E-10,4.610755E-10,-2.566503,-0.417725
'[18:09:05.808 20/01/2026]',-0.3554916,-1.308769,2.08875,5.702927,4.610755E-10,4.610755E-10,0.2987113,1.127047
'[18:09:05.816 20/01/2026]',1.64165,2.990081,2.329452,5.251973,4.610755E-10,4.610755E-10,-1.47411,-6.906882
'[18:09:05.824 20/01/2026]',-8.02132,-7.105643,-9.83757,-18.61101,4.610755E-10,4.610755E-10,-6.288055,-2.645168
'[18:09:05.832 20/01/2026]',5.126583,2.564438,4.988996,11.25873,4.610755E-10,4.610755E-10,3.916471,7.597888
'[18:09:05.840 20/01/2026]',15.05493,13.36477,13.53237,7.699471,4.610755E-10,4.610755E-10,14.27819,11.1763
'[18:09:05.848 20/01/2026]',-14.97979,-10.99175,-11.67817,-8.616477,4.610755E-10,4.610755E-10,-13.58321,-10.99058
'[18:09:05.856 20/01/2026]',-14.97979,-10.99175,-11.67817,-8.616477,4.610755E-10,4.610755E-10,-13.58321,-10.99058
'[18:09:05.864 20/01/2026]',-4.260997,-5.241327,-2.592269,-1.800534,4.610755E-10,4.610755E-10,-2.424845,-5.856801
'[18:09:05.872 20/01/2026]',-4.260997,-5.241327,-2.592269,-1.800534,4.610755E-10,4.610755E-10,-2.424845,-5.856801
'[18:09:05.880 20/01/2026]',-4.260997,-5.241327,-2.592269,-1.800534,4.610755E-10,4.610755E-10,-2.424845,-5.856801
'[18:09:05.888 20/01/2026]',8.856198,4.899377,3.975888,4.850536,4.610755E-10,4.610755E-10,5.471888,8.667586
'[18:09:05.896 20/01/2026]',8.856198,4.899377,3.975888,4.850536,4.610755E-10,4.610755E-10,5.471888,8.667586
'[18:09:05.904 20/01/2026]',0.07356354,4.735375,4.285222,-0.4157943,4.610755E-10,4.610755E-10,4.551808,4.032101
'[18:09:05.912 20/01/2026]',0.07356354,4.735375,4.285222,-0.4157943,4.610755E-10,4.610755E-10,4.551808,4.032101
'[18:09:05.920 20/01/2026]',0.07356354,4.735375,4.285222,-0.4157943,4.610755E-10,4.610755E-10,4.551808,4.032101
'[18:09:05.928 20/01/2026]',-3.274632,-4.759379,-6.184886,-1.521648,4.610755E-10,4.610755E-10,-7.167128,-11.22415
'[18:09:05.936 20/01/2026]',-3.274632,-4.759379,-6.184886,-1.521648,4.610755E-10,4.610755E-10,-7.167128,-11.22415
'[18:09:05.944 20/01/2026]',-10.08721,-11.1247,-3.197395,-3.145178,4.610755E-10,4.610755E-10,-1.560277,4.621068
'[18:09:05.952 20/01/2026]',-10.08721,-11.1247,-3.197395,-3.145178,4.610755E-10,4.610755E-10,-1.560277,4.621068
'[18:09:05.960 20/01/2026]',13.69595,15.17899,6.855365,9.955149,4.610755E-10,4.610755E-10,4.481164,2.167594
'[18:09:05.968 20/01/2026]',13.69595,15.17899,6.855365,9.955149,4.610755E-10,4.610755E-10,4.481164,2.167594
'[18:09:05.976 20/01/2026]',-1.004054,-3.807815,-0.5481109,-4.530676,4.610755E-10,4.610755E-10,-2.855408,-0.5206649
'[18:09:05.984 20/01/2026]',-1.004054,-3.807815,-0.5481109,-4.530676,4.610755E-10,4.610755E-10,-2.855408,-0.5206649
'[18:09:05.992 20/01/2026]',-6.61981,-2.840091,-2.731451,-6.865232,4.610755E-10,4.610755E-10,7.392835,-0.0824421
'[18:09:06.000 20/01/2026]',-6.61981,-2.840091,-2.731451,-6.865232,4.610755E-10,4.610755E-10,7.392835,-0.0824421
'[18:09:06.008 20/01/2026]',1.229148,-0.06732224,-2.208041,8.400211,4.610755E-10,4.610755E-10,-7.801239,-3.38491
'[18:09:06.016 20/01/2026]',1.229148,-0.06732224,-2.208041,8.400211,4.610755E-10,4.610755E-10,-7.801239,-3.38491
'[18:09:06.024 20/01/2026]',1.229148,-0.06732224,-2.208041,8.400211,4.610755E-10,4.610755E-10,-7.801239,-3.38491
'[18:09:06.032 20/01/2026]',2.822685,2.723537,4.149334,-2.970347,4.610755E-10,4.610755E-10,-0.01338349,4.272241
'[18:09:06.040 20/01/2026]',-1.567141,0.7000717,-1.403831,-8.360776,4.610755E-10,4.610755E-10,4.128071,2.377898E-05
'[18:09:06.048 20/01/2026]',-1.567141,0.7000717,-1.403831,-8.360776,4.610755E-10,4.610755E-10,4.128071,2.377898E-05
'[18:09:06.056 20/01/2026]',-1.172899,-4.710231,-0.6177183,8.241236,4.610755E-10,4.610755E-10,-2.340813,-5.396262
'[18:09:06.064 20/01/2026]',-1.172899,-4.710231,-0.6177183,8.241236,4.610755E-10,4.610755E-10,-2.340813,-5.396262
'[18:09:06.072 20/01/2026]',-1.172899,-4.710231,-0.6177183,8.241236,4.610755E-10,4.610755E-10,-2.340813,-5.396262
'[18:09:06.080 20/01/2026]',-1.172899,-4.710231,-0.6177183,8.241236,4.610755E-10,4.610755E-10,-2.340813,-5.396262
'[18:09:06.088 20/01/2026]',-2.475439,-0.5498506,-3.421097,0.9419169,4.610755E-10,4.610755E-10,-6.000885,-2.164042
'[18:09:06.096 20/01/2026]',-2.475439,-0.5498506,-3.421097,0.9419169,4.610755E-10,4.610755E-10,-6.000885,-2.164042
'[18:09:06.104 20/01/2026]',4.344413,5.90941,6.872951,-3.365672,4.610755E-10,4.610755E-10,9.645042,9.886009
'[18:09:06.112 20/01/2026]',4.344413,5.90941,6.872951,-3.365672,4.610755E-10,4.610755E-10,9.645042,9.886009
'[18:09:06.120 20/01/2026]',4.344413,5.90941,6.872951,-3.365672,4.610755E-10,4.610755E-10,9.645042,9.886009
'[18:09:06.128 20/01/2026]',4.344413,5.90941,6.872951,-3.365672,4.610755E-10,4.610755E-10,9.645042,9.886009
'[18:09:06.136 20/01/2026]',4.344413,5.90941,6.872951,-3.365672,4.610755E-10,4.610755E-10,9.645042,9.886009
'[18:09:06.144 20/01/2026]',-3.119175,-3.852718,-3.798696,-1.920736,4.610755E-10,4.610755E-10,-5.536704,-8.052372
'[18:09:06.152 20/01/2026]',-0.8290597,-1.430999,-3.424146,1.926568,4.610755E-10,4.610755E-10,-4.498154,0.2806674
'[18:09:06.160 20/01/2026]',3.353229,4.244091,5.758128,2.829718,4.610755E-10,4.610755E-10,7.302436,5.018423
'[18:09:06.168 20/01/2026]',-2.56122,-3.334371,-2.143204,-5.500917,4.610755E-10,4.610755E-10,1.3295,-3.310041
'[18:09:06.176 20/01/2026]',-0.01931382,-1.614248,-1.151173,-0.2958581,4.610755E-10,4.610755E-10,-6.305324,-4.301139
'[18:09:06.184 20/01/2026]',-0.01931382,-1.614248,-1.151173,-0.2958581,4.610755E-10,4.610755E-10,-6.305324,-4.301139
'[18:09:06.192 20/01/2026]',-0.01931382,-1.614248,-1.151173,-0.2958581,4.610755E-10,4.610755E-10,-6.305324,-4.301139
'[18:09:06.200 20/01/2026]',-0.01931382,-1.614248,-1.151173,-0.2958581,4.610755E-10,4.610755E-10,-6.305324,-4.301139
'[18:09:06.208 20/01/2026]',1.111151,2.960204,0.9792254,5.98603,4.610755E-10,4.610755E-10,3.284209,6.870048
'[18:09:06.216 20/01/2026]',0.9915002,0.1338846,1.81902,-3.487706,4.610755E-10,4.610755E-10,1.971806,-0.5683288
'[18:09:06.224 20/01/2026]',0.9915002,0.1338846,1.81902,-3.487706,4.610755E-10,4.610755E-10,1.971806,-0.5683288
'[18:09:06.232 20/01/2026]',-2.988419,-2.401217,-3.212448,0.3120637,4.610755E-10,4.610755E-10,-1.25746,-2.364097
'[18:09:06.240 20/01/2026]',-1.617011,-0.7035616,-0.9032052,-1.549985,4.610755E-10,4.610755E-10,0.3062661,2.59396
'[18:09:06.248 20/01/2026]',-1.617011,-0.7035616,-0.9032052,-1.549985,4.610755E-10,4.610755E-10,0.3062661,2.59396
'[18:09:06.256 20/01/2026]',-1.617011,-0.7035616,-0.9032052,-1.549985,4.610755E-10,4.610755E-10,0.3062661,2.59396
'[18:09:06.264 20/01/2026]',3.764722,3.010796,4.414322,-1.72807,4.610755E-10,4.610755E-10,-0.4523332,-1.944444
'[18:09:06.272 20/01/2026]',3.764722,3.010796,4.414322,-1.72807,4.610755E-10,4.610755E-10,-0.4523332,-1.944444
'[18:09:06.280 20/01/2026]',3.764722,3.010796,4.414322,-1.72807,4.610755E-10,4.610755E-10,-0.4523332,-1.944444
'[18:09:06.288 20/01/2026]',3.764722,3.010796,4.414322,-1.72807,4.610755E-10,4.610755E-10,-0.4523332,-1.944444
'[18:09:06.296 20/01/2026]',-0.9164197,-2.04784,0.3024653,3.537837,4.610755E-10,4.610755E-10,0.7154317,-0.9923096
'[18:09:06.304 20/01/2026]',-0.9164197,-2.04784,0.3024653,3.537837,4.610755E-10,4.610755E-10,0.7154317,-0.9923096
'[18:09:06.312 20/01/2026]',-1.917687,0.9557928,-2.0307,0.3492812,4.610755E-10,4.610755E-10,0.5433953,4.870305
'[18:09:06.320 20/01/2026]',1.470677,-0.5859762,-1.840938,-4.445203,4.610755E-10,4.610755E-10,-0.597802,-3.293445
'[18:09:06.328 20/01/2026]',1.470677,-0.5859762,-1.840938,-4.445203,4.610755E-10,4.610755E-10,-0.597802,-3.293445
'[18:09:06.336 20/01/2026]',-0.7942969,-2.897567,2.476612,1.07927,4.610755E-10,4.610755E-10,-1.566709,-0.3128858
'[18:09:06.344 20/01/2026]',-0.7942969,-2.897567,2.476612,1.07927,4.610755E-10,4.610755E-10,-1.566709,-0.3128858
'[18:09:06.352 20/01/2026]',-14.87337,-14.32036,-5.784391,-4.394819,4.610755E-10,4.610755E-10,0.6656709,-0.7911459
'[18:09:06.360 20/01/2026]',-14.87337,-14.32036,-5.784391,-4.394819,4.610755E-10,4.610755E-10,0.6656709,-0.7911459
'[18:09:06.368 20/01/2026]',-14.87337,-14.32036,-5.784391,-4.394819,4.610755E-10,4.610755E-10,0.6656709,-0.7911459
'[18:09:06.376 20/01/2026]',-8.390709,-8.821157,-5.420551,-3.548062,4.610755E-10,4.610755E-10,-2.967804,-1.378233
'[18:09:06.384 20/01/2026]',-8.390709,-8.821157,-5.420551,-3.548062,4.610755E-10,4.610755E-10,-2.967804,-1.378233
'[18:09:06.392 20/01/2026]',58.16146,63.80338,24.36911,20.95754,4.610755E-10,4.610755E-10,6.561306,5.904104
'[18:09:06.400 20/01/2026]',58.16146,63.80338,24.36911,20.95754,4.610755E-10,4.610755E-10,6.561306,5.904104
'[18:09:06.408 20/01/2026]',58.16146,63.80338,24.36911,20.95754,4.610755E-10,4.610755E-10,6.561306,5.904104
'[18:09:06.416 20/01/2026]',-15.14472,-19.62398,-9.451351,-5.707481,4.610755E-10,4.610755E-10,-0.2574297,-0.7693897
'[18:09:06.424 20/01/2026]',-39.5974,-43.78614,-13.32209,-14.58558,4.610755E-10,4.610755E-10,-5.787992,-6.495129
'[18:09:06.432 20/01/2026]',-39.5974,-43.78614,-13.32209,-14.58558,4.610755E-10,4.610755E-10,-5.787992,-6.495129
'[18:09:06.440 20/01/2026]',22.30258,27.46782,8.652956,8.082006,4.610755E-10,4.610755E-10,3.293191,5.121931
'[18:09:06.448 20/01/2026]',22.30258,27.46782,8.652956,8.082006,4.610755E-10,4.610755E-10,3.293191,5.121931
'[18:09:06.456 20/01/2026]',22.30258,27.46782,8.652956,8.082006,4.610755E-10,4.610755E-10,3.293191,5.121931
'[18:09:06.464 20/01/2026]',6.732283,6.530421,1.666611,1.609958,4.610755E-10,4.610755E-10,0.7448049,0.4883567
'[18:09:06.472 20/01/2026]',6.732283,6.530421,1.666611,1.609958,4.610755E-10,4.610755E-10,0.7448049,0.4883567
'[18:09:06.480 20/01/2026]',6.732283,6.530421,1.666611,1.609958,4.610755E-10,4.610755E-10,0.7448049,0.4883567
'[18:09:06.488 20/01/2026]',-6.572534,-10.67649,-3.301984,-2.861837,4.610755E-10,4.610755E-10,-4.466235,-2.878075
'[18:09:06.496 20/01/2026]',-5.762659,-1.517911,0.05618262,-0.4875484,4.610755E-10,4.610755E-10,3.009304,-0.1969894
'[18:09:06.504 20/01/2026]',3.76276,1.38534,-2.061645,-3.100004,4.610755E-10,4.610755E-10,1.287894,0.6776764
'[18:09:06.512 20/01/2026]',3.76276,1.38534,-2.061645,-3.100004,4.610755E-10,4.610755E-10,1.287894,0.6776764
'[18:09:06.520 20/01/2026]',3.76276,1.38534,-2.061645,-3.100004,4.610755E-10,4.610755E-10,1.287894,0.6776764
'[18:09:06.528 20/01/2026]',-11.37438,-9.831814,-9.142384,-7.937876,4.610755E-10,4.610755E-10,-18.5066,-16.55559
'[18:09:06.536 20/01/2026]',-11.37438,-9.831814,-9.142384,-7.937876,4.610755E-10,4.610755E-10,-18.5066,-16.55559
'[18:09:06.544 20/01/2026]',7.73482,7.120152,4.580045,7.909171,4.610755E-10,4.610755E-10,13.93135,13.36062
'[18:09:06.552 20/01/2026]',7.73482,7.120152,4.580045,7.909171,4.610755E-10,4.610755E-10,13.93135,13.36062
'[18:09:06.560 20/01/2026]',9.378325,7.998527,12.01834,5.909039,4.610755E-10,4.610755E-10,8.100923,8.4701
'[18:09:06.568 20/01/2026]',9.378325,7.998527,12.01834,5.909039,4.610755E-10,4.610755E-10,8.100923,8.4701
'[18:09:06.576 20/01/2026]',4.431092,5.221984,3.589185,8.448793,4.610755E-10,4.610755E-10,2.570493,1.433251
'[18:09:06.584 20/01/2026]',4.431092,5.221984,3.589185,8.448793,4.610755E-10,4.610755E-10,2.570493,1.433251
'[18:09:06.592 20/01/2026]',4.431092,5.221984,3.589185,8.448793,4.610755E-10,4.610755E-10,2.570493,1.433251
'[18:09:06.600 20/01/2026]',-12.58144,-12.16691,-13.2305,-15.23081,4.610755E-10,4.610755E-10,-13.69727,-12.73623
'[18:09:06.608 20/01/2026]',-1.135274,-0.1975473,1.294756,-0.4270051,4.610755E-10,4.610755E-10,3.562351,4.143916
'[18:09:06.616 20/01/2026]',-1.135274,-0.1975473,1.294756,-0.4270051,4.610755E-10,4.610755E-10,3.562351,4.143916
'[18:09:06.624 20/01/2026]',-1.135274,-0.1975473,1.294756,-0.4270051,4.610755E-10,4.610755E-10,3.562351,4.143916
'[18:09:06.632 20/01/2026]',12.84351,12.56455,8.533748,13.42131,4.610755E-10,4.610755E-10,7.734756,7.035059
'[18:09:06.640 20/01/2026]',12.84351,12.56455,8.533748,13.42131,4.610755E-10,4.610755E-10,7.734756,7.035059
'[18:09:06.648 20/01/2026]',12.84351,12.56455,8.533748,13.42131,4.610755E-10,4.610755E-10,7.734756,7.035059
'[18:09:06.656 20/01/2026]',12.84351,12.56455,8.533748,13.42131,4.610755E-10,4.610755E-10,7.734756,7.035059
'[18:09:06.664 20/01/2026]',-9.107368,-11.3482,-5.826566,-9.591898,4.610755E-10,4.610755E-10,-8.029483,-8.308577
'[18:09:06.672 20/01/2026]',-2.610148,0.7663631,0.03332671,0.1219078,4.610755E-10,4.610755E-10,-0.4976956,0.5284991
'[18:09:06.680 20/01/2026]',-2.610148,0.7663631,0.03332671,0.1219078,4.610755E-10,4.610755E-10,-0.4976956,0.5284991
'[18:09:06.688 20/01/2026]',4.649397,2.309207,0.4281171,1.270094,4.610755E-10,4.610755E-10,6.867958,4.093965
'[18:09:06.696 20/01/2026]',1.03258,2.754456,1.239135,3.255594,4.610755E-10,4.610755E-10,-1.271967,1.526664
'[18:09:06.704 20/01/2026]',1.03258,2.754456,1.239135,3.255594,4.610755E-10,4.610755E-10,-1.271967,1.526664
'[18:09:06.712 20/01/2026]',1.03258,2.754456,1.239135,3.255594,4.610755E-10,4.610755E-10,-1.271967,1.526664
'[18:09:06.720 20/01/2026]',-4.851644,-4.729104,-1.549117,-1.987322,4.610755E-10,4.610755E-10,-6.451494,-7.636509
'[18:09:06.728 20/01/2026]',-4.851644,-4.729104,-1.549117,-1.987322,4.610755E-10,4.610755E-10,-6.451494,-7.636509
'[18:09:06.736 20/01/2026]',-5.114111,-6.892684,-3.532082,-3.852909,4.610755E-10,4.610755E-10,3.802331,4.132022
'[18:09:06.744 20/01/2026]',-5.114111,-6.892684,-3.532082,-3.852909,4.610755E-10,4.610755E-10,3.802331,4.132022
'[18:09:06.752 20/01/2026]',13.73102,13.17229,5.012672,3.200496,4.610755E-10,4.610755E-10,0.3580548,0.3291093
'[18:09:06.760 20/01/2026]',13.73102,13.17229,5.012672,3.200496,4.610755E-10,4.610755E-10,0.3580548,0.3291093
'[18:09:06.768 20/01/2026]',-4.465974,-3.029856,0.05034253,3.923193,4.610755E-10,4.610755E-10,-0.1521063,-0.05561751
'[18:09:06.776 20/01/2026]',-4.465974,-3.029856,0.05034253,3.923193,4.610755E-10,4.610755E-10,-0.1521063,-0.05561751
'[18:09:06.784 20/01/2026]',-7.920715,-5.83996,-5.355968,-8.04929,4.610755E-10,4.610755E-10,1.053027,-1.774628
'[18:09:06.792 20/01/2026]',-7.920715,-5.83996,-5.355968,-8.04929,4.610755E-10,4.610755E-10,1.053027,-1.774628
'[18:09:06.800 20/01/2026]',5.377204,2.864808,3.097033,1.696079,4.610755E-10,4.610755E-10,-8.138963,-2.29269
'[18:09:06.808 20/01/2026]',5.377204,2.864808,3.097033,1.696079,4.610755E-10,4.610755E-10,-8.138963,-2.29269
'[18:09:06.816 20/01/2026]',5.377204,2.864808,3.097033,1.696079,4.610755E-10,4.610755E-10,-8.138963,-2.29269
'[18:09:06.824 20/01/2026]',5.377204,2.864808,3.097033,1.696079,4.610755E-10,4.610755E-10,-8.138963,-2.29269
'[18:09:06.832 20/01/2026]',5.377204,2.864808,3.097033,1.696079,4.610755E-10,4.610755E-10,-8.138963,-2.29269
'[18:09:06.840 20/01/2026]',1.838616,1.570479,0.9093945,6.285178,4.610755E-10,4.610755E-10,7.694479,3.680699
'[18:09:06.848 20/01/2026]',-2.82591,-2.689788,-1.995068,-7.183412,4.610755E-10,4.610755E-10,1.294772,2.147806
'[18:09:06.856 20/01/2026]',0.7155511,2.914097,-0.5349212,2.050896,4.610755E-10,4.610755E-10,-6.447114,-4.503711
'[18:09:06.864 20/01/2026]',0.7155511,2.914097,-0.5349212,2.050896,4.610755E-10,4.610755E-10,-6.447114,-4.503711
'[18:09:06.872 20/01/2026]',-2.097154,-5.044359,0.997965,1.046,4.610755E-10,4.610755E-10,1.660697,-0.608678
'[18:09:06.880 20/01/2026]',-2.097154,-5.044359,0.997965,1.046,4.610755E-10,4.610755E-10,1.660697,-0.608678
'[18:09:06.888 20/01/2026]',-13.91883,-17.01492,-4.279792,-6.081638,4.610755E-10,4.610755E-10,2.847689,0.3400699
'[18:09:06.896 20/01/2026]',-13.91883,-17.01492,-4.279792,-6.081638,4.610755E-10,4.610755E-10,2.847689,0.3400699
'[18:09:06.904 20/01/2026]',-9.975766,-9.769609,-5.006546,-4.567228,4.610755E-10,4.610755E-10,-5.269097,-1.377778
'[18:09:06.912 20/01/2026]',-9.975766,-9.769609,-5.006546,-4.567228,4.610755E-10,4.610755E-10,-5.269097,-1.377778
'[18:09:06.920 20/01/2026]',65.83979,77.18558,23.1125,26.88438,4.610755E-10,4.610755E-10,7.998887,8.372486
'[18:09:06.928 20/01/2026]',65.83979,77.18558,23.1125,26.88438,4.610755E-10,4.610755E-10,7.998887,8.372486
'[18:09:06.936 20/01/2026]',-22.31369,-25.97716,-10.8286,-12.49273,4.610755E-10,4.610755E-10,-1.393596,-4.094358
'[18:09:06.944 20/01/2026]',-22.31369,-25.97716,-10.8286,-12.49273,4.610755E-10,4.610755E-10,-1.393596,-4.094358
'[18:09:06.952 20/01/2026]',-22.31369,-25.97716,-10.8286,-12.49273,4.610755E-10,4.610755E-10,-1.393596,-4.094358
'[18:09:06.960 20/01/2026]',-41.97325,-51.06588,-12.34711,-12.53999,4.610755E-10,4.610755E-10,-4.044443,-3.757367
'[18:09:06.968 20/01/2026]',-41.97325,-51.06588,-12.34711,-12.53999,4.610755E-10,4.610755E-10,-4.044443,-3.757367
'[18:09:06.976 20/01/2026]',24.67744,30.46402,10.83564,10.75225,4.610755E-10,4.610755E-10,-0.2340067,3.237026
'[18:09:06.984 20/01/2026]',24.67744,30.46402,10.83564,10.75225,4.610755E-10,4.610755E-10,-0.2340067,3.237026
'[18:09:06.992 20/01/2026]',24.67744,30.46402,10.83564,10.75225,4.610755E-10,4.610755E-10,-0.2340067,3.237026
'[18:09:07.000 20/01/2026]',24.67744,30.46402,10.83564,10.75225,4.610755E-10,4.610755E-10,-0.2340067,3.237026
'[18:09:07.008 20/01/2026]',24.67744,30.46402,10.83564,10.75225,4.610755E-10,4.610755E-10,-0.2340067,3.237026
'[18:09:07.016 20/01/2026]',24.67744,30.46402,10.83564,10.75225,4.610755E-10,4.610755E-10,-0.2340067,3.237026
'[18:09:07.024 20/01/2026]',8.387922,11.03336,1.237142,3.206904,4.610755E-10,4.610755E-10,4.728154,3.92177
'[18:09:07.032 20/01/2026]',8.387922,11.03336,1.237142,3.206904,4.610755E-10,4.610755E-10,4.728154,3.92177
'[18:09:07.040 20/01/2026]',8.387922,11.03336,1.237142,3.206904,4.610755E-10,4.610755E-10,4.728154,3.92177
'[18:09:07.048 20/01/2026]',-12.47227,-13.98783,-5.515561,-7.205581,4.610755E-10,4.610755E-10,-4.864156,-7.643983
'[18:09:07.056 20/01/2026]',-1.357017,-3.714069,2.697732,0.9962109,4.610755E-10,4.610755E-10,1.960206,2.995183
'[18:09:07.064 20/01/2026]',5.807344,6.591887,-0.5483016,-2.444538,4.610755E-10,4.610755E-10,2.063278,2.230544
'[18:09:07.072 20/01/2026]',-0.3565849,1.947529,-2.239115,2.213788,4.610755E-10,4.610755E-10,-1.78526,-0.1688078
'[18:09:07.080 20/01/2026]',-17.03575,-16.31609,-3.427572,2.964422,4.610755E-10,4.610755E-10,-0.439781,-2.656161
'[18:09:07.088 20/01/2026]',-17.03575,-16.31609,-3.427572,2.964422,4.610755E-10,4.610755E-10,-0.439781,-2.656161
'[18:09:07.096 20/01/2026]',19.28817,15.274,7.102797,2.30885,4.610755E-10,4.610755E-10,-3.563553,-2.442255
'[18:09:07.104 20/01/2026]',19.28817,15.274,7.102797,2.30885,4.610755E-10,4.610755E-10,-3.563553,-2.442255
'[18:09:07.112 20/01/2026]',4.579828,4.049639,-1.049073,-7.304637,4.610755E-10,4.610755E-10,2.688972,5.652806
'[18:09:07.120 20/01/2026]',4.579828,4.049639,-1.049073,-7.304637,4.610755E-10,4.610755E-10,2.688972,5.652806
'[18:09:07.128 20/01/2026]',-14.63562,-11.57329,-2.414095,1.226224,4.610755E-10,4.610755E-10,5.966308,-1.775266
'[18:09:07.136 20/01/2026]',-14.63562,-11.57329,-2.414095,1.226224,4.610755E-10,4.610755E-10,5.966308,-1.775266
'[18:09:07.144 20/01/2026]',-14.63562,-11.57329,-2.414095,1.226224,4.610755E-10,4.610755E-10,5.966308,-1.775266
'[18:09:07.152 20/01/2026]',3.451723,0.6375202,0.5310042,-0.8308057,4.610755E-10,4.610755E-10,-4.788384,-0.9106672
'[18:09:07.160 20/01/2026]',3.451723,0.6375202,0.5310042,-0.8308057,4.610755E-10,4.610755E-10,-4.788384,-0.9106672
'[18:09:07.168 20/01/2026]',3.451723,0.6375202,0.5310042,-0.8308057,4.610755E-10,4.610755E-10,-4.788384,-0.9106672
'[18:09:07.176 20/01/2026]',3.451723,0.6375202,0.5310042,-0.8308057,4.610755E-10,4.610755E-10,-4.788384,-0.9106672
'[18:09:07.184 20/01/2026]',3.872048,6.513769,0.654498,10.15821,4.610755E-10,4.610755E-10,-4.477595,-1.256629
'[18:09:07.192 20/01/2026]',3.872048,6.513769,0.654498,10.15821,4.610755E-10,4.610755E-10,-4.477595,-1.256629
'[18:09:07.200 20/01/2026]',-2.488817,-1.490399,-0.06012072,-5.998139,4.610755E-10,4.610755E-10,4.074885,3.024992
'[18:09:07.208 20/01/2026]',-1.477493,-5.774081,-0.06950183,-3.493643,4.610755E-10,4.610755E-10,3.506852,0.7394432
'[18:09:07.216 20/01/2026]',0.2757024,3.281848,-1.612651,2.22393,4.610755E-10,4.610755E-10,-5.687975,-6.221622
'[18:09:07.224 20/01/2026]',0.2757024,3.281848,-1.612651,2.22393,4.610755E-10,4.610755E-10,-5.687975,-6.221622
'[18:09:07.232 20/01/2026]',7.011753,2.610031,2.079683,-0.09544005,4.610755E-10,4.610755E-10,0.9838551,4.061504
'[18:09:07.240 20/01/2026]',7.011753,2.610031,2.079683,-0.09544005,4.610755E-10,4.610755E-10,0.9838551,4.061504
'[18:09:07.248 20/01/2026]',7.011753,2.610031,2.079683,-0.09544005,4.610755E-10,4.610755E-10,0.9838551,4.061504
'[18:09:07.256 20/01/2026]',-8.896783,-1.476214,-2.96215,1.081598,4.610755E-10,4.610755E-10,-0.9393135,-0.1766051
'[18:09:07.264 20/01/2026]',-8.896783,-1.476214,-2.96215,1.081598,4.610755E-10,4.610755E-10,-0.9393135,-0.1766051
'[18:09:07.272 20/01/2026]',0.4616352,-5.118556,3.200854,-0.04308102,4.610755E-10,4.610755E-10,4.40412,3.724982
'[18:09:07.280 20/01/2026]',0.4616352,-5.118556,3.200854,-0.04308102,4.610755E-10,4.610755E-10,4.40412,3.724982
'[18:09:07.288 20/01/2026]',2.897617,2.412374,-4.32281,-3.565186,4.610755E-10,4.610755E-10,-3.041898,-6.050798
'[18:09:07.296 20/01/2026]',2.897617,2.412374,-4.32281,-3.565186,4.610755E-10,4.610755E-10,-3.041898,-6.050798
'[18:09:07.304 20/01/2026]',-2.184684,1.065393,1.88037,3.279496,4.610755E-10,4.610755E-10,-1.369838,3.313216
'[18:09:07.312 20/01/2026]',-2.184684,1.065393,1.88037,3.279496,4.610755E-10,4.610755E-10,-1.369838,3.313216
'[18:09:07.320 20/01/2026]',-2.184684,1.065393,1.88037,3.279496,4.610755E-10,4.610755E-10,-1.369838,3.313216
'[18:09:07.328 20/01/2026]',1.757827,-1.105212,0.499853,-2.018998,4.610755E-10,4.610755E-10,3.33608,2.258906
'[18:09:07.336 20/01/2026]',1.757827,-1.105212,0.499853,-2.018998,4.610755E-10,4.610755E-10,3.33608,2.258906
'[18:09:07.344 20/01/2026]',1.857943,1.569624,2.285259,2.463092,4.610755E-10,4.610755E-10,1.841434,-0.2947715
'[18:09:07.352 20/01/2026]',1.857943,1.569624,2.285259,2.463092,4.610755E-10,4.610755E-10,1.841434,-0.2947715
'[18:09:07.360 20/01/2026]',1.857943,1.569624,2.285259,2.463092,4.610755E-10,4.610755E-10,1.841434,-0.2947715
'[18:09:07.368 20/01/2026]',-3.593361,-3.7556,-3.437824,2.275444,4.610755E-10,4.610755E-10,-3.978664,-2.897068
'[18:09:07.376 20/01/2026]',2.435339,1.456187,1.008387,-6.323175,4.610755E-10,4.610755E-10,0.02838092,-0.446398
'[18:09:07.384 20/01/2026]',2.435339,1.456187,1.008387,-6.323175,4.610755E-10,4.610755E-10,0.02838092,-0.446398
'[18:09:07.392 20/01/2026]',-0.8109265,2.237272,0.8796177,3.628829,4.610755E-10,4.610755E-10,0.3716067,2.414009
'[18:09:07.400 20/01/2026]',-1.947324,-2.198268,-1.993064,0.3765,4.610755E-10,4.610755E-10,0.7113605,-0.118842
'[18:09:07.408 20/01/2026]',-1.947324,-2.198268,-1.993064,0.3765,4.610755E-10,4.610755E-10,0.7113605,-0.118842
'[18:09:07.416 20/01/2026]',-1.947324,-2.198268,-1.993064,0.3765,4.610755E-10,4.610755E-10,0.7113605,-0.118842
'[18:09:07.424 20/01/2026]',1.841267,1.603218,0.5604659,-0.4740755,4.610755E-10,4.610755E-10,-0.3340147,-1.337329
'[18:09:07.432 20/01/2026]',1.841267,1.603218,0.5604659,-0.4740755,4.610755E-10,4.610755E-10,-0.3340147,-1.337329
'[18:09:07.440 20/01/2026]',1.436592,0.2040093,4.1475,0.5381831,4.610755E-10,4.610755E-10,3.088147,1.978657
'[18:09:07.448 20/01/2026]',1.436592,0.2040093,4.1475,0.5381831,4.610755E-10,4.610755E-10,3.088147,1.978657
'[18:09:07.456 20/01/2026]',-4.289858,-3.460718,-3.27095,-1.640857,4.610755E-10,4.610755E-10,-3.874696,-2.688915
'[18:09:07.464 20/01/2026]',-4.289858,-3.460718,-3.27095,-1.640857,4.610755E-10,4.610755E-10,-3.874696,-2.688915
'[18:09:07.472 20/01/2026]',-14.94235,-16.41038,-8.357472,-4.367753,4.610755E-10,4.610755E-10,0.3711503,1.566058
'[18:09:07.480 20/01/2026]',-14.94235,-16.41038,-8.357472,-4.367753,4.610755E-10,4.610755E-10,0.3711503,1.566058
'[18:09:07.488 20/01/2026]',-14.94235,-16.41038,-8.357472,-4.367753,4.610755E-10,4.610755E-10,0.3711503,1.566058
'[18:09:07.496 20/01/2026]',22.57648,25.17082,13.09016,6.316671,4.610755E-10,4.610755E-10,1.581551,4.712466
'[18:09:07.504 20/01/2026]',22.57648,25.17082,13.09016,6.316671,4.610755E-10,4.610755E-10,1.581551,4.712466
'[18:09:07.512 20/01/2026]',22.57648,25.17082,13.09016,6.316671,4.610755E-10,4.610755E-10,1.581551,4.712466
'[18:09:07.520 20/01/2026]',17.65088,19.67544,1.944569,6.881764,4.610755E-10,4.610755E-10,0.0967648,-6.068865
'[18:09:07.528 20/01/2026]',17.65088,19.67544,1.944569,6.881764,4.610755E-10,4.610755E-10,0.0967648,-6.068865
'[18:09:07.536 20/01/2026]',17.65088,19.67544,1.944569,6.881764,4.610755E-10,4.610755E-10,0.0967648,-6.068865
'[18:09:07.544 20/01/2026]',-29.24664,-31.59231,-9.001225,-11.89649,4.610755E-10,4.610755E-10,-1.262202,-0.806834
'[18:09:07.552 20/01/2026]',4.23112,1.898625,4.108581,3.781784,4.610755E-10,4.610755E-10,3.753585,4.974602
'[18:09:07.560 20/01/2026]',-5.046009,-1.113734,-13.20884,-11.05155,4.610755E-10,4.610755E-10,-16.18294,-14.11976
'[18:09:07.568 20/01/2026]',-5.046009,-1.113734,-13.20884,-11.05155,4.610755E-10,4.610755E-10,-16.18294,-14.11976
'[18:09:07.576 20/01/2026]',4.43644,3.674807,6.918461,2.888199,4.610755E-10,4.610755E-10,4.608058,3.220377
'[18:09:07.584 20/01/2026]',4.43644,3.674807,6.918461,2.888199,4.610755E-10,4.610755E-10,4.608058,3.220377
'[18:09:07.592 20/01/2026]',4.43644,3.674807,6.918461,2.888199,4.610755E-10,4.610755E-10,4.608058,3.220377
'[18:09:07.600 20/01/2026]',13.88304,12.54921,19.71787,20.45636,4.610755E-10,4.610755E-10,26.18105,24.18777
'[18:09:07.608 20/01/2026]',13.88304,12.54921,19.71787,20.45636,4.610755E-10,4.610755E-10,26.18105,24.18777
'[18:09:07.616 20/01/2026]',13.88304,12.54921,19.71787,20.45636,4.610755E-10,4.610755E-10,26.18105,24.18777
'[18:09:07.624 20/01/2026]',13.88304,12.54921,19.71787,20.45636,4.610755E-10,4.610755E-10,26.18105,24.18777
'[18:09:07.632 20/01/2026]',13.88304,12.54921,19.71787,20.45636,4.610755E-10,4.610755E-10,26.18105,24.18777
'[18:09:07.640 20/01/2026]',-10.88622,-10.7002,-16.24097,-11.4463,4.610755E-10,4.610755E-10,-16.56164,-15.12895
'[18:09:07.648 20/01/2026]',-4.823251,-2.849105,-3.447788,-7.120069,4.610755E-10,4.610755E-10,-11.88557,-8.551435
'[18:09:07.656 20/01/2026]',-4.823251,-2.849105,-3.447788,-7.120069,4.610755E-10,4.610755E-10,-11.88557,-8.551435
'[18:09:07.664 20/01/2026]',6.501727,2.223603,8.56225,7.569705,4.610755E-10,4.610755E-10,16.11307,8.503188
'[18:09:07.672 20/01/2026]',-2.028679,3.78283,-2.416324,0.1892323,4.610755E-10,4.610755E-10,-0.02832735,4.501098
'[18:09:07.680 20/01/2026]',-2.028679,3.78283,-2.416324,0.1892323,4.610755E-10,4.610755E-10,-0.02832735,4.501098
'[18:09:07.688 20/01/2026]',-2.028679,3.78283,-2.416324,0.1892323,4.610755E-10,4.610755E-10,-0.02832735,4.501098
'[18:09:07.696 20/01/2026]',-0.2084887,-3.313493,-2.237812,-3.262681,4.610755E-10,4.610755E-10,-10.38791,-6.494717
'[18:09:07.704 20/01/2026]',-0.2084887,-3.313493,-2.237812,-3.262681,4.610755E-10,4.610755E-10,-10.38791,-6.494717
'[18:09:07.712 20/01/2026]',-0.2084887,-3.313493,-2.237812,-3.262681,4.610755E-10,4.610755E-10,-10.38791,-6.494717
'[18:09:07.720 20/01/2026]',-0.3840737,-0.7402076,0.5826899,0.1916641,4.610755E-10,4.610755E-10,6.312971,1.402514
'[18:09:07.728 20/01/2026]',-0.3955049,2.508295,1.397426,1.93435,4.610755E-10,4.610755E-10,2.090336,1.262081
'[18:09:07.736 20/01/2026]',1.110613,-0.6573841,-1.651747,-2.962687,4.610755E-10,4.610755E-10,-5.417951,-1.446358
'[18:09:07.744 20/01/2026]',1.110613,-0.6573841,-1.651747,-2.962687,4.610755E-10,4.610755E-10,-5.417951,-1.446358
'[18:09:07.752 20/01/2026]',-0.06679595,-0.8552738,2.340758,1.255773,4.610755E-10,4.610755E-10,2.210091,0.9783517
'[18:09:07.760 20/01/2026]',-0.06679595,-0.8552738,2.340758,1.255773,4.610755E-10,4.610755E-10,2.210091,0.9783517
'[18:09:07.768 20/01/2026]',-2.685901,-1.621989,-2.781251,4.760377,4.610755E-10,4.610755E-10,0.365807,-1.640774
'[18:09:07.776 20/01/2026]',-2.685901,-1.621989,-2.781251,4.760377,4.610755E-10,4.610755E-10,0.365807,-1.640774
'[18:09:07.784 20/01/2026]',1.039501,0.2131339,1.91021,-5.658523,4.610755E-10,4.610755E-10,1.136292,2.175538
'[18:09:07.792 20/01/2026]',1.039501,0.2131339,1.91021,-5.658523,4.610755E-10,4.610755E-10,1.136292,2.175538
'[18:09:07.800 20/01/2026]',0.7453744,-0.1265607,-1.05253,-0.004064436,4.610755E-10,4.610755E-10,-3.953244,-1.947915
'[18:09:07.808 20/01/2026]',0.7453744,-0.1265607,-1.05253,-0.004064436,4.610755E-10,4.610755E-10,-3.953244,-1.947915
'[18:09:07.816 20/01/2026]',0.7453744,-0.1265607,-1.05253,-0.004064436,4.610755E-10,4.610755E-10,-3.953244,-1.947915
'[18:09:07.824 20/01/2026]',1.851213,4.446267,2.950819,6.432219,4.610755E-10,4.610755E-10,4.171167,1.733616
'[18:09:07.832 20/01/2026]',1.851213,4.446267,2.950819,6.432219,4.610755E-10,4.610755E-10,4.171167,1.733616
'[18:09:07.840 20/01/2026]',-3.134528,-3.058137,-1.792289,-4.674864,4.610755E-10,4.610755E-10,-1.174636,-0.1579889
'[18:09:07.848 20/01/2026]',-3.134528,-3.058137,-1.792289,-4.674864,4.610755E-10,4.610755E-10,-1.174636,-0.1579889
'[18:09:07.856 20/01/2026]',1.497396,-1.039773,-2.441648,-0.6455568,4.610755E-10,4.610755E-10,-0.7899428,-1.37368
'[18:09:07.864 20/01/2026]',1.497396,-1.039773,-2.441648,-0.6455568,4.610755E-10,4.610755E-10,-0.7899428,-1.37368
'[18:09:07.872 20/01/2026]',1.497396,-1.039773,-2.441648,-0.6455568,4.610755E-10,4.610755E-10,-0.7899428,-1.37368
'[18:09:07.880 20/01/2026]',1.497396,-1.039773,-2.441648,-0.6455568,4.610755E-10,4.610755E-10,-0.7899428,-1.37368
'[18:09:07.888 20/01/2026]',0.2829967,1.929705,3.304775,0.6035562,4.610755E-10,4.610755E-10,1.290114,0.5750427
'[18:09:07.896 20/01/2026]',-2.083201,-3.021585,-3.125447,-0.04460745,4.610755E-10,4.610755E-10,-4.792446,-2.723847
'[18:09:07.904 20/01/2026]',-2.083201,-3.021585,-3.125447,-0.04460745,4.610755E-10,4.610755E-10,-4.792446,-2.723847
'[18:09:07.912 20/01/2026]',3.777016,3.248559,2.711485,0.7078617,4.610755E-10,4.610755E-10,2.750365,1.884355
'[18:09:07.920 20/01/2026]',-1.686698,-3.504501,-1.464161,-2.377269,4.610755E-10,4.610755E-10,3.407941,2.305637
'[18:09:07.928 20/01/2026]',-1.686698,-3.504501,-1.464161,-2.377269,4.610755E-10,4.610755E-10,3.407941,2.305637
'[18:09:07.936 20/01/2026]',-1.686698,-3.504501,-1.464161,-2.377269,4.610755E-10,4.610755E-10,3.407941,2.305637
'[18:09:07.944 20/01/2026]',1.126238,3.452944,1.018527,3.241046,4.610755E-10,4.610755E-10,-5.093916,-5.175586
'[18:09:07.952 20/01/2026]',1.126238,3.452944,1.018527,3.241046,4.610755E-10,4.610755E-10,-5.093916,-5.175586
'[18:09:07.960 20/01/2026]',-0.1425645,-3.222809,-1.661494,-0.9279061,4.610755E-10,4.610755E-10,0.2341796,3.274824
'[18:09:07.968 20/01/2026]',-0.1425645,-3.222809,-1.661494,-0.9279061,4.610755E-10,4.610755E-10,0.2341796,3.274824
'[18:09:07.976 20/01/2026]',-0.6274383,2.6497,2.90054,-2.73729,4.610755E-10,4.610755E-10,2.421198,-0.82516
'[18:09:07.984 20/01/2026]',-0.6274383,2.6497,2.90054,-2.73729,4.610755E-10,4.610755E-10,2.421198,-0.82516
'[18:09:07.992 20/01/2026]',2.161708,-0.2435603,-2.263799,1.684001,4.610755E-10,4.610755E-10,-0.9764987,-0.7111264
'[18:09:08.000 20/01/2026]',2.161708,-0.2435603,-2.263799,1.684001,4.610755E-10,4.610755E-10,-0.9764987,-0.7111264
'[18:09:08.008 20/01/2026]',-0.8764417,-2.073966,-1.9217,0.4736026,4.610755E-10,4.610755E-10,-0.4495359,2.974967
'[18:09:08.016 20/01/2026]',-0.8764417,-2.073966,-1.9217,0.4736026,4.610755E-10,4.610755E-10,-0.4495359,2.974967
'[18:09:08.024 20/01/2026]',-0.8764417,-2.073966,-1.9217,0.4736026,4.610755E-10,4.610755E-10,-0.4495359,2.974967
'[18:09:08.032 20/01/2026]',-0.6818554,0.8565189,3.183526,-0.002464558,4.610755E-10,4.610755E-10,-0.2946958,-3.347021
'[18:09:08.040 20/01/2026]',-0.6818554,0.8565189,3.183526,-0.002464558,4.610755E-10,4.610755E-10,-0.2946958,-3.347021
'[18:09:08.048 20/01/2026]',-0.6818554,0.8565189,3.183526,-0.002464558,4.610755E-10,4.610755E-10,-0.2946958,-3.347021
'[18:09:08.056 20/01/2026]',-0.6818554,0.8565189,3.183526,-0.002464558,4.610755E-10,4.610755E-10,-0.2946958,-3.347021
'[18:09:08.064 20/01/2026]',0.146641,-0.4114844,0.2337722,0.4449184,4.610755E-10,4.610755E-10,1.335395,0.166689
'[18:09:08.072 20/01/2026]',4.98027,1.586008,0.7882534,2.675075,4.610755E-10,4.610755E-10,0.9183652,2.972113
'[18:09:08.080 20/01/2026]',4.98027,1.586008,0.7882534,2.675075,4.610755E-10,4.610755E-10,0.9183652,2.972113
'[18:09:08.088 20/01/2026]',-5.094233,-2.695122,-2.995329,-4.287003,4.610755E-10,4.610755E-10,-3.298874,-4.127998
'[18:09:08.096 20/01/2026]',1.621328,1.398373,2.203747,1.676207,4.610755E-10,4.610755E-10,4.150107,4.023064
'[18:09:08.104 20/01/2026]',1.621328,1.398373,2.203747,1.676207,4.610755E-10,4.610755E-10,4.150107,4.023064
'[18:09:08.112 20/01/2026]',1.621328,1.398373,2.203747,1.676207,4.610755E-10,4.610755E-10,4.150107,4.023064
'[18:09:08.120 20/01/2026]',-1.534353,-3.880954,-2.025758,1.613249,4.610755E-10,4.610755E-10,-2.050942,-1.291899
'[18:09:08.128 20/01/2026]',-1.534353,-3.880954,-2.025758,1.613249,4.610755E-10,4.610755E-10,-2.050942,-1.291899
'[18:09:08.136 20/01/2026]',3.286041,-0.297333,0.971464,-1.853339,4.610755E-10,4.610755E-10,-1.268451,-2.625145
'[18:09:08.144 20/01/2026]',-1.597756,2.452878,0.08061861,-0.6271091,4.610755E-10,4.610755E-10,-0.8427014,-1.363845
'[18:09:08.152 20/01/2026]',-1.597756,2.452878,0.08061861,-0.6271091,4.610755E-10,4.610755E-10,-0.8427014,-1.363845
'[18:09:08.160 20/01/2026]',-1.597756,2.452878,0.08061861,-0.6271091,4.610755E-10,4.610755E-10,-0.8427014,-1.363845
'[18:09:08.168 20/01/2026]',-0.2046911,0.5563432,1.961727,-0.1937184,4.610755E-10,4.610755E-10,1.237993,3.690492
'[18:09:08.176 20/01/2026]',-0.2046911,0.5563432,1.961727,-0.1937184,4.610755E-10,4.610755E-10,1.237993,3.690492
'[18:09:08.184 20/01/2026]',-0.6873997,-1.976945,-4.222052,2.300766,4.610755E-10,4.610755E-10,0.809302,-1.347065
'[18:09:08.192 20/01/2026]',-0.6873997,-1.976945,-4.222052,2.300766,4.610755E-10,4.610755E-10,0.809302,-1.347065
'[18:09:08.200 20/01/2026]',1.157691,0.7653377,2.071192,-2.814132,4.610755E-10,4.610755E-10,-2.519606,-0.9901097
'[18:09:08.208 20/01/2026]',1.157691,0.7653377,2.071192,-2.814132,4.610755E-10,4.610755E-10,-2.519606,-0.9901097
'[18:09:08.216 20/01/2026]',1.157691,0.7653377,2.071192,-2.814132,4.610755E-10,4.610755E-10,-2.519606,-0.9901097
'[18:09:08.224 20/01/2026]',1.157691,0.7653377,2.071192,-2.814132,4.610755E-10,4.610755E-10,-2.519606,-0.9901097
'[18:09:08.232 20/01/2026]',1.157691,0.7653377,2.071192,-2.814132,4.610755E-10,4.610755E-10,-2.519606,-0.9901097
'[18:09:08.240 20/01/2026]',1.157691,0.7653377,2.071192,-2.814132,4.610755E-10,4.610755E-10,-2.519606,-0.9901097
'[18:09:08.248 20/01/2026]',0.09556565,-0.7803115,1.535691,-0.214672,4.610755E-10,4.610755E-10,1.205373,0.2064145
'[18:09:08.256 20/01/2026]',0.09556565,-0.7803115,1.535691,-0.214672,4.610755E-10,4.610755E-10,1.205373,0.2064145
'[18:09:08.264 20/01/2026]',0.09556565,-0.7803115,1.535691,-0.214672,4.610755E-10,4.610755E-10,1.205373,0.2064145
'[18:09:08.272 20/01/2026]',-0.1649263,-0.488664,-1.577642,2.347764,4.610755E-10,4.610755E-10,-1.565703,-2.483446
'[18:09:08.280 20/01/2026]',-0.1649263,-0.488664,-1.577642,2.347764,4.610755E-10,4.610755E-10,-1.565703,-2.483446
'[18:09:08.288 20/01/2026]',0.06212449,-1.020187,-2.411113,0.71693,4.610755E-10,4.610755E-10,-0.06390208,2.788458
'[18:09:08.296 20/01/2026]',0.8777318,1.736309,2.931083,-4.61318,4.610755E-10,4.610755E-10,1.084683,-1.432863
'[18:09:08.304 20/01/2026]',-1.560576,-2.360323,-1.981983,1.378262,4.610755E-10,4.610755E-10,-2.154458,-1.131711
'[18:09:08.312 20/01/2026]',-0.2966692,1.535958,-2.057673,-0.6003719,4.610755E-10,4.610755E-10,-0.2881391,-0.553569
'[18:09:08.320 20/01/2026]',3.41336,1.589047,4.732781,3.665538,4.610755E-10,4.610755E-10,2.049071,1.813276
'[18:09:08.328 20/01/2026]',3.41336,1.589047,4.732781,3.665538,4.610755E-10,4.610755E-10,2.049071,1.813276
'[18:09:08.336 20/01/2026]',-4.156413,-1.677933,-2.638568,-2.433643,4.610755E-10,4.610755E-10,-1.113139,0.8924044
'[18:09:08.344 20/01/2026]',-4.156413,-1.677933,-2.638568,-2.433643,4.610755E-10,4.610755E-10,-1.113139,0.8924044
'[18:09:08.352 20/01/2026]',2.466366,2.425839,-1.033562,-2.253513,4.610755E-10,4.610755E-10,-1.573553,-3.240381
'[18:09:08.360 20/01/2026]',2.466366,2.425839,-1.033562,-2.253513,4.610755E-10,4.610755E-10,-1.573553,-3.240381
'[18:09:08.368 20/01/2026]',2.466366,2.425839,-1.033562,-2.253513,4.610755E-10,4.610755E-10,-1.573553,-3.240381
'[18:09:08.376 20/01/2026]',3.31514,-1.409243,5.009297,4.696174,4.610755E-10,4.610755E-10,6.130001,5.604613
'[18:09:08.384 20/01/2026]',3.31514,-1.409243,5.009297,4.696174,4.610755E-10,4.610755E-10,6.130001,5.604613
'[18:09:08.392 20/01/2026]',3.31514,-1.409243,5.009297,4.696174,4.610755E-10,4.610755E-10,6.130001,5.604613
'[18:09:08.400 20/01/2026]',3.31514,-1.409243,5.009297,4.696174,4.610755E-10,4.610755E-10,6.130001,5.604613
'[18:09:08.408 20/01/2026]',3.31514,-1.409243,5.009297,4.696174,4.610755E-10,4.610755E-10,6.130001,5.604613
'[18:09:08.416 20/01/2026]',-14.01278,-10.98259,-6.924128,-2.756202,4.610755E-10,4.610755E-10,-5.285401,-4.488055
'[18:09:08.424 20/01/2026]',-14.01278,-10.98259,-6.924128,-2.756202,4.610755E-10,4.610755E-10,-5.285401,-4.488055
'[18:09:08.432 20/01/2026]',20.49611,13.03503,2.412609,-1.108563,4.610755E-10,4.610755E-10,-0.6912711,0.1734507
'[18:09:08.440 20/01/2026]',-11.89042,-2.366424,1.810773,3.17631,4.610755E-10,4.610755E-10,3.78513,3.040165
'[18:09:08.448 20/01/2026]',-1.810906,2.265194,0.03120252,-0.4184133,4.610755E-10,4.610755E-10,1.365284,-1.421452
'[18:09:08.456 20/01/2026]',-1.810906,2.265194,0.03120252,-0.4184133,4.610755E-10,4.610755E-10,1.365284,-1.421452
'[18:09:08.464 20/01/2026]',4.519624,-1.913885,-0.109446,0.6500407,4.610755E-10,4.610755E-10,-3.777755,0.3692699
'[18:09:08.472 20/01/2026]',4.519624,-1.913885,-0.109446,0.6500407,4.610755E-10,4.610755E-10,-3.777755,0.3692699
'[18:09:08.480 20/01/2026]',-0.2662003,0.1372339,-0.3902953,1.852566,4.610755E-10,4.610755E-10,-2.239469,-1.856387
'[18:09:08.488 20/01/2026]',-0.2662003,0.1372339,-0.3902953,1.852566,4.610755E-10,4.610755E-10,-2.239469,-1.856387
'[18:09:08.496 20/01/2026]',-0.6747217,1.381507,-0.9837406,-4.10605,4.610755E-10,4.610755E-10,4.699991,2.870373
'[18:09:08.504 20/01/2026]',-0.6747217,1.381507,-0.9837406,-4.10605,4.610755E-10,4.610755E-10,4.699991,2.870373
'[18:09:08.512 20/01/2026]',-1.098348,-2.78528,-0.102182,-1.058231,4.610755E-10,4.610755E-10,-2.284834,-3.408175
'[18:09:08.520 20/01/2026]',-1.098348,-2.78528,-0.102182,-1.058231,4.610755E-10,4.610755E-10,-2.284834,-3.408175
'[18:09:08.528 20/01/2026]',2.640793,2.048319,2.786207,4.577582,4.610755E-10,4.610755E-10,2.109389,2.788657
'[18:09:08.536 20/01/2026]',2.640793,2.048319,2.786207,4.577582,4.610755E-10,4.610755E-10,2.109389,2.788657
'[18:09:08.544 20/01/2026]',2.640793,2.048319,2.786207,4.577582,4.610755E-10,4.610755E-10,2.109389,2.788657
'[18:09:08.552 20/01/2026]',1.880957,1.286793,-0.4646994,-0.09560513,4.610755E-10,4.610755E-10,-2.711621,-1.470504
'[18:09:08.560 20/01/2026]',1.880957,1.286793,-0.4646994,-0.09560513,4.610755E-10,4.610755E-10,-2.711621,-1.470504
'[18:09:08.568 20/01/2026]',-2.325701,-1.676739,-1.708227,-2.364639,4.610755E-10,4.610755E-10,3.45965,2.365742
'[18:09:08.576 20/01/2026]',-2.325701,-1.676739,-1.708227,-2.364639,4.610755E-10,4.610755E-10,3.45965,2.365742
'[18:09:08.584 20/01/2026]',-2.325701,-1.676739,-1.708227,-2.364639,4.610755E-10,4.610755E-10,3.45965,2.365742
'[18:09:08.592 20/01/2026]',-0.05846473,-0.4302937,-0.4017107,-0.959561,4.610755E-10,4.610755E-10,-3.710925,-3.06127
'[18:09:08.600 20/01/2026]',-0.05846473,-0.4302937,-0.4017107,-0.959561,4.610755E-10,4.610755E-10,-3.710925,-3.06127
'[18:09:08.608 20/01/2026]',-11.02814,-12.54121,-10.34516,-5.809932,4.610755E-10,4.610755E-10,-10.83128,-11.13426
