'Time and date','Fp1','Fp2','F3','Fz','F4','P3','Pz','P4','AccX','AccY','AccZ','GyroX','GyroY','GyroZ','Battery','Event'
'[hh:mm:ss.mmm dd/mm/yyyy]','uV','uV','uV','uV','uV','uV','uV','uV','G','G','G','Deg/s','Deg/s','Deg/s','%','Button'
'[12:09:00.000 20/01/2026]',-117365.1,-170594.9,-164627.1,-213167.1,-375000,-375000,-142047.7,-179322.9,0.02,0.02,0.89,-4,0,-2,59,0
'[12:09:00.004 20/01/2026]',-117379.6,-170587.6,-164644.9,-213175.6,-375000,-375000,-142043.6,-179325.8,0.02,0.02,0.89,-4,0,-2,59,0
'[12:09:00.008 20/01/2026]',-117394,-170638.8,-164674.5,-213123.1,-375000,-375000,-142047.5,-179322.4,0.02,0.02,0.89,-4,0,-2,59,0
'[12:09:00.012 20/01/2026]',-117374.9,-170646.1,-164672.4,-213131.5,-375000,-375000,-142050.4,-179326.1,0.02,0.02,0.89,-4,0,-2,59,0
'[12:09:00.016 20/01/2026]',-117360.8,-170609.5,-164651,-213208.1,-375000,-375000,-142062.4,-179344.2,0.02,0.02,0.89,-4,0,-2,59,0
'[12:09:00.020 20/01/2026]',-117376.9,-170602.6,-164649,-213210.6,-375000,-375000,-142064.1,-179343.2,0.02,0.02,0.89,-4,0,-2,59,0
'[12:09:00.024 20/01/2026]',-117394.2,-170640.9,-164669.5,-213145.8,-375000,-375000,-142044.4,-179319.7,0.02,0.02,0.89,-4,0,-2,59,0
'[12:09:00.028 20/01/2026]',-117389.5,-170633.6,-164672.5,-213111.5,-375000,-375000,-142029.7,-179291.5,0.02,0.02,0.89,-4,0,-2,59,0
'[12:09:00.032 20/01/2026]',-117355.9,-170606.2,-164647.6,-213162.5,-375000,-375000,-142038.9,-179298.5,0.02,0.02,0.89,-4,0,-2,59,0
'[12:09:00.036 20/01/2026]',-117365.1,-170594.9,-164627.1,-213167.1,-375000,-375000,-142047.7,-179322.9,0.02,0.02,0.89,-4,0,-2,59,0
'[12:09:00.040 20/01/2026]',-117379.6,-170587.6,-164644.9,-213175.6,-375000,-375000,-142043.6,-179325.8,0.02,0.02,0.89,-4,0,-2,59,0
'[12:09:00.044 20/01/2026]',-117394,-170638.8,-164674.5,-213123.1,-375000,-375000,-142047.5,-179322.4,0.02,0.02,0.89,-4,0,-2,59,0
'[12:09:00.048 20/01/2026]',-117374.9,-170646.1,-164672.4,-213131.5,-375000,-375000,-142050.4,-179326.1,0.02,0.02,0.89,-4,0,-2,59,0
'[12:09:00.052 20/01/2026]',-117360.8,-170609.5,-164651,-213208.1,-375000,-375000,-142062.4,-179344.2,0.02,0.02,0.89,-4,0,-2,59,0
'[12:09:00.056 20/01/2026]',-117376.9,-170602.6,-164649,-213210.6,-375000,-375000,-142064.1,-179343.2,0.02,0.02,0.89,-4,0,-2,59,0
'[12:09:00.060 20/01/2026]',-117394.2,-170640.9,-164669.5,-213145.8,-375000,-375000,-142044.4,-179319.7,0.02,0.02,0.89,-4,0,-2,59,0
'[12:09:00.064 20/01/2026]',-117389.5,-170633.6,-164672.5,-213111.5,-375000,-375000,-142029.7,-179291.5,0.02,0.02,0.89,-4,0,-2,59,0
'[12:09:00.068 20/01/2026]',-117355.9,-170606.2,-164647.6,-213162.5,-375000,-375000,-142038.9,-179298.5,0.02,0.02,0.89,-4,0,-2,59,0
'[12:09:00.072 20/01/2026]',-117329.1,-170585.1,-164634.9,-213182.4,-375000,-375000,-142032.8,-179306.5,0.03,0.00,0.88,-4,0,-2,59,0
'[12:09:00.076 20/01/2026]',-117371.9,-170609.7,-164672.6,-213138.9,-375000,-375000,-142040,-179308.4,0.03,0.00,0.88,-4,0,-2,59,0
'[12:09:00.080 20/01/2026]',-117406.4,-170620.8,-164677.2,-213103,-375000,-375000,-142033.8,-179295,0.03,0.00,0.88,-4,0,-2,59,0
'[12:09:00.084 20/01/2026]',-117384.2,-170610.1,-164649.4,-213157.2,-375000,-375000,-142043.9,-179314.9,0.03,0.00,0.88,-4,0,-2,59,0
'[12:09:00.088 20/01/2026]',-117370,-170596.5,-164636.2,-213192.2,-375000,-375000,-142049,-179322.9,0.03,0.00,0.88,-4,0,-2,59,0
'[12:09:00.092 20/01/2026]',-117389.5,-170608.3,-164654.7,-213142,-375000,-375000,-142044.3,-179312.7,0.03,0.00,0.88,-4,0,-2,59,0
'[12:09:00.096 20/01/2026]',-117397,-170628.3,-164672.8,-213099.8,-375000,-375000,-142038.6,-179303.5,0.03,0.00,0.88,-4,0,-2,59,0
'[12:09:00.100 20/01/2026]',-117375.9,-170601.2,-164653,-213139,-375000,-375000,-142046.1,-179313.9,0.03,0.00,0.88,-4,0,-2,59,0
'[12:09:00.104 20/01/2026]',-117361.4,-170580.5,-164643.7,-213192.6,-375000,-375000,-142054.9,-179329.9,0.03,0.00,0.88,-4,0,-2,59,0
'[12:09:00.108 20/01/2026]',-117352.3,-170606.4,-164662.5,-213156.9,-375000,-375000,-142051.5,-179323.4,0.03,0.00,0.88,-4,0,-2,59,0
'[12:09:00.112 20/01/2026]',-117371.1,-170636.6,-164687.6,-213103.8,-375000,-375000,-142047.3,-179314.2,0.03,0.00,0.88,-4,0,-2,59,0
'[12:09:00.116 20/01/2026]',-117411.7,-170633.4,-164676,-213148.1,-375000,-375000,-142060.8,-179337.1,0.03,0.00,0.88,-4,0,-2,59,0
'[12:09:00.120 20/01/2026]',-117376.6,-170602.5,-164639.6,-213198.6,-375000,-375000,-142057.5,-179341.2,0.03,0.00,0.88,-4,0,-2,59,0
'[12:09:00.124 20/01/2026]',-117383.1,-170609.8,-164651.9,-213171.6,-375000,-375000,-142052.1,-179330.1,0.03,0.00,0.88,-4,0,-2,59,0
'[12:09:00.128 20/01/2026]',-117403.3,-170633.5,-164678.5,-213111.2,-375000,-375000,-142050.3,-179319.1,0.03,0.00,0.88,-4,0,-2,59,0
'[12:09:00.132 20/01/2026]',-117376,-170625.3,-164658.8,-213127.5,-375000,-375000,-142056.9,-179325,0.03,0.00,0.88,-4,0,-2,59,0
'[12:09:00.136 20/01/2026]',-117365.1,-170587.6,-164629.5,-213191.6,-375000,-375000,-142055.6,-179332.4,0.03,0.00,0.88,-4,0,-2,59,0
'[12:09:00.140 20/01/2026]',-117356.8,-170590.8,-164638.9,-213187,-375000,-375000,-142050,-179329.2,0.03,0.00,0.88,-4,0,-2,59,0
'[12:09:00.144 20/01/2026]',-117368.4,-170625.8,-164661.3,-213109.3,-375000,-375000,-142038.6,-179306.2,0.03,0.00,0.88,-4,0,-2,59,0
'[12:09:00.148 20/01/2026]',-117411.4,-170634.9,-164669.5,-213120.3,-375000,-375000,-142049.4,-179321.3,0.03,0.00,0.88,-4,0,-2,59,0
'[12:09:00.152 20/01/2026]',-117406.2,-170602.3,-164648.1,-213198.6,-375000,-375000,-142063.6,-179346.8,0.03,0.00,0.88,-4,0,-2,59,0
'[12:09:00.156 20/01/2026]',-117393.8,-170601.7,-164642.5,-213206,-375000,-375000,-142054.8,-179340.4,0.03,0.00,0.88,-4,0,-2,59,0
'[12:09:00.160 20/01/2026]',-117406.1,-170645.7,-164665.7,-213130.6,-375000,-375000,-142058.3,-179329.5,0.03,0.00,0.88,-4,0,-2,59,0
'[12:09:00.164 20/01/2026]',-117414.6,-170665.9,-164671.2,-213115.9,-375000,-375000,-142066.2,-179333.9,0.03,0.00,0.88,-4,0,-2,59,0
'[12:09:00.168 20/01/2026]',-117377.4,-170632.5,-164643.4,-213170.4,-375000,-375000,-142047.4,-179324.5,0.03,0.00,0.88,-4,0,-2,59,0
'[12:09:00.172 20/01/2026]',-117394.7,-170627.6,-164641.8,-213186.8,-375000,-375000,-142036.2,-179315.6,0.03,0.00,0.88,-4,0,-2,59,0
'[12:09:00.176 20/01/2026]',-117453.3,-170675.3,-164666,-213133.1,-375000,-375000,-142044.4,-179314.4,0.03,0.00,0.88,-4,0,-2,59,0
'[12:09:00.180 20/01/2026]',-117461.9,-170704.7,-164698.1,-213110.4,-375000,-375000,-142054.4,-179315.7,0.03,0.00,0.88,-4,0,-2,59,0
'[12:09:00.184 20/01/2026]',-117454.3,-170679.5,-164688.6,-213166.5,-375000,-375000,-142067.1,-179336.5,0.03,0.00,0.88,-4,0,-2,59,0
'[12:09:00.188 20/01/2026]',-117471.5,-170703.3,-164669.8,-213210.9,-375000,-375000,-142054.8,-179338.4,0.03,0.00,0.88,-4,0,-2,59,0
'[12:09:00.192 20/01/2026]',-117501,-170755,-164699.7,-213176.2,-375000,-375000,-142062.8,-179332.2,0.03,0.00,0.88,-4,0,-2,59,0
'[12:09:00.196 20/01/2026]',-117502.9,-170791,-164725.5,-213141.4,-375000,-375000,-142056.7,-179323,0.03,0.00,0.88,-4,0,-2,59,0
'[12:09:00.200 20/01/2026]',-117528.6,-170787.2,-164705.8,-213186,-375000,-375000,-142040.1,-179313.6,0.03,0.00,0.88,-4,0,-2,59,0
'[12:09:00.204 20/01/2026]',-117554.3,-170775.3,-164694.8,-213235.9,-375000,-375000,-142038.9,-179322.8,0.03,0.00,0.88,-4,0,-2,59,0
'[12:09:00.208 20/01/2026]',-117602.8,-170822.3,-164711,-213203.4,-375000,-375000,-142042.6,-179324.2,0.03,0.00,0.88,-4,0,-2,59,0
'[12:09:00.212 20/01/2026]',-117633.3,-170876.4,-164740.6,-213161.5,-375000,-375000,-142042.9,-179310.9,0.03,0.00,0.88,-4,0,-2,59,0
'[12:09:00.216 20/01/2026]',-117618.6,-170908,-164746.8,-213206.1,-375000,-375000,-142058.9,-179326.8,0.03,0.00,0.88,-4,0,-2,59,0
'[12:09:00.220 20/01/2026]',-117599.5,-170888.2,-164726.2,-213277.6,-375000,-375000,-142068.3,-179345.9,0.03,0.00,0.88,-4,0,-2,59,0
'[12:09:00.224 20/01/2026]',-117685.3,-170922,-164738.1,-213258.6,-375000,-375000,-142081,-179353.3,0.03,0.00,0.88,-4,0,-2,59,0
'[12:09:00.228 20/01/2026]',-117709.7,-170963.2,-164771.6,-213202.3,-375000,-375000,-142075.1,-179342.4,0.03,0.00,0.88,-4,0,-2,59,0
'[12:09:00.232 20/01/2026]',-117695.8,-170959.4,-164751.8,-213205.4,-375000,-375000,-142060.3,-179329.1,0.03,0.00,0.88,-4,0,-2,59,0
'[12:09:00.236 20/01/2026]',-117637.5,-170916.4,-164738.5,-213265.8,-375000,-375000,-142066.8,-179338.5,0.03,0.00,0.88,-4,0,-2,59,0
'[12:09:00.240 20/01/2026]',-117644,-170923.2,-164734.7,-213275.5,-375000,-375000,-142074.9,-179349.2,0.03,0.00,0.88,-4,0,-2,59,0
'[12:09:00.244 20/01/2026]',-117715.5,-170958.3,-164751.2,-213221.4,-375000,-375000,-142075.5,-179347.4,0.03,0.00,0.88,-4,0,-2,59,0
'[12:09:00.248 20/01/2026]',-117699.1,-170954.5,-164752.2,-213210.1,-375000,-375000,-142077.4,-179349.4,0.03,0.00,0.88,-4,0,-2,59,0
'[12:09:00.252 20/01/2026]',-117629,-170875.8,-164725.5,-213256.8,-375000,-375000,-142080.3,-179357.3,0.03,0.00,0.88,-4,0,-2,59,0
'[12:09:00.256 20/01/2026]',-117609.7,-170845.5,-164720.6,-213253.8,-375000,-375000,-142065.5,-179336.1,0.03,0.00,0.88,-4,0,-2,59,0
'[12:09:00.260 20/01/2026]',-117620.1,-170858.1,-164742.6,-213186.7,-375000,-375000,-142074.5,-179330.7,0.03,0.00,0.88,-4,0,-2,59,0
'[12:09:00.264 20/01/2026]',-117596.3,-170847.1,-164745.7,-213175.4,-375000,-375000,-142086.8,-179337.9,0.03,0.00,0.88,-4,0,-2,59,0
'[12:09:00.268 20/01/2026]',-117537,-170802,-164711.2,-213222.5,-375000,-375000,-142077.1,-179339.5,0.03,0.00,0.88,-4,0,-2,59,0
'[12:09:00.272 20/01/2026]',-117523.9,-170765.4,-164684.5,-213225.4,-375000,-375000,-142068.5,-179335.5,0.03,0.00,0.88,-4,0,-2,59,0
'[12:09:00.276 20/01/2026]',-117548.1,-170779.9,-164711.3,-213165.8,-375000,-375000,-142079.9,-179337.5,0.03,0.00,0.88,-4,0,-2,59,0
'[12:09:00.280 20/01/2026]',-117523.5,-170788.8,-164722.7,-213140.1,-375000,-375000,-142082,-179332,0.03,0.00,0.88,-4,0,-2,59,0
'[12:09:00.284 20/01/2026]',-117510.6,-170746.9,-164692.4,-213189,-375000,-375000,-142061.6,-179325.1,0.03,0.00,0.88,-4,0,-2,59,0
'[12:09:00.288 20/01/2026]',-117501.2,-170716.5,-164674.1,-213216.3,-375000,-375000,-142059.5,-179326.6,0.02,0.00,0.88,-4,0,-2,59,0
'[12:09:00.292 20/01/2026]',-117489,-170713.2,-164708.3,-213162.1,-375000,-375000,-142070,-179325.3,0.02,0.00,0.88,-4,0,-2,59,0
'[12:09:00.296 20/01/2026]',-117491.2,-170724.4,-164725.5,-213124.8,-375000,-375000,-142064.8,-179325.5,0.02,0.00,0.88,-4,0,-2,59,0
'[12:09:00.300 20/01/2026]',-117466.1,-170704.5,-164697.4,-213164.4,-375000,-375000,-142060.3,-179329.5,0.02,0.00,0.88,-4,0,-2,59,0
'[12:09:00.304 20/01/2026]',-117431,-170661.9,-164666.5,-213197.7,-375000,-375000,-142058.8,-179332.9,0.02,0.00,0.88,-4,0,-2,59,0
'[12:09:00.308 20/01/2026]',-117455.9,-170662.1,-164690,-213155.5,-375000,-375000,-142067.1,-179333.9,0.02,0.00,0.88,-4,0,-2,59,0
'[12:09:00.312 20/01/2026]',-117475.1,-170685.8,-164713.4,-213105.4,-375000,-375000,-142064.5,-179324.3,0.02,0.00,0.88,-4,0,-2,59,0
'[12:09:00.316 20/01/2026]',-117460.9,-170674.6,-164688.5,-213133.2,-375000,-375000,-142068.1,-179336.3,0.02,0.00,0.88,-4,0,-2,59,0
'[12:09:00.320 20/01/2026]',-117423.2,-170629.6,-164656.4,-213166.8,-375000,-375000,-142050.4,-179321.7,0.02,0.00,0.88,-4,0,-2,59,0
'[12:09:00.324 20/01/2026]',-117429.8,-170636.4,-164665.5,-213132.9,-375000,-375000,-142051.6,-179319.5,0.03,0.00,0.89,-4,0,-2,59,0
'[12:09:00.328 20/01/2026]',-117461.9,-170666.1,-164708.2,-213085.8,-375000,-375000,-142057,-179319.3,0.03,0.00,0.89,-4,0,-2,59,0
'[12:09:00.332 20/01/2026]',-117450.7,-170656.9,-164699,-213108.4,-375000,-375000,-142057.7,-179319,0.03,0.00,0.89,-4,0,-2,59,0
'[12:09:00.336 20/01/2026]',-117411.7,-170613.8,-164653.7,-213151.4,-375000,-375000,-142057.5,-179324.5,0.03,0.00,0.89,-4,0,-2,59,0
'[12:09:00.340 20/01/2026]',-117412.5,-170616.8,-164657.2,-213137,-375000,-375000,-142057,-179318.5,0.03,0.00,0.89,-4,0,-2,59,0
'[12:09:00.344 20/01/2026]',-117442.3,-170640.1,-164700.6,-213083.6,-375000,-375000,-142064.9,-179321.8,0.03,0.00,0.89,-4,0,-2,59,0
'[12:09:00.348 20/01/2026]',-117422.9,-170640.1,-164688.2,-213082.6,-375000,-375000,-142054.4,-179318.8,0.03,0.00,0.89,-4,0,-2,59,0
'[12:09:00.352 20/01/2026]',-117404.7,-170597,-164655.9,-213137.2,-375000,-375000,-142059.1,-179329.3,0.03,0.00,0.89,-4,0,-2,59,0
'[12:09:00.356 20/01/2026]',-117415.8,-170586.6,-164664.5,-213145.8,-375000,-375000,-142074.3,-179340.6,0.03,0.00,0.89,-4,0,-2,59,0
'[12:09:00.360 20/01/2026]',-117415.7,-170619.1,-164681.4,-213081.1,-375000,-375000,-142074.9,-179337.8,0.03,0.02,0.86,-4,0,-2,59,0
'[12:09:00.364 20/01/2026]',-117409.5,-170632,-164688.7,-213062.6,-375000,-375000,-142069.4,-179328.8,0.03,0.02,0.86,-4,0,-2,59,0
'[12:09:00.368 20/01/2026]',-117396,-170583.8,-164657,-213108.7,-375000,-375000,-142058.1,-179321.8,0.03,0.02,0.86,-4,0,-2,59,0
'[12:09:00.372 20/01/2026]',-117387.1,-170568,-164635.7,-213116,-375000,-375000,-142044.4,-179312,0.03,0.02,0.86,-4,0,-2,59,0
'[12:09:00.376 20/01/2026]',-117405.7,-170593.1,-164658.5,-213057.5,-375000,-375000,-142037.8,-179302.6,0.03,0.02,0.86,-4,0,-2,59,0
'[12:09:00.380 20/01/2026]',-117407.8,-170603.3,-164670.8,-213022,-375000,-375000,-142030.8,-179292.8,0.03,0.02,0.86,-4,0,-2,59,0
'[12:09:00.384 20/01/2026]',-117395.9,-170576.8,-164644.4,-213078.5,-375000,-375000,-142045.2,-179321.1,0.03,0.02,0.86,-4,0,-2,59,0
'[12:09:00.388 20/01/2026]',-117380.5,-170564.2,-164642.3,-213107.5,-375000,-375000,-142045.2,-179326.8,0.03,0.02,0.86,-4,0,-2,59,0
'[12:09:00.392 20/01/2026]',-117396.2,-170586.8,-164673.4,-213040.9,-375000,-375000,-142039.3,-179312.1,0.03,0.02,0.86,-4,0,-2,59,0
'[12:09:00.396 20/01/2026]',-117386.1,-170608.7,-164685.2,-212993.9,-375000,-375000,-142031.1,-179303.4,0.03,0.00,0.89,-4,0,-2,59,0
'[12:09:00.400 20/01/2026]',-117376.2,-170585.1,-164656.1,-213030.1,-375000,-375000,-142031.2,-179309.6,0.03,0.00,0.89,-4,0,-2,59,0
'[12:09:00.404 20/01/2026]',-117392,-170557.1,-164631.5,-213070.7,-375000,-375000,-142032,-179319.4,0.03,0.00,0.89,-4,0,-2,59,0
'[12:09:00.408 20/01/2026]',-117407.6,-170576.3,-164657,-213033.7,-375000,-375000,-142044.8,-179319.7,0.03,0.00,0.89,-4,0,-2,59,0
'[12:09:00.412 20/01/2026]',-117411.7,-170600.3,-164686.9,-212982,-375000,-375000,-142040.5,-179307.3,0.03,0.00,0.89,-4,0,-2,59,0
'[12:09:00.416 20/01/2026]',-117391.2,-170584.8,-164663.2,-213001.2,-375000,-375000,-142038,-179307.9,0.03,0.00,0.89,-4,0,-2,59,0
'[12:09:00.420 20/01/2026]',-117378.4,-170554,-164647.6,-213049.4,-375000,-375000,-142048.4,-179328.9,0.03,0.00,0.89,-4,0,-2,59,0
'[12:09:00.424 20/01/2026]',-117377.5,-170556.5,-164653.5,-213022,-375000,-375000,-142051,-179326.7,0.03,0.00,0.89,-4,0,-2,59,0
'[12:09:00.428 20/01/2026]',-117381.7,-170584.1,-164660,-212957.1,-375000,-375000,-142036,-179304.6,0.03,0.00,0.89,-4,0,-2,59,0
'[12:09:00.432 20/01/2026]',-117386.7,-170580.4,-164655.8,-212963.9,-375000,-375000,-142037.5,-179307.7,0.03,0.02,0.88,-4,0,-2,59,0
'[12:09:00.436 20/01/2026]',-117362.5,-170550.3,-164636.5,-213032,-375000,-375000,-142044.3,-179324.5,0.03,0.02,0.88,-4,0,-2,59,0
'[12:09:00.440 20/01/2026]',-117366.4,-170558.7,-164644,-213038.1,-375000,-375000,-142042.5,-179327.4,0.03,0.02,0.88,-4,0,-2,59,0
'[12:09:00.444 20/01/2026]',-117410.5,-170589.4,-164672,-212964.4,-375000,-375000,-142048.8,-179319.5,0.03,0.02,0.88,-4,0,-2,59,0
'[12:09:00.448 20/01/2026]',-117403.8,-170579.1,-164662.4,-212959.9,-375000,-375000,-142049.2,-179320,0.03,0.02,0.88,-4,0,-2,59,0
'[12:09:00.452 20/01/2026]',-117377.2,-170540.1,-164632.5,-213007.3,-375000,-375000,-142060.3,-179332.1,0.03,0.02,0.88,-4,0,-2,59,0
'[12:09:00.456 20/01/2026]',-117370.1,-170558.7,-164653,-213029.9,-375000,-375000,-142074.9,-179349,0.03,0.02,0.88,-4,0,-2,59,0
'[12:09:00.460 20/01/2026]',-117381.2,-170598.3,-164688,-212975.1,-375000,-375000,-142076.9,-179340.9,0.03,0.02,0.88,-4,0,-2,59,0
'[12:09:00.464 20/01/2026]',-117403.6,-170599.9,-164693.8,-212956.1,-375000,-375000,-142072.1,-179337.7,0.03,0.02,0.88,-4,0,-2,59,0
'[12:09:00.468 20/01/2026]',-117412.1,-170579.5,-164673.9,-213021.7,-375000,-375000,-142088.9,-179357.6,0.02,0.02,0.89,-4,0,-2,59,0
'[12:09:00.472 20/01/2026]',-117407.3,-170584.8,-164670.8,-213043.7,-375000,-375000,-142094.8,-179366.1,0.02,0.02,0.89,-4,0,-2,59,0
'[12:09:00.476 20/01/2026]',-117419.9,-170620.3,-164698.8,-212989.3,-375000,-375000,-142103.2,-179367.9,0.02,0.02,0.89,-4,0,-2,59,0
'[12:09:00.480 20/01/2026]',-117420.8,-170636,-164718.2,-212963.6,-375000,-375000,-142109.8,-179370,0.02,0.02,0.89,-4,0,-2,59,0
'[12:09:00.484 20/01/2026]',-117449.8,-170615.8,-164705.4,-213024.8,-375000,-375000,-142128.4,-179395.5,0.02,0.02,0.89,-4,0,-2,59,0
'[12:09:00.488 20/01/2026]',-117432.1,-170600.7,-164696.2,-213066.2,-375000,-375000,-142127.5,-179398.2,0.02,0.02,0.89,-4,0,-2,59,0
'[12:09:00.492 20/01/2026]',-117438.6,-170620.9,-164719.7,-213015.8,-375000,-375000,-142116.6,-179378.2,0.02,0.02,0.89,-4,0,-2,59,0
'[12:09:00.496 20/01/2026]',-117475.2,-170653.5,-164749.6,-212980.6,-375000,-375000,-142130.9,-179392.5,0.02,0.02,0.89,-4,0,-2,59,0
'[12:09:00.500 20/01/2026]',-117452.9,-170638,-164734.9,-213031.3,-375000,-375000,-142142.8,-179410.9,0.02,0.02,0.89,-4,0,-2,59,0
'[12:09:00.504 20/01/2026]',-117444,-170614.2,-164714.8,-213075.3,-375000,-375000,-142142.5,-179411.2,0.03,0.00,0.89,-4,0,-2,59,0
'[12:09:00.508 20/01/2026]',-117470.3,-170637.5,-164730,-213041.9,-375000,-375000,-142144.9,-179414.7,0.03,0.00,0.89,-4,0,-2,59,0
'[12:09:00.512 20/01/2026]',-117482.4,-170677.8,-164763.3,-213004.3,-375000,-375000,-142156,-179424.1,0.03,0.00,0.89,-4,0,-2,59,0
'[12:09:00.516 20/01/2026]',-117460.8,-170667.3,-164763.5,-213045.3,-375000,-375000,-142176.3,-179442.3,0.03,0.00,0.89,-4,0,-2,59,0
'[12:09:00.520 20/01/2026]',-117448.2,-170644.7,-164737.8,-213101,-375000,-375000,-142165,-179439.3,0.03,0.00,0.89,-4,0,-2,59,0
'[12:09:00.524 20/01/2026]',-117504.9,-170658.8,-164756.4,-213074.3,-375000,-375000,-142162.6,-179430.8,0.03,0.00,0.89,-4,0,-2,59,0
'[12:09:00.528 20/01/2026]',-117525.8,-170691.8,-164787.6,-213020.8,-375000,-375000,-142172.4,-179431.1,0.03,0.00,0.89,-4,0,-2,59,0
'[12:09:00.532 20/01/2026]',-117510.3,-170678.6,-164774,-213049.8,-375000,-375000,-142178.5,-179449.5,0.03,0.00,0.89,-4,0,-2,59,0
'[12:09:00.536 20/01/2026]',-117485.5,-170654.1,-164759,-213109.7,-375000,-375000,-142191,-179464.4,0.03,0.00,0.89,-4,0,-2,59,0
'[12:09:00.540 20/01/2026]',-117497.7,-170670,-164783.8,-213106.1,-375000,-375000,-142201.5,-179470.7,0.03,0.02,0.88,-4,0,-2,59,0
'[12:09:00.544 20/01/2026]',-117517.9,-170696.9,-164809.4,-213053.9,-375000,-375000,-142192,-179458.7,0.03,0.02,0.88,-4,0,-2,59,0
'[12:09:00.548 20/01/2026]',-117511.2,-170686.9,-164800.3,-213039.3,-375000,-375000,-142174.8,-179440.6,0.03,0.02,0.88,-4,0,-2,59,0
'[12:09:00.552 20/01/2026]',-117514.3,-170676.2,-164773.5,-213104.4,-375000,-375000,-142184.5,-179460,0.03,0.02,0.88,-4,0,-2,59,0
'[12:09:00.556 20/01/2026]',-117509.1,-170676.6,-164789.4,-213114.6,-375000,-375000,-142196.6,-179465.5,0.03,0.02,0.88,-4,0,-2,59,0
'[12:09:00.560 20/01/2026]',-117535.3,-170701,-164816.2,-213045.4,-375000,-375000,-142200.1,-179463.1,0.03,0.02,0.88,-4,0,-2,59,0
'[12:09:00.564 20/01/2026]',-117549.8,-170697.3,-164818.9,-213031.4,-375000,-375000,-142186.6,-179447.8,0.03,0.02,0.88,-4,0,-2,59,0
'[12:09:00.568 20/01/2026]',-117525.5,-170659,-164780.7,-213082.3,-375000,-375000,-142173.9,-179448.9,0.03,0.02,0.88,-4,0,-2,59,0
'[12:09:00.572 20/01/2026]',-117498.4,-170647.2,-164773,-213098.4,-375000,-375000,-142178.6,-179459.2,0.03,0.02,0.88,-4,0,-2,59,0
'[12:09:00.576 20/01/2026]',-117501.2,-170685,-164799.2,-213041.9,-375000,-375000,-142184.8,-179455.5,0.03,0.00,0.89,-4,0,-2,59,0
'[12:09:00.580 20/01/2026]',-117517.9,-170698.8,-164796.1,-213013,-375000,-375000,-142168.2,-179443,0.03,0.00,0.89,-4,0,-2,59,0
'[12:09:00.584 20/01/2026]',-117517.2,-170672,-164767.2,-213067.5,-375000,-375000,-142176.9,-179460.6,0.03,0.00,0.89,-4,0,-2,59,0
'[12:09:00.588 20/01/2026]',-117487.2,-170643.1,-164755.6,-213092,-375000,-375000,-142171,-179459,0.03,0.00,0.89,-4,0,-2,59,0
'[12:09:00.592 20/01/2026]',-117492.8,-170665,-164775.4,-213039,-375000,-375000,-142164.2,-179446.6,0.03,0.00,0.89,-4,0,-2,59,0
'[12:09:00.596 20/01/2026]',-117505.8,-170679.8,-164795.3,-213000.6,-375000,-375000,-142160,-179445.5,0.03,0.00,0.89,-4,0,-2,59,0
'[12:09:00.600 20/01/2026]',-117480,-170656.9,-164781.8,-213039.5,-375000,-375000,-142159.9,-179447.8,0.03,0.00,0.89,-4,0,-2,59,0
'[12:09:00.604 20/01/2026]',-117457.3,-170622.1,-164758.1,-213078.8,-375000,-375000,-142154.6,-179444.6,0.03,0.00,0.89,-4,0,-2,59,0
'[12:09:00.608 20/01/2026]',-117509.1,-170630.8,-164764.8,-213042.3,-375000,-375000,-142147.4,-179434.1,0.03,0.00,0.89,-4,0,-2,59,0
'[12:09:00.612 20/01/2026]',-117521.8,-170672.4,-164784.3,-212991.2,-375000,-375000,-142159.1,-179441.4,0.02,0.00,0.89,-4,0,-2,59,0
'[12:09:00.616 20/01/2026]',-117500.7,-170661.3,-164779.4,-213020.6,-375000,-375000,-142163.8,-179450.3,0.02,0.00,0.89,-4,0,-2,59,0
'[12:09:00.620 20/01/2026]',-117477.3,-170623,-164745.7,-213066.5,-375000,-375000,-142155.6,-179446.2,0.02,0.00,0.89,-4,0,-2,59,0
'[12:09:00.624 20/01/2026]',-117467.4,-170623.8,-164749.7,-213034.6,-375000,-375000,-142145.6,-179431.8,0.02,0.00,0.89,-4,0,-2,59,0
'[12:09:00.628 20/01/2026]',-117469.2,-170644,-164776.2,-212974.6,-375000,-375000,-142146.6,-179420.8,0.02,0.00,0.89,-4,0,-2,59,0
'[12:09:00.632 20/01/2026]',-117471.4,-170648.4,-164773.7,-213009.4,-375000,-375000,-142162.6,-179444.8,0.02,0.00,0.89,-4,0,-2,59,0
'[12:09:00.636 20/01/2026]',-117470,-170612.7,-164734,-213066.6,-375000,-375000,-142153.1,-179444.1,0.02,0.00,0.89,-4,0,-2,59,0
'[12:09:00.640 20/01/2026]',-117466.4,-170614,-164739.7,-213060.9,-375000,-375000,-142151,-179438.4,0.02,0.00,0.89,-4,0,-2,59,0
'[12:09:00.644 20/01/2026]',-117466.7,-170637.4,-164763.5,-212986.3,-375000,-375000,-142137.2,-179421.6,0.02,0.00,0.89,-4,0,-2,59,0
'[12:09:00.648 20/01/2026]',-117483.2,-170640.7,-164759.3,-212990.8,-375000,-375000,-142134.8,-179421.3,0.03,0.00,0.88,-4,0,-2,59,0
'[12:09:00.652 20/01/2026]',-117475.5,-170613.7,-164732.4,-213043.6,-375000,-375000,-142135.2,-179428.5,0.03,0.00,0.88,-4,0,-2,59,0
'[12:09:00.656 20/01/2026]',-117459.3,-170616.1,-164729.9,-213043.7,-375000,-375000,-142135.2,-179431.1,0.03,0.00,0.88,-4,0,-2,59,0
'[12:09:00.660 20/01/2026]',-117467.3,-170643.5,-164766.9,-212983.9,-375000,-375000,-142134,-179419.7,0.03,0.00,0.88,-4,0,-2,59,0
'[12:09:00.664 20/01/2026]',-117466.8,-170635.3,-164755.9,-212968,-375000,-375000,-142118,-179408.6,0.03,0.00,0.88,-4,0,-2,59,0
'[12:09:00.668 20/01/2026]',-117463.8,-170594.2,-164730.8,-213023.5,-375000,-375000,-142116.9,-179418.8,0.03,0.00,0.88,-4,0,-2,59,0
'[12:09:00.672 20/01/2026]',-117457.5,-170593.3,-164723,-213034.3,-375000,-375000,-142115.8,-179412.5,0.03,0.00,0.88,-4,0,-2,59,0
'[12:09:00.676 20/01/2026]',-117466.7,-170622.2,-164750.6,-212978.1,-375000,-375000,-142130.4,-179416.7,0.03,0.00,0.88,-4,0,-2,59,0
'[12:09:00.680 20/01/2026]',-117476.7,-170637.6,-164766.9,-212964.4,-375000,-375000,-142145.3,-179432,0.03,0.00,0.88,-4,0,-2,59,0
'[12:09:00.684 20/01/2026]',-117456,-170603.3,-164737.9,-213023,-375000,-375000,-142139.1,-179435.5,0.03,0.02,0.88,-4,0,-2,59,0
'[12:09:00.688 20/01/2026]',-117422.3,-170577.3,-164717.9,-213037.5,-375000,-375000,-142120.2,-179418.5,0.03,0.02,0.88,-4,0,-2,59,0
'[12:09:00.692 20/01/2026]',-117421.8,-170604.1,-164736,-212979.4,-375000,-375000,-142122.8,-179411.5,0.03,0.02,0.88,-4,0,-2,59,0
'[12:09:00.696 20/01/2026]',-117475.2,-170640.5,-164755.5,-212943,-375000,-375000,-142135.7,-179415.5,0.03,0.02,0.88,-4,0,-2,59,0
'[12:09:00.700 20/01/2026]',-117461.6,-170613.1,-164732.1,-212982,-375000,-375000,-142136.5,-179425,0.03,0.02,0.88,-4,0,-2,59,0
'[12:09:00.704 20/01/2026]',-117446.7,-170569.9,-164706.5,-213016.3,-375000,-375000,-142126.3,-179420.4,0.03,0.02,0.88,-4,0,-2,59,0
'[12:09:00.708 20/01/2026]',-117461.5,-170593.9,-164734,-212993.8,-375000,-375000,-142128.8,-179421.5,0.03,0.02,0.88,-4,0,-2,59,0
'[12:09:00.712 20/01/2026]',-117467.6,-170632.5,-164751,-212946.2,-375000,-375000,-142122.4,-179414.5,0.03,0.02,0.88,-4,0,-2,59,0
'[12:09:00.716 20/01/2026]',-117437.8,-170604.1,-164725.9,-212965.8,-375000,-375000,-142114.1,-179410.4,0.03,0.02,0.88,-4,0,-2,59,0
'[12:09:00.720 20/01/2026]',-117421.6,-170559,-164701.2,-213008.4,-375000,-375000,-142103,-179402.7,0.03,0.00,0.89,-4,0,-2,59,0
'[12:09:00.724 20/01/2026]',-117437.7,-170562.8,-164713.9,-212972.4,-375000,-375000,-142098.6,-179391.3,0.03,0.00,0.89,-4,0,-2,59,0
'[12:09:00.728 20/01/2026]',-117449.9,-170587.8,-164737,-212920.5,-375000,-375000,-142103.8,-179389.9,0.03,0.00,0.89,-4,0,-2,59,0
'[12:09:00.732 20/01/2026]',-117430.6,-170561,-164725.8,-212939.1,-375000,-375000,-142106,-179396.8,0.03,0.00,0.89,-4,0,-2,59,0
'[12:09:00.736 20/01/2026]',-117409,-170554.6,-164700.1,-213005.1,-375000,-375000,-142106.8,-179405.1,0.03,0.00,0.89,-4,0,-2,59,0
'[12:09:00.740 20/01/2026]',-117415.3,-170570.1,-164705.5,-212993.6,-375000,-375000,-142107.6,-179405.6,0.03,0.00,0.89,-4,0,-2,59,0
'[12:09:00.744 20/01/2026]',-117454.3,-170597.7,-164741,-212928.8,-375000,-375000,-142100.4,-179387,0.03,0.00,0.89,-4,0,-2,59,0
'[12:09:00.748 20/01/2026]',-117448.4,-170585.2,-164731.8,-212927.5,-375000,-375000,-142095.7,-179384.5,0.03,0.00,0.89,-4,0,-2,59,0
'[12:09:00.752 20/01/2026]',-117411.7,-170558.2,-164705.9,-212981.6,-375000,-375000,-142107.1,-179396.3,0.03,0.00,0.89,-4,0,-2,59,0
'[12:09:00.756 20/01/2026]',-117427.9,-170557.1,-164700.1,-212980.6,-375000,-375000,-142107.1,-179394.9,0.03,0.02,0.88,-4,0,-2,59,0
'[12:09:00.760 20/01/2026]',-117447.5,-170596.3,-164721,-212930.4,-375000,-375000,-142112.4,-179398.3,0.03,0.02,0.88,-4,0,-2,59,0
'[12:09:00.764 20/01/2026]',-117446.3,-170590.5,-164724.5,-212919.1,-375000,-375000,-142110.1,-179394.2,0.03,0.02,0.88,-4,0,-2,59,0
'[12:09:00.768 20/01/2026]',-117413.3,-170548.8,-164697.3,-212965.8,-375000,-375000,-142103.7,-179397.7,0.03,0.02,0.88,-4,0,-2,59,0
'[12:09:00.772 20/01/2026]',-117382.8,-170525.5,-164688.6,-212972.4,-375000,-375000,-142093.1,-179388.5,0.03,0.02,0.88,-4,0,-2,59,0
'[12:09:00.776 20/01/2026]',-117392.8,-170565.1,-164722.6,-212908.7,-375000,-375000,-142093.8,-179378.5,0.03,0.02,0.88,-4,0,-2,59,0
'[12:09:00.780 20/01/2026]',-117419.8,-170579.2,-164723.5,-212891.7,-375000,-375000,-142087,-179374.7,0.03,0.02,0.88,-4,0,-2,59,0
'[12:09:00.784 20/01/2026]',-117431.9,-170550.2,-164689.2,-212937.2,-375000,-375000,-142086.3,-179382,0.03,0.02,0.88,-4,0,-2,59,0
'[12:09:00.788 20/01/2026]',-117411.5,-170531.3,-164676.7,-212972.5,-375000,-375000,-142088.4,-179390.3,0.03,0.02,0.88,-4,0,-2,59,0
'[12:09:00.792 20/01/2026]',-117419,-170562.5,-164703.9,-212933.4,-375000,-375000,-142088.8,-179380.5,0.02,0.00,0.88,-4,0,-2,59,0
'[12:09:00.796 20/01/2026]',-117429.7,-170576,-164713.3,-212884.6,-375000,-375000,-142087.2,-179377.2,0.02,0.00,0.88,-4,0,-2,59,0
'[12:09:00.800 20/01/2026]',-117429.2,-170564.4,-164702.6,-212938.7,-375000,-375000,-142110,-179406.8,0.02,0.00,0.88,-4,0,-2,59,0
'[12:09:00.804 20/01/2026]',-117409.6,-170540.1,-164670.3,-212981.2,-375000,-375000,-142099.6,-179406.6,0.02,0.00,0.88,-4,0,-2,59,0
'[12:09:00.808 20/01/2026]',-117405.6,-170538.8,-164687.9,-212916.2,-375000,-375000,-142072.7,-179370.4,0.02,0.00,0.88,-4,0,-2,59,0
'[12:09:00.812 20/01/2026]',-117419.2,-170551.3,-164717.9,-212868.2,-375000,-375000,-142076.7,-179367.2,0.02,0.00,0.88,-4,0,-2,59,0
'[12:09:00.816 20/01/2026]',-117419.2,-170548.7,-164707.4,-212909,-375000,-375000,-142087.6,-179384.6,0.02,0.00,0.88,-4,0,-2,59,0
'[12:09:00.820 20/01/2026]',-117395,-170536.7,-164682,-212946.8,-375000,-375000,-142090.9,-179394.3,0.02,0.00,0.88,-4,0,-2,59,0
'[12:09:00.824 20/01/2026]',-117415.5,-170545.3,-164698.9,-212915.7,-375000,-375000,-142077.4,-179379.1,0.02,0.00,0.88,-4,0,-2,59,0
'[12:09:00.828 20/01/2026]',-117435.1,-170575.2,-164716.3,-212856.9,-375000,-375000,-142073.8,-179369.5,0.03,-0.02,0.89,-4,0,-2,59,0
'[12:09:00.832 20/01/2026]',-117403.2,-170564.4,-164712.7,-212881.7,-375000,-375000,-142087.8,-179388.4,0.03,-0.02,0.89,-4,0,-2,59,0
'[12:09:00.836 20/01/2026]',-117404.9,-170531.1,-164678,-212939.1,-375000,-375000,-142083.4,-179394.6,0.03,-0.02,0.89,-4,0,-2,59,0
'[12:09:00.840 20/01/2026]',-117388.4,-170524.6,-164676.7,-212915.3,-375000,-375000,-142071.1,-179371,0.03,-0.02,0.89,-4,0,-2,59,0
'[12:09:00.844 20/01/2026]',-117410.1,-170545.2,-164700.8,-212847.8,-375000,-375000,-142065.5,-179356.1,0.03,-0.02,0.89,-4,0,-2,59,0
'[12:09:00.848 20/01/2026]',-117423.7,-170534.6,-164691.3,-212853.3,-375000,-375000,-142060.2,-179357.5,0.03,-0.02,0.89,-4,0,-2,59,0
'[12:09:00.852 20/01/2026]',-117401.6,-170518.4,-164659,-212918.5,-375000,-375000,-142064.6,-179372.9,0.03,-0.02,0.89,-4,0,-2,59,0
'[12:09:00.856 20/01/2026]',-117387.4,-170519.1,-164657.2,-212920.6,-375000,-375000,-142058.4,-179365.6,0.03,-0.02,0.89,-4,0,-2,59,0
'[12:09:00.860 20/01/2026]',-117407.7,-170545.2,-164690.6,-212857,-375000,-375000,-142060.5,-179358.9,0.03,-0.02,0.89,-4,0,-2,59,0
'[12:09:00.864 20/01/2026]',-117390.1,-170537.9,-164691.9,-212839.7,-375000,-375000,-142062,-179360.3,0.03,0.00,0.89,-4,0,-2,59,0
'[12:09:00.868 20/01/2026]',-117386.6,-170504.2,-164667.1,-212900.3,-375000,-375000,-142074.4,-179378.4,0.03,0.00,0.89,-4,0,-2,59,0
'[12:09:00.872 20/01/2026]',-117391.6,-170501.3,-164669.9,-212924.4,-375000,-375000,-142076.8,-179379.8,0.03,0.00,0.89,-4,0,-2,59,0
'[12:09:00.876 20/01/2026]',-117396.2,-170530.9,-164703.7,-212866.1,-375000,-375000,-142079.5,-179372,0.03,0.00,0.89,-4,0,-2,59,0
'[12:09:00.880 20/01/2026]',-117383.4,-170543.2,-164714.5,-212852,-375000,-375000,-142090.8,-179381.3,0.03,0.00,0.89,-4,0,-2,59,0
'[12:09:00.884 20/01/2026]',-117384.7,-170511.5,-164674.4,-212896.6,-375000,-375000,-142079.8,-179380,0.03,0.00,0.89,-4,0,-2,59,0
'[12:09:00.888 20/01/2026]',-117368.5,-170473,-164645.6,-212922.1,-375000,-375000,-142049.9,-179360.5,0.03,0.00,0.89,-4,0,-2,59,0
'[12:09:00.892 20/01/2026]',-117381.9,-170498.6,-164681.1,-212880.2,-375000,-375000,-142054.4,-179355.1,0.03,0.00,0.89,-4,0,-2,59,0
'[12:09:00.896 20/01/2026]',-117416.1,-170533.2,-164689.5,-212831,-375000,-375000,-142057.6,-179347.1,0.03,0.00,0.89,-4,0,-2,59,0
'[12:09:00.900 20/01/2026]',-117404.1,-170510,-164674.3,-212863.2,-375000,-375000,-142070.1,-179358.5,0.03,-0.02,0.86,-4,0,-2,59,0
'[12:09:00.904 20/01/2026]',-117381.3,-170475,-164660.1,-212907.3,-375000,-375000,-142075.2,-179367.9,0.03,-0.02,0.86,-4,0,-2,59,0
'[12:09:00.908 20/01/2026]',-117391.7,-170504.8,-164680,-212870.4,-375000,-375000,-142093.8,-179375.5,0.03,-0.02,0.86,-4,0,-2,59,0
'[12:09:00.912 20/01/2026]',-117389.8,-170526.2,-164703.4,-212819.7,-375000,-375000,-142080.9,-179358.2,0.03,-0.02,0.86,-4,0,-2,59,0
'[12:09:00.916 20/01/2026]',-117380.2,-170497.7,-164678,-212851.7,-375000,-375000,-142063.4,-179349.5,0.03,-0.02,0.86,-4,0,-2,59,0
'[12:09:00.920 20/01/2026]',-117364.4,-170470.3,-164645.7,-212905.1,-375000,-375000,-142065.6,-179364.3,0.03,-0.02,0.86,-4,0,-2,59,0
'[12:09:00.924 20/01/2026]',-117352.7,-170477,-164651.4,-212877.7,-375000,-375000,-142075.5,-179370.5,0.03,-0.02,0.86,-4,0,-2,59,0
'[12:09:00.928 20/01/2026]',-117380.4,-170491.1,-164679.3,-212819.7,-375000,-375000,-142077.5,-179362.9,0.03,-0.02,0.86,-4,0,-2,59,0
'[12:09:00.932 20/01/2026]',-117384,-170496,-164669.1,-212834.8,-375000,-375000,-142070.5,-179357,0.03,-0.02,0.86,-4,0,-2,59,0
'[12:09:00.936 20/01/2026]',-117366.6,-170473.7,-164643.8,-212888.4,-375000,-375000,-142064.1,-179357.8,0.02,0.00,0.88,-4,0,-2,59,0
'[12:09:00.940 20/01/2026]',-117366.4,-170469.2,-164637.4,-212863.7,-375000,-375000,-142056.3,-179351.3,0.02,0.00,0.88,-4,0,-2,59,0
'[12:09:00.944 20/01/2026]',-117375.2,-170493.5,-164671.9,-212809.6,-375000,-375000,-142061.8,-179346.7,0.02,0.00,0.88,-4,0,-2,59,0
'[12:09:00.948 20/01/2026]',-117375.5,-170499.3,-164683,-212824.1,-375000,-375000,-142074.2,-179361.1,0.02,0.00,0.88,-4,0,-2,59,0
'[12:09:00.952 20/01/2026]',-117361.1,-170453.7,-164648.8,-212876.9,-375000,-375000,-142067.8,-179360.3,0.02,0.00,0.88,-4,0,-2,59,0
'[12:09:00.956 20/01/2026]',-117361.6,-170455.9,-164638.3,-212878.1,-375000,-375000,-142054.9,-179353.1,0.02,0.00,0.88,-4,0,-2,59,0
'[12:09:00.960 20/01/2026]',-117381.3,-170495.5,-164673.3,-212833,-375000,-375000,-142066.6,-179361,0.02,0.00,0.88,-4,0,-2,59,0
'[12:09:00.964 20/01/2026]',-117389.2,-170499.7,-164685.3,-212825.8,-375000,-375000,-142072.7,-179367.3,0.02,0.00,0.88,-4,0,-2,59,0
'[12:09:00.968 20/01/2026]',-117365.4,-170469.2,-164654.2,-212871.2,-375000,-375000,-142069.5,-179364.3,0.02,0.00,0.88,-4,0,-2,59,0
'[12:09:00.972 20/01/2026]',-117354.7,-170464.4,-164658.2,-212892.2,-375000,-375000,-142068.4,-179363.9,0.02,0.02,0.88,-4,0,-2,59,0
'[12:09:00.976 20/01/2026]',-117378.5,-170506,-164677.3,-212842.1,-375000,-375000,-142075.9,-179360.1,0.02,0.02,0.88,-4,0,-2,59,0
'[12:09:00.980 20/01/2026]',-117389.3,-170514.4,-164685.1,-212827.6,-375000,-375000,-142068.1,-179357,0.02,0.02,0.88,-4,0,-2,59,0
'[12:09:00.984 20/01/2026]',-117378.1,-170474.8,-164649.6,-212874.3,-375000,-375000,-142072.3,-179363.4,0.02,0.02,0.88,-4,0,-2,59,0
'[12:09:00.988 20/01/2026]',-117364.3,-170458.9,-164645.5,-212901.2,-375000,-375000,-142075.4,-179367.2,0.02,0.02,0.88,-4,0,-2,59,0
'[12:09:00.992 20/01/2026]',-117384.5,-170504.1,-164674.7,-212866,-375000,-375000,-142081.2,-179369.4,0.02,0.02,0.88,-4,0,-2,59,0
'[12:09:00.996 20/01/2026]',-117394,-170524.8,-164684.2,-212817.7,-375000,-375000,-142070.9,-179350.3,0.02,0.02,0.88,-4,0,-2,59,0
'[12:09:01.000 20/01/2026]',-117373.1,-170485.6,-164667.8,-212855.9,-375000,-375000,-142072.1,-179355.8,0.02,0.02,0.88,-4,0,-2,59,0
'[12:09:01.004 20/01/2026]',-117349.3,-170455.2,-164639.5,-212882.3,-375000,-375000,-142051.8,-179344,0.02,0.02,0.88,-4,0,-2,59,0
'[12:09:01.008 20/01/2026]',-117356.7,-170468.3,-164645.8,-212832.6,-375000,-375000,-142047.8,-179334.3,0.02,0.00,0.89,-4,0,-2,59,0
'[12:09:01.012 20/01/2026]',-117376.1,-170502,-164668,-212789.9,-375000,-375000,-142062.9,-179341.9,0.02,0.00,0.89,-4,0,-2,59,0
'[12:09:01.016 20/01/2026]',-117350.1,-170488.8,-164652.3,-212829.6,-375000,-375000,-142073.8,-179357.8,0.02,0.00,0.89,-4,0,-2,59,0
'[12:09:01.020 20/01/2026]',-117323,-170445.5,-164631.2,-212875.3,-375000,-375000,-142061.5,-179354.2,0.02,0.00,0.89,-4,0,-2,59,0
'[12:09:01.024 20/01/2026]',-117355.7,-170450,-164649,-212840.3,-375000,-375000,-142057.5,-179343.5,0.02,0.00,0.89,-4,0,-2,59,0
'[12:09:01.028 20/01/2026]',-117383.6,-170488.9,-164679.2,-212787.7,-375000,-375000,-142061.1,-179338.5,0.02,0.00,0.89,-4,0,-2,59,0
'[12:09:01.032 20/01/2026]',-117378.4,-170474.3,-164661.6,-212809.5,-375000,-375000,-142050.9,-179332.1,0.02,0.00,0.89,-4,0,-2,59,0
'[12:09:01.036 20/01/2026]',-117346.2,-170441.5,-164629.7,-212862.9,-375000,-375000,-142050.7,-179339.1,0.02,0.00,0.89,-4,0,-2,59,0
'[12:09:01.040 20/01/2026]',-117343.8,-170452.1,-164646.5,-212854.4,-375000,-375000,-142056.9,-179346.5,0.02,0.00,0.89,-4,0,-2,59,0
'[12:09:01.044 20/01/2026]',-117364.4,-170486.9,-164670.3,-212788.7,-375000,-375000,-142060.8,-179342.7,0.02,0.00,0.89,-4,0,-2,59,0
'[12:09:01.048 20/01/2026]',-117372.7,-170489.7,-164670.8,-212794.5,-375000,-375000,-142071.9,-179354.3,0.02,0.00,0.89,-4,0,-2,59,0
'[12:09:01.052 20/01/2026]',-117370.5,-170468.8,-164649.8,-212869.8,-375000,-375000,-142084.2,-179376.6,0.02,0.00,0.89,-4,0,-2,59,0
'[12:09:01.056 20/01/2026]',-117353,-170452.8,-164644,-212858.9,-375000,-375000,-142057.7,-179348.9,0.02,0.00,0.89,-4,0,-2,59,0
'[12:09:01.060 20/01/2026]',-117366.6,-170479.6,-164660.4,-212793.7,-375000,-375000,-142056.2,-179333.9,0.02,0.00,0.89,-4,0,-2,59,0
'[12:09:01.064 20/01/2026]',-117369.5,-170484.6,-164671.2,-212784.6,-375000,-375000,-142060.8,-179332.5,0.02,0.00,0.89,-4,0,-2,59,0
'[12:09:01.068 20/01/2026]',-117330.4,-170452.5,-164640.9,-212840.6,-375000,-375000,-142057,-179339.7,0.02,0.00,0.89,-4,0,-2,59,0
'[12:09:01.072 20/01/2026]',-117337.5,-170435.8,-164630.9,-212855,-375000,-375000,-142049.5,-179334.9,0.02,0.00,0.89,-4,0,-2,59,0
'[12:09:01.076 20/01/2026]',-117377.5,-170459.8,-164655.1,-212796.7,-375000,-375000,-142058,-179331.8,0.02,0.00,0.89,-4,0,-2,59,0
'[12:09:01.080 20/01/2026]',-117375.9,-170476,-164666,-212765.3,-375000,-375000,-142055.3,-179324.3,0.03,0.00,0.89,-4,0,-2,59,0
'[12:09:01.084 20/01/2026]',-117344,-170463.5,-164645,-212827,-375000,-375000,-142051.5,-179338,0.03,0.00,0.89,-4,0,-2,59,0
'[12:09:01.088 20/01/2026]',-117339.3,-170444,-164629.4,-212860.3,-375000,-375000,-142047.4,-179341,0.03,0.00,0.89,-4,0,-2,59,0
'[12:09:01.092 20/01/2026]',-117365.6,-170465.5,-164652.3,-212822.6,-375000,-375000,-142056.1,-179343.3,0.03,0.00,0.89,-4,0,-2,59,0
'[12:09:01.096 20/01/2026]',-117374.5,-170484.4,-164665.4,-212778.6,-375000,-375000,-142054.8,-179338,0.03,0.00,0.89,-4,0,-2,59,0
'[12:09:01.100 20/01/2026]',-117352.9,-170453.6,-164635.5,-212802.2,-375000,-375000,-142048.3,-179335.6,0.03,0.00,0.89,-4,0,-2,59,0
'[12:09:01.104 20/01/2026]',-117333.3,-170426.2,-164604.4,-212832.9,-375000,-375000,-142037.3,-179328.8,0.03,0.00,0.89,-4,0,-2,59,0
'[12:09:01.108 20/01/2026]',-117352.2,-170443.2,-164629.8,-212807,-375000,-375000,-142046.1,-179331.9,0.03,0.00,0.89,-4,0,-2,59,0
'[12:09:01.112 20/01/2026]',-117378.6,-170474.2,-164661.9,-212761.9,-375000,-375000,-142052.7,-179335.3,0.03,0.00,0.89,-4,0,-2,59,0
'[12:09:01.116 20/01/2026]',-117339.1,-170463.1,-164644.5,-212796.9,-375000,-375000,-142049.4,-179339.6,0.02,0.00,0.88,-4,0,-2,59,0
'[12:09:01.120 20/01/2026]',-117319.5,-170430.8,-164617.1,-212844.7,-375000,-375000,-142048.3,-179342.8,0.02,0.00,0.88,-4,0,-2,59,0
'[12:09:01.124 20/01/2026]',-117356.4,-170434.5,-164629.6,-212810.2,-375000,-375000,-142048.3,-179339.5,0.02,0.00,0.88,-4,0,-2,59,0
'[12:09:01.128 20/01/2026]',-117354.2,-170456.1,-164656.6,-212755.3,-375000,-375000,-142036.1,-179322.9,0.02,0.00,0.88,-4,0,-2,59,0
'[12:09:01.132 20/01/2026]',-117358.4,-170446,-164639,-212768.6,-375000,-375000,-142035.4,-179322.4,0.02,0.00,0.88,-4,0,-2,59,0
'[12:09:01.136 20/01/2026]',-117352,-170416.1,-164608.5,-212828.7,-375000,-375000,-142036.6,-179334.2,0.02,0.00,0.88,-4,0,-2,59,0
'[12:09:01.140 20/01/2026]',-117346.3,-170429.5,-164617.1,-212816.9,-375000,-375000,-142028.3,-179318.9,0.02,0.00,0.88,-4,0,-2,59,0
'[12:09:01.144 20/01/2026]',-117356,-170461.5,-164655.3,-212758.3,-375000,-375000,-142038,-179316.8,0.02,0.00,0.88,-4,0,-2,59,0
'[12:09:01.148 20/01/2026]',-117352.6,-170456.5,-164651.5,-212769.5,-375000,-375000,-142045.8,-179330.3,0.02,0.00,0.88,-4,0,-2,59,0
'[12:09:01.152 20/01/2026]',-117319.9,-170413.2,-164612.7,-212817,-375000,-375000,-142033.2,-179321.3,0.03,0.02,0.88,-4,0,-2,59,0
'[12:09:01.156 20/01/2026]',-117327.1,-170412.5,-164621.7,-212826.7,-375000,-375000,-142040.8,-179328.8,0.03,0.02,0.88,-4,0,-2,59,0
'[12:09:01.160 20/01/2026]',-117369.2,-170445.9,-164649.5,-212764.3,-375000,-375000,-142041,-179322.1,0.03,0.02,0.88,-4,0,-2,59,0
'[12:09:01.164 20/01/2026]',-117345.9,-170452.3,-164656.6,-212753.6,-375000,-375000,-142031.2,-179313.7,0.03,0.02,0.88,-4,0,-2,59,0
'[12:09:01.168 20/01/2026]',-117327.7,-170423.1,-164626.9,-212815.5,-375000,-375000,-142041.4,-179330,0.03,0.02,0.88,-4,0,-2,59,0
'[12:09:01.172 20/01/2026]',-117334,-170400.7,-164627.5,-212841.3,-375000,-375000,-142043.2,-179336.7,0.03,0.02,0.88,-4,0,-2,59,0
'[12:09:01.176 20/01/2026]',-117356.1,-170429.5,-164655.7,-212792.8,-375000,-375000,-142046.1,-179332.8,0.03,0.02,0.88,-4,0,-2,59,0
'[12:09:01.180 20/01/2026]',-117360.3,-170454.3,-164653.3,-212748,-375000,-375000,-142041,-179321.6,0.03,0.02,0.88,-4,0,-2,59,0
'[12:09:01.184 20/01/2026]',-117330.2,-170435.4,-164627.8,-212803,-375000,-375000,-142040.2,-179326.9,0.03,0.02,0.88,-4,0,-2,59,0
'[12:09:01.188 20/01/2026]',-117313.7,-170408.1,-164615.7,-212837.2,-375000,-375000,-142035.3,-179329.3,0.02,0.00,0.89,-4,0,-2,59,0
'[12:09:01.192 20/01/2026]',-117343.5,-170439.1,-164641.5,-212787.9,-375000,-375000,-142044.3,-179329.7,0.02,0.00,0.89,-4,0,-2,59,0
'[12:09:01.196 20/01/2026]',-117349.8,-170455.9,-164659.1,-212739.6,-375000,-375000,-142042.1,-179324.4,0.02,0.00,0.89,-4,0,-2,59,0
'[12:09:01.200 20/01/2026]',-117341.6,-170424.3,-164630.3,-212780.9,-375000,-375000,-142036.3,-179327.6,0.02,0.00,0.89,-4,0,-2,59,0
'[12:09:01.204 20/01/2026]',-117325.7,-170382.7,-164602.1,-212814.5,-375000,-375000,-142024.8,-179318.2,0.02,0.00,0.89,-4,0,-2,59,0
'[12:09:01.208 20/01/2026]',-117337,-170407.9,-164627.4,-212779,-375000,-375000,-142030.4,-179311.5,0.02,0.00,0.89,-4,0,-2,59,0
'[12:09:01.212 20/01/2026]',-117345,-170438.6,-164648.4,-212735.5,-375000,-375000,-142031.8,-179306.5,0.02,0.00,0.89,-4,0,-2,59,0
'[12:09:01.216 20/01/2026]',-117304.5,-170410.7,-164637.1,-212775,-375000,-375000,-142050.3,-179327,0.02,0.00,0.89,-4,0,-2,59,0
'[12:09:01.220 20/01/2026]',-117295.2,-170389.8,-164615.5,-212821.4,-375000,-375000,-142044.8,-179333.9,0.02,0.00,0.89,-4,0,-2,59,0
'[12:09:01.224 20/01/2026]',-117333.6,-170401.7,-164621.6,-212782.7,-375000,-375000,-142023.8,-179312.3,0.03,0.00,0.86,-4,0,-2,59,0
'[12:09:01.228 20/01/2026]',-117356.5,-170425.7,-164635,-212729.8,-375000,-375000,-142024.3,-179309,0.03,0.00,0.86,-4,0,-2,59,0
'[12:09:01.232 20/01/2026]',-117328.3,-170420.6,-164626.3,-212754.8,-375000,-375000,-142037.9,-179323.6,0.03,0.00,0.86,-4,0,-2,59,0
'[12:09:01.236 20/01/2026]',-117305.1,-170394.9,-164602.6,-212809.7,-375000,-375000,-142039.7,-179329.6,0.03,0.00,0.86,-4,0,-2,59,0
'[12:09:01.240 20/01/2026]',-117306.2,-170395,-164600.7,-212786.7,-375000,-375000,-142026.2,-179311.1,0.03,0.00,0.86,-4,0,-2,59,0
'[12:09:01.244 20/01/2026]',-117332.5,-170422.5,-164639.4,-212727.5,-375000,-375000,-142028.5,-179305.4,0.03,0.00,0.86,-4,0,-2,59,0
'[12:09:01.248 20/01/2026]',-117324.8,-170416.3,-164628.6,-212730.3,-375000,-375000,-142025.6,-179303.1,0.03,0.00,0.86,-4,0,-2,59,0
'[12:09:01.252 20/01/2026]',-117304.5,-170370.8,-164591.1,-212786.1,-375000,-375000,-142019.3,-179307.6,0.03,0.00,0.86,-4,0,-2,59,0
'[12:09:01.256 20/01/2026]',-117312.4,-170373.7,-164590.6,-212786.9,-375000,-375000,-142016,-179304.8,0.03,0.00,0.86,-4,0,-2,59,0
'[12:09:01.260 20/01/2026]',-117332.4,-170405,-164628.2,-212734.9,-375000,-375000,-142032,-179316.1,0.03,0.00,0.88,-4,0,-2,59,0
'[12:09:01.264 20/01/2026]',-117289.7,-170408.9,-164633.7,-212722.6,-375000,-375000,-142021.5,-179304.4,0.03,0.00,0.88,-4,0,-2,59,0
'[12:09:01.268 20/01/2026]',-117289.8,-170378.5,-164600.2,-212772.2,-375000,-375000,-142020.7,-179306.5,0.03,0.00,0.88,-4,0,-2,59,0
'[12:09:01.272 20/01/2026]',-117314.6,-170381.6,-164588.4,-212795.6,-375000,-375000,-142027.8,-179317.4,0.03,0.00,0.88,-4,0,-2,59,0
'[12:09:01.276 20/01/2026]',-117337.4,-170409.7,-164616.2,-212745.1,-375000,-375000,-142028.5,-179309.6,0.03,0.00,0.88,-4,0,-2,59,0
'[12:09:01.280 20/01/2026]',-117333.1,-170420.8,-164619,-212706,-375000,-375000,-142014.8,-179296.1,0.03,0.00,0.88,-4,0,-2,59,0
'[12:09:01.284 20/01/2026]',-117298.2,-170389.4,-164589.1,-212768.3,-375000,-375000,-142025.5,-179319.3,0.03,0.00,0.88,-4,0,-2,59,0
'[12:09:01.288 20/01/2026]',-117271.4,-170362,-164566.9,-212800.4,-375000,-375000,-142019,-179314,0.03,0.00,0.88,-4,0,-2,59,0
'[12:09:01.292 20/01/2026]',-117307.5,-170380.2,-164596.5,-212740.5,-375000,-375000,-142009.8,-179292.8,0.03,0.00,0.88,-4,0,-2,59,0
'[12:09:01.296 20/01/2026]',-117317.6,-170390,-164618,-212703.6,-375000,-375000,-142012,-179292.3,0.03,0.00,0.88,-4,0,-2,59,0
'[12:09:01.300 20/01/2026]',-117321.8,-170374.8,-164610.6,-212763.1,-375000,-375000,-142039.4,-179326.8,0.03,0.00,0.88,-4,0,-2,59,0
'[12:09:01.304 20/01/2026]',-117308.3,-170366.4,-164592.4,-212792,-375000,-375000,-142022.7,-179311.2,0.03,0.00,0.88,-4,0,-2,59,0
'[12:09:01.308 20/01/2026]',-117304.4,-170389.7,-164612,-212744.2,-375000,-375000,-142012.2,-179295.5,0.03,0.00,0.88,-4,0,-2,59,0
'[12:09:01.312 20/01/2026]',-117301.2,-170408.8,-164627.7,-212697.7,-375000,-375000,-142017.1,-179291.1,0.03,0.00,0.88,-4,0,-2,59,0
'[12:09:01.316 20/01/2026]',-117301.2,-170397.1,-164607.5,-212743.5,-375000,-375000,-142032.2,-179316,0.03,0.00,0.88,-4,0,-2,59,0
'[12:09:01.320 20/01/2026]',-117294.1,-170362.8,-164577.8,-212792.2,-375000,-375000,-142022.3,-179317.2,0.03,0.00,0.88,-4,0,-2,59,0
'[12:09:01.324 20/01/2026]',-117297,-170376.5,-164601.5,-212758.4,-375000,-375000,-142016.3,-179302.5,0.03,0.00,0.88,-4,0,-2,59,0
'[12:09:01.328 20/01/2026]',-117324.7,-170406.3,-164625.7,-212716,-375000,-375000,-142021.6,-179297,0.03,0.00,0.88,-4,0,-2,59,0
'[12:09:01.332 20/01/2026]',-117313.5,-170396.2,-164618.2,-212738.1,-375000,-375000,-142030.6,-179309.4,0.03,0.00,0.89,-4,0,-2,59,0
'[12:09:01.336 20/01/2026]',-117297.6,-170365.5,-164590.5,-212792.6,-375000,-375000,-142034.8,-179325,0.03,0.00,0.89,-4,0,-2,59,0
'[12:09:01.340 20/01/2026]',-117308.3,-170369.7,-164596.9,-212780.4,-375000,-375000,-142033,-179328.1,0.03,0.00,0.89,-4,0,-2,59,0
'[12:09:01.344 20/01/2026]',-117330.3,-170403.6,-164623.8,-212718.6,-375000,-375000,-142024.5,-179313.8,0.03,0.00,0.89,-4,0,-2,59,0
'[12:09:01.348 20/01/2026]',-117314.4,-170399.8,-164607.4,-212710.6,-375000,-375000,-142005.6,-179294.8,0.03,0.00,0.89,-4,0,-2,59,0
'[12:09:01.352 20/01/2026]',-117272.3,-170356,-164579.7,-212764.1,-375000,-375000,-142005.7,-179296.7,0.03,0.00,0.89,-4,0,-2,59,0
'[12:09:01.356 20/01/2026]',-117290.8,-170360.3,-164588.5,-212773.6,-375000,-375000,-142007.5,-179299.1,0.03,0.00,0.89,-4,0,-2,59,0
'[12:09:01.360 20/01/2026]',-117311.6,-170391.4,-164615.1,-212715,-375000,-375000,-142005.2,-179287.1,0.03,0.00,0.89,-4,0,-2,59,0
'[12:09:01.364 20/01/2026]',-117296.6,-170388.8,-164614.3,-212703,-375000,-375000,-142004.4,-179288.3,0.03,0.00,0.89,-4,0,-2,59,0
'[12:09:01.368 20/01/2026]',-117279,-170361,-164594,-212774.4,-375000,-375000,-142018,-179310,0.03,0.00,0.88,-4,0,-2,59,0
'[12:09:01.372 20/01/2026]',-117300.7,-170363.3,-164591.4,-212798.3,-375000,-375000,-142014.6,-179311.5,0.03,0.00,0.88,-4,0,-2,59,0
'[12:09:01.376 20/01/2026]',-117328.8,-170403.5,-164622,-212746.3,-375000,-375000,-142021,-179313.9,0.03,0.00,0.88,-4,0,-2,59,0
'[12:09:01.380 20/01/2026]',-117321.6,-170404.4,-164624.7,-212712.4,-375000,-375000,-142018.3,-179305.1,0.03,0.00,0.88,-4,0,-2,59,0
'[12:09:01.384 20/01/2026]',-117269.2,-170354.5,-164594.6,-212760.5,-375000,-375000,-142005.4,-179300.2,0.03,0.00,0.88,-4,0,-2,59,0
'[12:09:01.388 20/01/2026]',-117272.5,-170338.7,-164580.5,-212786.5,-375000,-375000,-141997.8,-179298.4,0.03,0.00,0.88,-4,0,-2,59,0
'[12:09:01.392 20/01/2026]',-117308,-170378.5,-164604.5,-212723.8,-375000,-375000,-142003,-179288.7,0.03,0.00,0.88,-4,0,-2,59,0
'[12:09:01.396 20/01/2026]',-117320.2,-170401.3,-164621.1,-212689.7,-375000,-375000,-142008,-179289.8,0.03,0.00,0.88,-4,0,-2,59,0
'[12:09:01.400 20/01/2026]',-117298.8,-170372.6,-164597.6,-212737.5,-375000,-375000,-142009.7,-179300.1,0.03,0.00,0.88,-4,0,-2,59,0
'[12:09:01.404 20/01/2026]',-117272.6,-170335,-164565.5,-212762.2,-375000,-375000,-141990.6,-179277.3,0.02,0.00,0.88,-4,0,-2,59,0
'[12:09:01.408 20/01/2026]',-117287.4,-170351.3,-164594.7,-212722.6,-375000,-375000,-141992.1,-179273.4,0.02,0.00,0.88,-4,0,-2,59,0
'[12:09:01.412 20/01/2026]',-117283.1,-170391.7,-164626.6,-212684.6,-375000,-375000,-142005.6,-179280.6,0.02,0.00,0.88,-4,0,-2,59,0
'[12:09:01.416 20/01/2026]',-117301.5,-170380.2,-164614.4,-212722.6,-375000,-375000,-142019.7,-179299.5,0.02,0.00,0.88,-4,0,-2,59,0
'[12:09:01.420 20/01/2026]',-117293.8,-170350.1,-164588.7,-212778,-375000,-375000,-142017.7,-179308.6,0.02,0.00,0.88,-4,0,-2,59,0
'[12:09:01.424 20/01/2026]',-117293.3,-170353.7,-164594,-212747.8,-375000,-375000,-142008,-179295.9,0.02,0.00,0.88,-4,0,-2,59,0
'[12:09:01.428 20/01/2026]',-117296.7,-170368.2,-164618.7,-212691.5,-375000,-375000,-142003.6,-179283.1,0.02,0.00,0.88,-4,0,-2,59,0
'[12:09:01.432 20/01/2026]',-117298.7,-170378.1,-164615.8,-212713.9,-375000,-375000,-141997.5,-179285.1,0.02,0.00,0.88,-4,0,-2,59,0
'[12:09:01.436 20/01/2026]',-117283.7,-170340.7,-164583.2,-212763.4,-375000,-375000,-141991.4,-179288.2,0.02,0.00,0.88,-4,0,-2,59,0
'[12:09:01.440 20/01/2026]',-117282.9,-170346.5,-164588.1,-212743.3,-375000,-375000,-141996.7,-179289.7,0.03,0.00,0.88,-4,0,-2,59,0
'[12:09:01.444 20/01/2026]',-117307.9,-170381,-164619.3,-212689.7,-375000,-375000,-142011.2,-179301.1,0.03,0.00,0.88,-4,0,-2,59,0
'[12:09:01.448 20/01/2026]',-117300.2,-170381.4,-164612,-212706.2,-375000,-375000,-142001.9,-179289.3,0.03,0.00,0.88,-4,0,-2,59,0
'[12:09:01.452 20/01/2026]',-117289.3,-170346,-164593.6,-212764.1,-375000,-375000,-141999.2,-179292.9,0.03,0.00,0.88,-4,0,-2,59,0
'[12:09:01.456 20/01/2026]',-117285.2,-170329.6,-164579.8,-212751.5,-375000,-375000,-141991.5,-179288.4,0.03,0.00,0.88,-4,0,-2,59,0
'[12:09:01.460 20/01/2026]',-117289.2,-170353.5,-164602.4,-212686.9,-375000,-375000,-141992.8,-179276.8,0.03,0.00,0.88,-4,0,-2,59,0
'[12:09:01.464 20/01/2026]',-117304.6,-170369.7,-164610.7,-212684.9,-375000,-375000,-142001.5,-179287.1,0.03,0.00,0.88,-4,0,-2,59,0
'[12:09:01.468 20/01/2026]',-117277.8,-170340.4,-164589.8,-212753.6,-375000,-375000,-142008.3,-179301.7,0.03,0.00,0.88,-4,0,-2,59,0
'[12:09:01.472 20/01/2026]',-117279.1,-170322.4,-164581.2,-212767.6,-375000,-375000,-142002.4,-179296.7,0.03,0.00,0.88,-4,0,-2,59,0
'[12:09:01.476 20/01/2026]',-117299.6,-170358.3,-164611.5,-212715.9,-375000,-375000,-141999.1,-179286.7,0.03,0.00,0.88,-4,0,-2,59,0
'[12:09:01.480 20/01/2026]',-117324.2,-170384.2,-164621.7,-212697.6,-375000,-375000,-141997.5,-179282.1,0.03,0.00,0.88,-4,0,-2,59,0
'[12:09:01.484 20/01/2026]',-117308.7,-170356.7,-164597.9,-212760,-375000,-375000,-142008.1,-179301.4,0.03,0.00,0.88,-4,0,-2,59,0
'[12:09:01.488 20/01/2026]',-117284.9,-170331.9,-164580.5,-212791.6,-375000,-375000,-142009.2,-179301.1,0.03,0.00,0.88,-4,0,-2,59,0
'[12:09:01.492 20/01/2026]',-117297.8,-170356.4,-164613.3,-212735.3,-375000,-375000,-142008.3,-179294,0.03,0.00,0.88,-4,0,-2,59,0
'[12:09:01.496 20/01/2026]',-117303.2,-170366.5,-164623.3,-212684.5,-375000,-375000,-141988.2,-179270.8,0.03,0.00,0.88,-4,0,-2,59,0
'[12:09:01.500 20/01/2026]',-117279,-170321.2,-164594.4,-212730.1,-375000,-375000,-141988.5,-179279.1,0.03,0.00,0.88,-4,0,-2,59,0
'[12:09:01.504 20/01/2026]',-117261.8,-170324.4,-164581.2,-212771.6,-375000,-375000,-141989.3,-179286.3,0.03,0.00,0.88,-4,0,-2,59,0
'[12:09:01.508 20/01/2026]',-117276.1,-170351,-164599.2,-212719.4,-375000,-375000,-141985.2,-179276.6,0.03,0.00,0.88,-4,0,-2,59,0
'[12:09:01.512 20/01/2026]',-117289.3,-170363.3,-164610.8,-212677.6,-375000,-375000,-141977.7,-179264.5,0.03,0.00,0.88,-4,0,-2,59,0
'[12:09:01.516 20/01/2026]',-117301.3,-170354.5,-164604,-212724.5,-375000,-375000,-141998.2,-179283.9,0.03,0.00,0.88,-4,0,-2,59,0
'[12:09:01.520 20/01/2026]',-117296.3,-170334.3,-164592.9,-212781.2,-375000,-375000,-142008.3,-179299.2,0.03,0.00,0.88,-4,0,-2,59,0
'[12:09:01.524 20/01/2026]',-117297.1,-170336.7,-164596.6,-212745.1,-375000,-375000,-141989.2,-179282.2,0.03,0.00,0.88,-4,0,-2,59,0
'[12:09:01.528 20/01/2026]',-117291.1,-170361.8,-164620.4,-212688.8,-375000,-375000,-141982,-179269.3,0.03,0.00,0.88,-4,0,-2,59,0
'[12:09:01.532 20/01/2026]',-117276.5,-170355.4,-164615.8,-212716.7,-375000,-375000,-141979,-179268,0.03,0.00,0.88,-4,0,-2,59,0
'[12:09:01.536 20/01/2026]',-117269.7,-170307,-164575.4,-212763.1,-375000,-375000,-141969.6,-179263.8,0.03,0.00,0.88,-4,0,-2,59,0
'[12:09:01.540 20/01/2026]',-117286.6,-170321.6,-164589.5,-212747.2,-375000,-375000,-141975.4,-179267.3,0.03,0.00,0.88,-4,0,-2,59,0
'[12:09:01.544 20/01/2026]',-117301.1,-170368.2,-164621.4,-212693.7,-375000,-375000,-141983,-179268.5,0.03,0.00,0.88,-4,0,-2,59,0
'[12:09:01.548 20/01/2026]',-117284.6,-170362.6,-164607.7,-212691.3,-375000,-375000,-141974.2,-179252.8,0.03,0.00,0.88,-4,0,-2,59,0
'[12:09:01.552 20/01/2026]',-117265.4,-170332.5,-164586.2,-212750.9,-375000,-375000,-141988.2,-179272.3,0.03,0.00,0.88,-4,0,-2,59,0
'[12:09:01.556 20/01/2026]',-117264.1,-170320.4,-164584.3,-212749.8,-375000,-375000,-141978.1,-179268.9,0.03,0.00,0.88,-4,0,-2,59,0
'[12:09:01.560 20/01/2026]',-117279.8,-170344.2,-164600.9,-212688.6,-375000,-375000,-141969.7,-179258.9,0.03,0.00,0.88,-4,0,-2,59,0
'[12:09:01.564 20/01/2026]',-117277.5,-170343.2,-164595.2,-212684.8,-375000,-375000,-141971.9,-179265.2,0.03,0.00,0.88,-4,0,-2,59,0
'[12:09:01.568 20/01/2026]',-117276.4,-170309.4,-164579.6,-212753.5,-375000,-375000,-141975,-179276.3,0.03,0.00,0.88,-4,0,-2,59,0
'[12:09:01.572 20/01/2026]',-117270.1,-170313.8,-164582.9,-212771.1,-375000,-375000,-141972.7,-179275.3,0.03,0.00,0.88,-4,0,-2,59,0
'[12:09:01.576 20/01/2026]',-117283.1,-170335.3,-164602,-212708.4,-375000,-375000,-141962.3,-179258.7,0.03,0.00,0.88,-4,0,-2,59,0
'[12:09:01.580 20/01/2026]',-117278.3,-170354.6,-164605.9,-212672.1,-375000,-375000,-141952.5,-179245.8,0.03,0.00,0.88,-4,0,-2,59,0
'[12:09:01.584 20/01/2026]',-117263.8,-170336.5,-164582.4,-212737.7,-375000,-375000,-141970.4,-179267.9,0.02,0.00,0.88,-4,0,-2,59,0
'[12:09:01.588 20/01/2026]',-117259.7,-170316.9,-164581.7,-212768.2,-375000,-375000,-141978.7,-179273.1,0.02,0.00,0.88,-4,0,-2,59,0
'[12:09:01.592 20/01/2026]',-117270.5,-170344.3,-164601.3,-212718.2,-375000,-375000,-141986.5,-179275.6,0.02,0.00,0.88,-4,0,-2,59,0
'[12:09:01.596 20/01/2026]',-117288.7,-170355.7,-164608.4,-212676.6,-375000,-375000,-141976.2,-179262.6,0.02,0.00,0.88,-4,0,-2,59,0
'[12:09:01.600 20/01/2026]',-117280.2,-170311.3,-164580.4,-212720.5,-375000,-375000,-141968.9,-179261.3,0.02,0.00,0.88,-4,0,-2,59,0
'[12:09:01.604 20/01/2026]',-117249,-170281.6,-164567.4,-212766.3,-375000,-375000,-141971.3,-179270,0.02,0.00,0.88,-4,0,-2,59,0
'[12:09:01.608 20/01/2026]',-117266.1,-170312.7,-164597.1,-212724.1,-375000,-375000,-141976.7,-179270.7,0.02,0.00,0.88,-4,0,-2,59,0
'[12:09:01.612 20/01/2026]',-117285.3,-170340.3,-164616.9,-212673.4,-375000,-375000,-141976.6,-179264.5,0.02,0.00,0.88,-4,0,-2,59,0
'[12:09:01.616 20/01/2026]',-117273.6,-170316.4,-164587.7,-212699.7,-375000,-375000,-141975.4,-179266.5,0.02,0.00,0.88,-4,0,-2,59,0
'[12:09:01.620 20/01/2026]',-117244.1,-170285.3,-164559.5,-212742.6,-375000,-375000,-141973.5,-179271.4,0.03,0.00,0.88,-4,0,-2,59,0
'[12:09:01.624 20/01/2026]',-117266.9,-170319,-164586.7,-212708.8,-375000,-375000,-141982.3,-179271.8,0.03,0.00,0.88,-4,0,-2,59,0
'[12:09:01.628 20/01/2026]',-117297.1,-170350.8,-164616.4,-212663.7,-375000,-375000,-141998.9,-179277.1,0.03,0.00,0.88,-4,0,-2,59,0
'[12:09:01.632 20/01/2026]',-117286.9,-170332.2,-164596,-212677.7,-375000,-375000,-141986.9,-179276.6,0.03,0.00,0.88,-4,0,-2,59,0
'[12:09:01.636 20/01/2026]',-117251.3,-170291.8,-164557.2,-212722.1,-375000,-375000,-141958.5,-179255.9,0.03,0.00,0.88,-4,0,-2,59,0
'[12:09:01.640 20/01/2026]',-117247.4,-170287.5,-164559.8,-212700.2,-375000,-375000,-141947.8,-179242.2,0.03,0.00,0.88,-4,0,-2,59,0
'[12:09:01.644 20/01/2026]',-117255.8,-170321.7,-164586.9,-212634,-375000,-375000,-141961.5,-179241.8,0.03,0.00,0.88,-4,0,-2,59,0
'[12:09:01.648 20/01/2026]',-117252,-170321.9,-164584.5,-212646.9,-375000,-375000,-141964.1,-179253.5,0.03,0.00,0.88,-4,0,-2,59,0
'[12:09:01.652 20/01/2026]',-117244.3,-170280.8,-164551.6,-212696.2,-375000,-375000,-141957.7,-179258.5,0.03,0.00,0.88,-4,0,-2,59,0
'[12:09:01.656 20/01/2026]',-117268.4,-170292.2,-164557.2,-212693.3,-375000,-375000,-141959.2,-179256.8,0.02,0.00,0.89,-4,0,-2,59,0
'[12:09:01.660 20/01/2026]',-117293.3,-170327.3,-164592.4,-212646,-375000,-375000,-141969.6,-179255.8,0.02,0.00,0.89,-4,0,-2,59,0
'[12:09:01.664 20/01/2026]',-117279.5,-170337,-164593.7,-212632.7,-375000,-375000,-141971.8,-179256.2,0.02,0.00,0.89,-4,0,-2,59,0
'[12:09:01.668 20/01/2026]',-117253,-170297,-164553.8,-212692.4,-375000,-375000,-141964.9,-179259,0.02,0.00,0.89,-4,0,-2,59,0
'[12:09:01.672 20/01/2026]',-117231.8,-170267.8,-164539.7,-212689.2,-375000,-375000,-141946.8,-179241,0.02,0.00,0.89,-4,0,-2,59,0
'[12:09:01.676 20/01/2026]',-117262.6,-170307.4,-164580.7,-212643.7,-375000,-375000,-141955.8,-179242.4,0.02,0.00,0.89,-4,0,-2,59,0
'[12:09:01.680 20/01/2026]',-117258,-170328.9,-164595.1,-212643,-375000,-375000,-141965.6,-179255.3,0.02,0.00,0.89,-4,0,-2,59,0
'[12:09:01.684 20/01/2026]',-117238.3,-170298.5,-164565.1,-212682.6,-375000,-375000,-141966.4,-179258.6,0.02,0.00,0.89,-4,0,-2,59,0
'[12:09:01.688 20/01/2026]',-117247.6,-170275,-164547.3,-212707.5,-375000,-375000,-141958,-179249.4,0.02,0.00,0.89,-4,0,-2,59,0
'[12:09:01.692 20/01/2026]',-117239,-170296.8,-164576.9,-212655.9,-375000,-375000,-141953.7,-179230.9,0.03,0.00,0.88,-4,0,-2,59,0
'[12:09:01.696 20/01/2026]',-117263.1,-170313,-164585.4,-212616.6,-375000,-375000,-141951.2,-179227.3,0.03,0.00,0.88,-4,0,-2,59,0
'[12:09:01.700 20/01/2026]',-117263.5,-170300.4,-164554.6,-212665.3,-375000,-375000,-141956,-179243.4,0.03,0.00,0.88,-4,0,-2,59,0
'[12:09:01.704 20/01/2026]',-117256.7,-170275,-164535.5,-212694.6,-375000,-375000,-141956.5,-179249.1,0.03,0.00,0.88,-4,0,-2,59,0
'[12:09:01.708 20/01/2026]',-117264.4,-170288.4,-164555.5,-212638.2,-375000,-375000,-141953.4,-179236.6,0.03,0.00,0.88,-4,0,-2,59,0
'[12:09:01.712 20/01/2026]',-117268.1,-170313,-164585.9,-212594.3,-375000,-375000,-141959.6,-179235.6,0.03,0.00,0.88,-4,0,-2,59,0
'[12:09:01.716 20/01/2026]',-117240.5,-170288.4,-164560.6,-212630.3,-375000,-375000,-141962.1,-179246.1,0.03,0.00,0.88,-4,0,-2,59,0
'[12:09:01.720 20/01/2026]',-117240.6,-170272.7,-164541.8,-212684.4,-375000,-375000,-141965.8,-179257,0.03,0.00,0.88,-4,0,-2,59,0
'[12:09:01.724 20/01/2026]',-117263.5,-170296,-164562.5,-212656.9,-375000,-375000,-141968.7,-179257.7,0.03,0.00,0.88,-4,0,-2,59,0
'[12:09:01.728 20/01/2026]',-117268.9,-170320.8,-164587.8,-212601.8,-375000,-375000,-141972,-179255,0.02,0.00,0.88,-4,0,-2,59,0
'[12:09:01.732 20/01/2026]',-117253.8,-170300.3,-164571.5,-212621.8,-375000,-375000,-141974,-179257.7,0.02,0.00,0.88,-4,0,-2,59,0
'[12:09:01.736 20/01/2026]',-117226.6,-170276.4,-164533.3,-212666.8,-375000,-375000,-141957.8,-179252.7,0.02,0.00,0.88,-4,0,-2,59,0
'[12:09:01.740 20/01/2026]',-117251.2,-170279.8,-164544.5,-212642.2,-375000,-375000,-141955.7,-179245.5,0.02,0.00,0.88,-4,0,-2,59,0
'[12:09:01.744 20/01/2026]',-117269.5,-170301.2,-164576.1,-212585.7,-375000,-375000,-141975.1,-179257.3,0.02,0.00,0.88,-4,0,-2,59,0
'[12:09:01.748 20/01/2026]',-117254.4,-170312.4,-164573.3,-212597.1,-375000,-375000,-141988.9,-179268.5,0.02,0.00,0.88,-4,0,-2,59,0
'[12:09:01.752 20/01/2026]',-117249.4,-170281,-164538.6,-212649.3,-375000,-375000,-141974.7,-179260.3,0.02,0.00,0.88,-4,0,-2,59,0
'[12:09:01.756 20/01/2026]',-117257,-170278.8,-164537,-212642.1,-375000,-375000,-141967.8,-179252,0.02,0.00,0.88,-4,0,-2,59,0
'[12:09:01.760 20/01/2026]',-117275,-170316.3,-164569.6,-212595.5,-375000,-375000,-141977.4,-179257.7,0.02,0.00,0.88,-4,0,-2,59,0
'[12:09:01.764 20/01/2026]',-117281.1,-170328.8,-164577.3,-212588.6,-375000,-375000,-141980.6,-179258.3,0.02,0.00,0.89,-4,0,-2,59,0
'[12:09:01.768 20/01/2026]',-117270.7,-170301.8,-164550.3,-212650.3,-375000,-375000,-141988.9,-179276.9,0.02,0.00,0.89,-4,0,-2,59,0
'[12:09:01.772 20/01/2026]',-117271,-170309.4,-164538.9,-212654.4,-375000,-375000,-141972.8,-179263.9,0.02,0.00,0.89,-4,0,-2,59,0
'[12:09:01.776 20/01/2026]',-117311,-170359.5,-164579.2,-212594.6,-375000,-375000,-141982.1,-179259,0.02,0.00,0.89,-4,0,-2,59,0
'[12:09:01.780 20/01/2026]',-117327.5,-170388,-164594.4,-212568,-375000,-375000,-141982.1,-179253.4,0.02,0.00,0.89,-4,0,-2,59,0
'[12:09:01.784 20/01/2026]',-117311.1,-170365.1,-164564.6,-212609.2,-375000,-375000,-141978.5,-179253.7,0.02,0.00,0.89,-4,0,-2,59,0
'[12:09:01.788 20/01/2026]',-117335.6,-170363.7,-164555.5,-212631.8,-375000,-375000,-141978.3,-179257.7,0.02,0.00,0.89,-4,0,-2,59,0
'[12:09:01.792 20/01/2026]',-117367.7,-170413.2,-164587.2,-212587.7,-375000,-375000,-141985.7,-179257.7,0.02,0.00,0.89,-4,0,-2,59,0
'[12:09:01.796 20/01/2026]',-117385.3,-170446.3,-164612.4,-212554,-375000,-375000,-141982.6,-179253.2,0.02,0.00,0.89,-4,0,-2,59,0
'[12:09:01.800 20/01/2026]',-117403.5,-170448.4,-164596.3,-212612.4,-375000,-375000,-141980.3,-179264.8,0.03,0.00,0.88,-4,0,-2,59,0
'[12:09:01.804 20/01/2026]',-117415.1,-170456.7,-164579.2,-212658.1,-375000,-375000,-141978,-179265.1,0.03,0.00,0.88,-4,0,-2,59,0
'[12:09:01.808 20/01/2026]',-117438.3,-170496.2,-164608.4,-212622.3,-375000,-375000,-141976.4,-179251.3,0.03,0.00,0.88,-4,0,-2,59,0
'[12:09:01.812 20/01/2026]',-117486.4,-170539.3,-164636.5,-212590.8,-375000,-375000,-141988.3,-179253.9,0.03,0.00,0.88,-4,0,-2,59,0
'[12:09:01.816 20/01/2026]',-117508.5,-170537.5,-164622.4,-212638.6,-375000,-375000,-141984.9,-179258.6,0.03,0.00,0.88,-4,0,-2,59,0
'[12:09:01.820 20/01/2026]',-117479.6,-170488,-164595.7,-212681.5,-375000,-375000,-141964.9,-179243.2,0.03,0.00,0.88,-4,0,-2,59,0
'[12:09:01.824 20/01/2026]',-117506.1,-170510.4,-164611.7,-212651.3,-375000,-375000,-141964.9,-179236.2,0.03,0.00,0.88,-4,0,-2,59,0
'[12:09:01.828 20/01/2026]',-117545,-170555,-164641.7,-212599.9,-375000,-375000,-141980.4,-179242,0.03,0.00,0.88,-4,0,-2,59,0
'[12:09:01.832 20/01/2026]',-117517.9,-170535.2,-164627.3,-212617.7,-375000,-375000,-141972.7,-179240.2,0.03,0.00,0.88,-4,0,-2,59,0
'[12:09:01.836 20/01/2026]',-117465.9,-170475.1,-164597.8,-212664.1,-375000,-375000,-141965.8,-179243.3,0.03,0.00,0.89,-4,0,-2,59,0
'[12:09:01.840 20/01/2026]',-117496.5,-170470,-164600.8,-212646,-375000,-375000,-141965.5,-179239.3,0.03,0.00,0.89,-4,0,-2,59,0
'[12:09:01.844 20/01/2026]',-117496.2,-170484.5,-164631.8,-212590.8,-375000,-375000,-141968.9,-179232.4,0.03,0.00,0.89,-4,0,-2,59,0
'[12:09:01.848 20/01/2026]',-117459.6,-170444.6,-164611.2,-212581.3,-375000,-375000,-141957.5,-179220.4,0.03,0.00,0.89,-4,0,-2,59,0
'[12:09:01.852 20/01/2026]',-117411.8,-170376.3,-164568.6,-212622.8,-375000,-375000,-141947.1,-179214.8,0.03,0.00,0.89,-4,0,-2,59,0
'[12:09:01.856 20/01/2026]',-117389.2,-170357.3,-164576.3,-212629.5,-375000,-375000,-141952,-179219.8,0.03,0.00,0.89,-4,0,-2,59,0
'[12:09:01.860 20/01/2026]',-117415.2,-170371.7,-164602,-212581.9,-375000,-375000,-141962.7,-179223.4,0.03,0.00,0.89,-4,0,-2,59,0
'[12:09:01.864 20/01/2026]',-117413.2,-170345.3,-164597.3,-212575.2,-375000,-375000,-141960.8,-179217.7,0.03,0.00,0.89,-4,0,-2,59,0
'[12:09:01.868 20/01/2026]',-117348.3,-170299.7,-164557.2,-212631.9,-375000,-375000,-141949.7,-179215.9,0.03,0.00,0.89,-4,0,-2,59,0
'[12:09:01.872 20/01/2026]',-117327.9,-170286,-164545.7,-212627.6,-375000,-375000,-141934.6,-179196.7,0.05,0.00,0.88,-4,0,-2,59,0
'[12:09:01.876 20/01/2026]',-117375.8,-170305.1,-164574.9,-212561.5,-375000,-375000,-141943.1,-179196.1,0.05,0.00,0.88,-4,0,-2,59,0
'[12:09:01.880 20/01/2026]',-117365.4,-170313.1,-164580.8,-212533.8,-375000,-375000,-141943.5,-179194.3,0.05,0.00,0.88,-4,0,-2,59,0
'[12:09:01.884 20/01/2026]',-117323.8,-170274.6,-164551.1,-212589.9,-375000,-375000,-141952.4,-179210.5,0.05,0.00,0.88,-4,0,-2,59,0
'[12:09:01.888 20/01/2026]',-117300.3,-170251.9,-164536.5,-212611,-375000,-375000,-141936.3,-179196.9,0.05,0.00,0.88,-4,0,-2,59,0
'[12:09:01.892 20/01/2026]',-117310.3,-170276.3,-164557.7,-212566.7,-375000,-375000,-141939.2,-179192.9,0.05,0.00,0.88,-4,0,-2,59,0
'[12:09:01.896 20/01/2026]',-117311.6,-170284.2,-164569,-212539,-375000,-375000,-141945.6,-179195.1,0.05,0.00,0.88,-4,0,-2,59,0
'[12:09:01.900 20/01/2026]',-117289.3,-170246.8,-164541.6,-212580.8,-375000,-375000,-141954.1,-179210.3,0.05,0.00,0.88,-4,0,-2,59,0
'[12:09:01.904 20/01/2026]',-117255.6,-170216,-164530.9,-212623.7,-375000,-375000,-141952.3,-179219.2,0.05,0.00,0.88,-4,0,-2,59,0
'[12:09:01.908 20/01/2026]',-117255.1,-170243.3,-164555.9,-212591.1,-375000,-375000,-141939.7,-179201.4,0.03,0.00,0.89,-4,0,-2,59,0
'[12:09:01.912 20/01/2026]',-117289.2,-170257.8,-164571.5,-212550.5,-375000,-375000,-141932.6,-179184.1,0.03,0.00,0.89,-4,0,-2,59,0
'[12:09:01.916 20/01/2026]',-117282.5,-170222.1,-164543.2,-212588.2,-375000,-375000,-141937.8,-179198.7,0.03,0.00,0.89,-4,0,-2,59,0
'[12:09:01.920 20/01/2026]',-117257,-170200.8,-164513.9,-212631.5,-375000,-375000,-141937.4,-179204.8,0.03,0.00,0.89,-4,0,-2,59,0
'[12:09:01.924 20/01/2026]',-117271.9,-170225.5,-164536.2,-212602.9,-375000,-375000,-141951,-179209.3,0.03,0.00,0.89,-4,0,-2,59,0
'[12:09:01.928 20/01/2026]',-117293.7,-170258.5,-164562,-212546.6,-375000,-375000,-141949.9,-179203.1,0.03,0.00,0.89,-4,0,-2,59,0
'[12:09:01.932 20/01/2026]',-117264.9,-170229.2,-164537.7,-212550.8,-375000,-375000,-141937,-179189.6,0.03,0.00,0.89,-4,0,-2,59,0
'[12:09:01.936 20/01/2026]',-117220.5,-170185.9,-164507.8,-212595.3,-375000,-375000,-141931.1,-179191.5,0.03,0.00,0.89,-4,0,-2,59,0
'[12:09:01.940 20/01/2026]',-117226,-170182.1,-164510.7,-212573.1,-375000,-375000,-141925.7,-179185.4,0.03,0.00,0.89,-4,0,-2,59,0
'[12:09:01.944 20/01/2026]',-117258,-170210.4,-164525.1,-212514.9,-375000,-375000,-141930.4,-179178.8,0.03,0.00,0.88,-4,0,-2,59,0
'[12:09:01.948 20/01/2026]',-117234.6,-170214.1,-164531,-212533.4,-375000,-375000,-141945.6,-179194.1,0.03,0.00,0.88,-4,0,-2,59,0
'[12:09:01.952 20/01/2026]',-117217.5,-170173.2,-164503.1,-212589,-375000,-375000,-141942.6,-179200.3,0.03,0.00,0.88,-4,0,-2,59,0
'[12:09:01.956 20/01/2026]',-117241.4,-170172.5,-164507,-212599.3,-375000,-375000,-141940.7,-179204.4,0.03,0.00,0.88,-4,0,-2,59,0
'[12:09:01.960 20/01/2026]',-117249.7,-170197.8,-164533.7,-212542.6,-375000,-375000,-141938.9,-179197.6,0.03,0.00,0.88,-4,0,-2,59,0
'[12:09:01.964 20/01/2026]',-117244.6,-170194,-164540.8,-212537.2,-375000,-375000,-141938.6,-179198.3,0.03,0.00,0.88,-4,0,-2,59,0
'[12:09:01.968 20/01/2026]',-117230.6,-170173.3,-164510.7,-212596.5,-375000,-375000,-141940.2,-179207.2,0.03,0.00,0.88,-4,0,-2,59,0
'[12:09:01.972 20/01/2026]',-117216.8,-170157.8,-164497.7,-212582.3,-375000,-375000,-141922.1,-179184.8,0.03,0.00,0.88,-4,0,-2,59,0
'[12:09:01.976 20/01/2026]',-117234.9,-170185,-164529.2,-212529,-375000,-375000,-141926.3,-179184.9,0.03,0.00,0.88,-4,0,-2,59,0
'[12:09:01.980 20/01/2026]',-117255,-170204.7,-164539.5,-212513.3,-375000,-375000,-141935.3,-179199.7,0.03,0.00,0.88,-4,0,-2,59,0
'[12:09:01.984 20/01/2026]',-117231.2,-170168.4,-164515.9,-212551.7,-375000,-375000,-141936.9,-179208.2,0.03,0.00,0.88,-4,0,-2,59,0
'[12:09:01.988 20/01/2026]',-117211.3,-170149.6,-164506.9,-212577.1,-375000,-375000,-141924.3,-179197.9,0.03,0.00,0.88,-4,0,-2,59,0
'[12:09:01.992 20/01/2026]',-117231.1,-170174.3,-164525.2,-212537.5,-375000,-375000,-141934.7,-179202.6,0.03,0.00,0.88,-4,0,-2,59,0
'[12:09:01.996 20/01/2026]',-117231.1,-170184.2,-164538.3,-212514,-375000,-375000,-141934.4,-179199.9,0.03,0.00,0.88,-4,0,-2,59,0
'[12:09:02.000 20/01/2026]',-117222.3,-170174.6,-164519,-212571.9,-375000,-375000,-141938.8,-179214.5,0.03,0.00,0.88,-4,0,-2,59,0
'[12:09:02.004 20/01/2026]',-117215.7,-170151,-164499.5,-212614.8,-375000,-375000,-141931.8,-179215.4,0.03,0.00,0.88,-4,0,-2,59,0
'[12:09:02.008 20/01/2026]',-117227.5,-170160.4,-164523.7,-212576,-375000,-375000,-141939.3,-179217,0.03,0.00,0.88,-4,0,-2,59,0
'[12:09:02.012 20/01/2026]',-117239.3,-170193,-164543.5,-212525.4,-375000,-375000,-141946.7,-179212.5,0.03,0.00,0.88,-4,0,-2,59,0
'[12:09:02.016 20/01/2026]',-117224.9,-170175.4,-164520.9,-212558.7,-375000,-375000,-141937.2,-179209,0.03,0.00,0.88,-4,0,-2,59,0
'[12:09:02.020 20/01/2026]',-117209.5,-170138.5,-164499,-212605,-375000,-375000,-141936.1,-179218,0.03,0.00,0.88,-4,0,-2,59,0
'[12:09:02.024 20/01/2026]',-117220.1,-170159.1,-164516.1,-212585.1,-375000,-375000,-141942.8,-179221.6,0.03,0.00,0.88,-4,0,-2,59,0
'[12:09:02.028 20/01/2026]',-117222.2,-170180.1,-164529.5,-212518.1,-375000,-375000,-141937,-179203.7,0.03,0.00,0.88,-4,0,-2,59,0
'[12:09:02.032 20/01/2026]',-117210.3,-170169.2,-164518.8,-212544.7,-375000,-375000,-141945.1,-179218.4,0.03,0.00,0.88,-4,0,-2,59,0
'[12:09:02.036 20/01/2026]',-117175,-170131.3,-164497.2,-212595.1,-375000,-375000,-141938,-179219,0.03,0.00,0.88,-4,0,-2,59,0
'[12:09:02.040 20/01/2026]',-117184.9,-170131.9,-164505.2,-212576.6,-375000,-375000,-141935.2,-179212.3,0.03,0.00,0.88,-4,0,-2,59,0
'[12:09:02.044 20/01/2026]',-117234.8,-170175.5,-164535.8,-212520.7,-375000,-375000,-141943.9,-179211.1,0.03,0.00,0.88,-4,0,-2,59,0
'[12:09:02.048 20/01/2026]',-117207.6,-170168.3,-164520.3,-212525.5,-375000,-375000,-141944.7,-179211.7,0.03,0.00,0.88,-4,0,-2,59,0
'[12:09:02.052 20/01/2026]',-117217.7,-170126.9,-164502.1,-212590.9,-375000,-375000,-141948.2,-179222,0.03,0.00,0.88,-4,0,-2,59,0
'[12:09:02.056 20/01/2026]',-117209.9,-170137.6,-164507.1,-212589.7,-375000,-375000,-141942.1,-179214.4,0.03,0.00,0.88,-4,0,-2,59,0
'[12:09:02.060 20/01/2026]',-117227.5,-170176.9,-164534,-212525.4,-375000,-375000,-141949.5,-179209.6,0.03,0.00,0.88,-4,0,-2,59,0
'[12:09:02.064 20/01/2026]',-117230.6,-170171.7,-164536.7,-212525,-375000,-375000,-141949.6,-179206,0.03,0.00,0.88,-4,0,-2,59,0
'[12:09:02.068 20/01/2026]',-117199.9,-170136.5,-164512.1,-212595.2,-375000,-375000,-141949.4,-179216.1,0.03,0.00,0.88,-4,0,-2,59,0
'[12:09:02.072 20/01/2026]',-117174.4,-170123.5,-164506.8,-212596,-375000,-375000,-141940.9,-179207,0.03,0.00,0.88,-4,0,-2,59,0
'[12:09:02.076 20/01/2026]',-117208.3,-170155.3,-164528.9,-212541.4,-375000,-375000,-141937.1,-179198.7,0.03,0.00,0.88,-4,0,-2,59,0
'[12:09:02.080 20/01/2026]',-117229.2,-170159.9,-164533.9,-212521,-375000,-375000,-141935.3,-179195.7,0.03,0.00,0.88,-4,0,-2,59,0
'[12:09:02.084 20/01/2026]',-117206.8,-170139,-164514.1,-212583.2,-375000,-375000,-141945.2,-179219.2,0.03,0.00,0.88,-4,0,-2,59,0
'[12:09:02.088 20/01/2026]',-117212.6,-170145.3,-164518.2,-212620.6,-375000,-375000,-141954,-179237.4,0.02,0.00,0.88,-4,0,-2,59,0
'[12:09:02.092 20/01/2026]',-117242.1,-170174.3,-164555.4,-212577.8,-375000,-375000,-141966.2,-179239.9,0.02,0.00,0.88,-4,0,-2,59,0
'[12:09:02.096 20/01/2026]',-117245.5,-170199.3,-164579.7,-212552.4,-375000,-375000,-141974.3,-179241.2,0.02,0.00,0.88,-4,0,-2,59,0
'[12:09:02.100 20/01/2026]',-117251,-170179.6,-164558,-212614.8,-375000,-375000,-141988.1,-179266.9,0.02,0.00,0.88,-4,0,-2,59,0
'[12:09:02.104 20/01/2026]',-117237.8,-170179.9,-164547.5,-212654.5,-375000,-375000,-141988.8,-179275.3,0.02,0.00,0.88,-4,0,-2,59,0
'[12:09:02.108 20/01/2026]',-117261.3,-170213.3,-164568.8,-212613.5,-375000,-375000,-141992.5,-179273.5,0.02,0.00,0.88,-4,0,-2,59,0
'[12:09:02.112 20/01/2026]',-117290.1,-170238.7,-164600.6,-212574.3,-375000,-375000,-142006.3,-179278.7,0.02,0.00,0.88,-4,0,-2,59,0
'[12:09:02.116 20/01/2026]',-117272.8,-170215.6,-164588.1,-212614.1,-375000,-375000,-142012.4,-179291,0.02,0.00,0.88,-4,0,-2,59,0
'[12:09:02.120 20/01/2026]',-117262.4,-170197.5,-164564.6,-212661,-375000,-375000,-142008.8,-179296.7,0.02,0.00,0.88,-4,0,-2,59,0
'[12:09:02.124 20/01/2026]',-117279.1,-170220,-164585.4,-212627.4,-375000,-375000,-142018.4,-179299.6,0.03,0.00,0.88,-4,0,-2,59,0
'[12:09:02.128 20/01/2026]',-117315.6,-170256.5,-164630.2,-212590.7,-375000,-375000,-142041.9,-179316.7,0.03,0.00,0.88,-4,0,-2,59,0
'[12:09:02.132 20/01/2026]',-117311.3,-170252.2,-164618.8,-212633,-375000,-375000,-142042.8,-179327,0.03,0.00,0.88,-4,0,-2,59,0
'[12:09:02.136 20/01/2026]',-117297.3,-170232.3,-164595.3,-212676.7,-375000,-375000,-142036.9,-179321,0.03,0.00,0.88,-4,0,-2,59,0
'[12:09:02.140 20/01/2026]',-117294.2,-170229.4,-164609.7,-212648.8,-375000,-375000,-142044,-179314.8,0.03,0.00,0.88,-4,0,-2,59,0
'[12:09:02.144 20/01/2026]',-117319.6,-170240.4,-164636,-212591.7,-375000,-375000,-142047.6,-179311.5,0.03,0.00,0.88,-4,0,-2,59,0
'[12:09:02.148 20/01/2026]',-117330.1,-170258,-164625.5,-212622.2,-375000,-375000,-142041,-179326.5,0.03,0.00,0.88,-4,0,-2,59,0
'[12:09:02.152 20/01/2026]',-117314.3,-170235.2,-164599.9,-212676,-375000,-375000,-142046.8,-179332.5,0.03,0.00,0.88,-4,0,-2,59,0
'[12:09:02.156 20/01/2026]',-117310.5,-170242.4,-164610.8,-212667.6,-375000,-375000,-142054,-179334.7,0.03,0.00,0.88,-4,0,-2,59,0
'[12:09:02.160 20/01/2026]',-117317.4,-170265.4,-164641.3,-212616.1,-375000,-375000,-142056,-179329.8,0.03,0.00,0.88,-4,0,-2,59,0
'[12:09:02.164 20/01/2026]',-117313.6,-170269.9,-164642,-212620.6,-375000,-375000,-142057.6,-179333.9,0.03,0.00,0.88,-4,0,-2,59,0
'[12:09:02.168 20/01/2026]',-117308.2,-170250.6,-164613.3,-212667.5,-375000,-375000,-142049.3,-179337.4,0.03,0.00,0.88,-4,0,-2,59,0
'[12:09:02.172 20/01/2026]',-117289.7,-170227.7,-164599.5,-212662.9,-375000,-375000,-142031.4,-179317,0.03,0.00,0.88,-4,0,-2,59,0
'[12:09:02.176 20/01/2026]',-117310.7,-170247.9,-164615.2,-212591.8,-375000,-375000,-142032.1,-179308.5,0.03,0.00,0.88,-4,0,-2,59,0
'[12:09:02.180 20/01/2026]',-117310.1,-170258.1,-164634.1,-212564.4,-375000,-375000,-142034,-179306.8,0.03,0.00,0.88,-4,0,-2,59,0
'[12:09:02.184 20/01/2026]',-117292.3,-170223.3,-164607,-212620.6,-375000,-375000,-142037.3,-179319.4,0.03,0.00,0.88,-4,0,-2,59,0
'[12:09:02.188 20/01/2026]',-117285.1,-170204,-164596.2,-212634.7,-375000,-375000,-142029,-179314.9,0.03,0.00,0.88,-4,0,-2,59,0
'[12:09:02.192 20/01/2026]',-117297.1,-170240.8,-164616.7,-212577.7,-375000,-375000,-142030.3,-179309.4,0.03,0.00,0.88,-4,0,-2,59,0
'[12:09:02.196 20/01/2026]',-117297.1,-170251.8,-164628.9,-212542.8,-375000,-375000,-142032.2,-179308.6,0.03,0.00,0.88,-4,0,-2,59,0
'[12:09:02.200 20/01/2026]',-117294.9,-170223.3,-164604.6,-212586.2,-375000,-375000,-142032.9,-179318.5,0.03,0.00,0.88,-4,0,-2,59,0
'[12:09:02.204 20/01/2026]',-117279.4,-170199.5,-164586.7,-212624.6,-375000,-375000,-142031.7,-179324.5,0.03,0.00,0.88,-4,0,-2,59,0
'[12:09:02.208 20/01/2026]',-117298.8,-170229.8,-164608,-212586.6,-375000,-375000,-142031.2,-179314.7,0.03,0.00,0.88,-4,0,-2,59,0
'[12:09:02.212 20/01/2026]',-117306.8,-170255,-164627.2,-212537.5,-375000,-375000,-142026.7,-179296.6,0.03,0.00,0.88,-4,0,-2,59,0
'[12:09:02.216 20/01/2026]',-117292.3,-170228.4,-164596.3,-212568.3,-375000,-375000,-142025.3,-179302.4,0.03,0.00,0.88,-4,0,-2,59,0
'[12:09:02.220 20/01/2026]',-117261.9,-170188.2,-164565.3,-212609.9,-375000,-375000,-142014,-179302.9,0.03,0.00,0.88,-4,0,-2,59,0
'[12:09:02.224 20/01/2026]',-117263.6,-170192.8,-164585.5,-212583.8,-375000,-375000,-142023.1,-179300.1,0.03,0.00,0.88,-4,0,-2,59,0
'[12:09:02.228 20/01/2026]',-117275.4,-170217.7,-164614.4,-212532.1,-375000,-375000,-142031.6,-179298,0.03,0.00,0.88,-4,0,-2,59,0
'[12:09:02.232 20/01/2026]',-117275.4,-170224,-164603.9,-212558,-375000,-375000,-142037.8,-179308.6,0.02,0.00,0.89,-4,0,-2,59,0
'[12:09:02.236 20/01/2026]',-117260.1,-170200.7,-164574.3,-212598.8,-375000,-375000,-142024,-179308.7,0.02,0.00,0.89,-4,0,-2,59,0
'[12:09:02.240 20/01/2026]',-117273.7,-170202.5,-164574.7,-212569.5,-375000,-375000,-142007.8,-179293.2,0.02,0.00,0.89,-4,0,-2,59,0
'[12:09:02.244 20/01/2026]',-117298.6,-170229.2,-164603.7,-212528.8,-375000,-375000,-142014,-179287.2,0.02,0.00,0.89,-4,0,-2,59,0
'[12:09:02.248 20/01/2026]',-117277.7,-170215.8,-164597.4,-212536.6,-375000,-375000,-142011.3,-179281.8,0.02,0.00,0.89,-4,0,-2,59,0
'[12:09:02.252 20/01/2026]',-117246.6,-170175.5,-164560.8,-212579.7,-375000,-375000,-142002.3,-179283.8,0.02,0.00,0.89,-4,0,-2,59,0
'[12:09:02.256 20/01/2026]',-117257.4,-170182.7,-164568.4,-212575.2,-375000,-375000,-142004.2,-179290.1,0.02,0.00,0.89,-4,0,-2,59,0
'[12:09:02.260 20/01/2026]',-117285.4,-170214.1,-164599.2,-212514.4,-375000,-375000,-142012.7,-179294.1,0.02,0.00,0.89,-4,0,-2,59,0
'[12:09:02.264 20/01/2026]',-117295.9,-170203.1,-164597.2,-212504.8,-375000,-375000,-142010.1,-179290.2,0.02,0.00,0.89,-4,0,-2,59,0
'[12:09:02.268 20/01/2026]',-117247.9,-170149.8,-164561.9,-212548.5,-375000,-375000,-141996.2,-179278.5,0.02,0.00,0.88,-4,0,-2,59,0
'[12:09:02.272 20/01/2026]',-117233,-170161.8,-164553.6,-212556.8,-375000,-375000,-141984.8,-179269,0.02,0.00,0.88,-4,0,-2,59,0
'[12:09:02.276 20/01/2026]',-117262.7,-170203.6,-164583.2,-212491.8,-375000,-375000,-141993.3,-179266.3,0.02,0.00,0.88,-4,0,-2,59,0
'[12:09:02.280 20/01/2026]',-117274.6,-170210.6,-164586.4,-212471,-375000,-375000,-142002.1,-179271.5,0.02,0.00,0.88,-4,0,-2,59,0
'[12:09:02.284 20/01/2026]',-117245.6,-170171.3,-164553.3,-212526.1,-375000,-375000,-142001.9,-179284.1,0.02,0.00,0.88,-4,0,-2,59,0
'[12:09:02.288 20/01/2026]',-117233.1,-170154.7,-164542.9,-212555.9,-375000,-375000,-141996.8,-179281.3,0.02,0.00,0.88,-4,0,-2,59,0
'[12:09:02.292 20/01/2026]',-117265.6,-170177.7,-164570.8,-212503.9,-375000,-375000,-142000.9,-179270.2,0.02,0.00,0.88,-4,0,-2,59,0
'[12:09:02.296 20/01/2026]',-117270.3,-170195,-164586.4,-212462.1,-375000,-375000,-141999.3,-179266.6,0.02,0.00,0.88,-4,0,-2,59,0
'[12:09:02.300 20/01/2026]',-117253.1,-170159.3,-164560.1,-212504.2,-375000,-375000,-141996.1,-179273.3,0.02,0.00,0.88,-4,0,-2,59,0
'[12:09:02.304 20/01/2026]',-117244.9,-170129.7,-164541.2,-212530.3,-375000,-375000,-141986.8,-179263.9,0.03,0.00,0.88,-4,0,-2,59,0
'[12:09:02.308 20/01/2026]',-117257.3,-170158,-164563,-212488,-375000,-375000,-141991.5,-179259.5,0.03,0.00,0.88,-4,0,-2,59,0
'[12:09:02.312 20/01/2026]',-117266,-170182.4,-164591.4,-212451.2,-375000,-375000,-142012,-179271.6,0.03,0.00,0.88,-4,0,-2,59,0
'[12:09:02.316 20/01/2026]',-117240.2,-170167.2,-164574.2,-212486,-375000,-375000,-142015.3,-179283.6,0.03,0.00,0.88,-4,0,-2,59,0
'[12:09:02.320 20/01/2026]',-117214.6,-170138.2,-164542.6,-212518.7,-375000,-375000,-141989.9,-179265.4,0.03,0.00,0.88,-4,0,-2,59,0
'[12:09:02.324 20/01/2026]',-117229.2,-170155.7,-164555,-212486.9,-375000,-375000,-141988,-179262.5,0.03,0.00,0.88,-4,0,-2,59,0
'[12:09:02.328 20/01/2026]',-117267.3,-170184,-164575.7,-212433,-375000,-375000,-141998.1,-179265.1,0.03,0.00,0.88,-4,0,-2,59,0
'[12:09:02.332 20/01/2026]',-117245.9,-170161.6,-164560.9,-212460.5,-375000,-375000,-142004.1,-179274.1,0.03,0.00,0.88,-4,0,-2,59,0
'[12:09:02.336 20/01/2026]',-117229.5,-170105.1,-164545.3,-212508.6,-375000,-375000,-142002.7,-179278.5,0.03,0.00,0.88,-4,0,-2,59,0
'[12:09:02.340 20/01/2026]',-117224.2,-170116.8,-164557.1,-212496.6,-375000,-375000,-142007.7,-179284.2,0.03,0.00,0.89,-4,0,-2,59,0
'[12:09:02.344 20/01/2026]',-117270.5,-170179.8,-164570.8,-212422.3,-375000,-375000,-141990.8,-179256.6,0.03,0.00,0.89,-4,0,-2,59,0
'[12:09:02.348 20/01/2026]',-117274.1,-170193.6,-164563.2,-212441,-375000,-375000,-141987.3,-179260.6,0.03,0.00,0.89,-4,0,-2,59,0
'[12:09:02.352 20/01/2026]',-117253.6,-170167.5,-164543.7,-212501.3,-375000,-375000,-141993,-179272.7,0.03,0.00,0.89,-4,0,-2,59,0
'[12:09:02.356 20/01/2026]',-117254.6,-170177.3,-164546.6,-212498.6,-375000,-375000,-141987.8,-179270.4,0.03,0.00,0.89,-4,0,-2,59,0
'[12:09:02.360 20/01/2026]',-117273.3,-170220.2,-164581.2,-212445.5,-375000,-375000,-141996.6,-179272.7,0.03,0.00,0.89,-4,0,-2,59,0
'[12:09:02.364 20/01/2026]',-117262.9,-170217.2,-164578.8,-212454.2,-375000,-375000,-141998.7,-179277.3,0.03,0.00,0.89,-4,0,-2,59,0
'[12:09:02.368 20/01/2026]',-117239.7,-170183.2,-164539.1,-212493.7,-375000,-375000,-141996.5,-179275.4,0.03,0.00,0.89,-4,0,-2,59,0
'[12:09:02.372 20/01/2026]',-117241.2,-170203.9,-164532.5,-212499.8,-375000,-375000,-141987.7,-179269.2,0.03,0.00,0.89,-4,0,-2,59,0
'[12:09:02.376 20/01/2026]',-117263.9,-170236.6,-164567.1,-212439.4,-375000,-375000,-141993,-179267.7,0.03,0.00,0.88,-4,0,-2,59,0
'[12:09:02.380 20/01/2026]',-117269.4,-170244.7,-164576.9,-212423.4,-375000,-375000,-142004,-179277.6,0.03,0.00,0.88,-4,0,-2,59,0
'[12:09:02.384 20/01/2026]',-117260.1,-170212.1,-164545.5,-212479.3,-375000,-375000,-142011.3,-179287.7,0.03,0.00,0.88,-4,0,-2,59,0
'[12:09:02.388 20/01/2026]',-117247.9,-170202.3,-164530.4,-212503,-375000,-375000,-141998.5,-179280.6,0.03,0.00,0.88,-4,0,-2,59,0
'[12:09:02.392 20/01/2026]',-117248.5,-170222.4,-164559.1,-212449,-375000,-375000,-141996.4,-179273.8,0.03,0.00,0.88,-4,0,-2,59,0
'[12:09:02.396 20/01/2026]',-117274.5,-170237.6,-164577.9,-212416.9,-375000,-375000,-141999.4,-179270,0.03,0.00,0.88,-4,0,-2,59,0
'[12:09:02.400 20/01/2026]',-117259.7,-170205.2,-164547.8,-212462.8,-375000,-375000,-141995.5,-179273.3,0.03,0.00,0.88,-4,0,-2,59,0
'[12:09:02.404 20/01/2026]',-117231.7,-170186.3,-164533,-212505.7,-375000,-375000,-141996.1,-179280.6,0.03,0.00,0.88,-4,0,-2,59,0
'[12:09:02.408 20/01/2026]',-117256.5,-170211.8,-164554.4,-212460.1,-375000,-375000,-142003.1,-179282.2,0.03,0.00,0.88,-4,0,-2,59,0
'[12:09:02.412 20/01/2026]',-117266.4,-170219.7,-164554.4,-212395.7,-375000,-375000,-141985.3,-179253.5,0.02,0.00,0.86,-4,0,-2,59,0
'[12:09:02.416 20/01/2026]',-117241.8,-170191.9,-164531.6,-212427.9,-375000,-375000,-141977.2,-179255.8,0.02,0.00,0.86,-4,0,-2,59,0
'[12:09:02.420 20/01/2026]',-117215.3,-170168.7,-164518.4,-212483,-375000,-375000,-141978.7,-179267,0.02,0.00,0.86,-4,0,-2,59,0
'[12:09:02.424 20/01/2026]',-117232.3,-170191.1,-164536.4,-212455.5,-375000,-375000,-141982.1,-179261,0.02,0.00,0.86,-4,0,-2,59,0
'[12:09:02.428 20/01/2026]',-117254.4,-170207.5,-164550.9,-212399.5,-375000,-375000,-141982.5,-179254.1,0.02,0.00,0.86,-4,0,-2,59,0
'[12:09:02.432 20/01/2026]',-117236.4,-170195.3,-164529.8,-212431.4,-375000,-375000,-141983.5,-179258.8,0.02,0.00,0.86,-4,0,-2,59,0
'[12:09:02.436 20/01/2026]',-117210.5,-170154.5,-164518.7,-212481.4,-375000,-375000,-141983.8,-179261.7,0.02,0.00,0.86,-4,0,-2,59,0
'[12:09:02.440 20/01/2026]',-117224.3,-170175.4,-164529,-212458.5,-375000,-375000,-141981.9,-179258.3,0.02,0.00,0.86,-4,0,-2,59,0
'[12:09:02.444 20/01/2026]',-117236.8,-170215.6,-164548,-212411.1,-375000,-375000,-141987.3,-179250.3,0.02,0.00,0.86,-4,0,-2,59,0
'[12:09:02.448 20/01/2026]',-117222.3,-170194.7,-164552.7,-212420.3,-375000,-375000,-141989.5,-179245,0.03,0.00,0.88,-4,0,-2,59,0
'[12:09:02.452 20/01/2026]',-117216,-170165.5,-164528.4,-212479.8,-375000,-375000,-141994.3,-179257.4,0.03,0.00,0.88,-4,0,-2,59,0
'[12:09:02.456 20/01/2026]',-117238.3,-170164.4,-164525.3,-212479.3,-375000,-375000,-141993.1,-179257.5,0.03,0.00,0.88,-4,0,-2,59,0
'[12:09:02.460 20/01/2026]',-117250.9,-170190.9,-164544.3,-212403.7,-375000,-375000,-141993.8,-179246.2,0.03,0.00,0.88,-4,0,-2,59,0
'[12:09:02.464 20/01/2026]',-117245.1,-170193.3,-164546.4,-212392.5,-375000,-375000,-141993.7,-179250,0.03,0.00,0.88,-4,0,-2,59,0
'[12:09:02.468 20/01/2026]',-117216.4,-170165.1,-164520.8,-212451.1,-375000,-375000,-141997.6,-179268.6,0.03,0.00,0.88,-4,0,-2,59,0
'[12:09:02.472 20/01/2026]',-117204.5,-170155,-164514.3,-212456.8,-375000,-375000,-141982.1,-179254,0.03,0.00,0.88,-4,0,-2,59,0
'[12:09:02.476 20/01/2026]',-117224.4,-170169.9,-164534.6,-212389.8,-375000,-375000,-141966.3,-179234.3,0.03,0.00,0.88,-4,0,-2,59,0
'[12:09:02.480 20/01/2026]',-117217.3,-170169.7,-164534.1,-212367.3,-375000,-375000,-141962.5,-179236.3,0.03,0.00,0.88,-4,0,-2,59,0
'[12:09:02.484 20/01/2026]',-117186.5,-170143.1,-164500.7,-212423.7,-375000,-375000,-141965.4,-179254.5,0.05,0.00,0.88,-4,0,-2,59,0
'[12:09:02.488 20/01/2026]',-117199,-170137.6,-164502.8,-212456.3,-375000,-375000,-141963.6,-179252.4,0.05,0.00,0.88,-4,0,-2,59,0
'[12:09:02.492 20/01/2026]',-117228,-170173.7,-164525.6,-212405.9,-375000,-375000,-141961.3,-179244.8,0.05,0.00,0.88,-4,0,-2,59,0
'[12:09:02.496 20/01/2026]',-117245.6,-170180.8,-164539.8,-212368.1,-375000,-375000,-141966.7,-179246.4,0.05,0.00,0.88,-4,0,-2,59,0
'[12:09:02.500 20/01/2026]',-117218.9,-170145.1,-164521,-212416.8,-375000,-375000,-141971.2,-179257.9,0.05,0.00,0.88,-4,0,-2,59,0
'[12:09:02.504 20/01/2026]',-117199.4,-170138.2,-164508.1,-212463.3,-375000,-375000,-141966.3,-179258.7,0.05,0.00,0.88,-4,0,-2,59,0
'[12:09:02.508 20/01/2026]',-117214.9,-170150.6,-164526,-212414.8,-375000,-375000,-141965.1,-179246,0.05,0.00,0.88,-4,0,-2,59,0
'[12:09:02.512 20/01/2026]',-117232.4,-170165.4,-164548.4,-212360.2,-375000,-375000,-141973.8,-179241.6,0.05,0.00,0.88,-4,0,-2,59,0
'[12:09:02.516 20/01/2026]',-117203.7,-170159.1,-164526.6,-212403.8,-375000,-375000,-141980.6,-179254.2,0.05,0.00,0.88,-4,0,-2,59,0
'[12:09:02.520 20/01/2026]',-117188.3,-170137.2,-164499.7,-212454.7,-375000,-375000,-141977.1,-179260.8,0.03,0.00,0.88,-4,0,-2,59,0
'[12:09:02.524 20/01/2026]',-117230.5,-170150.1,-164517.6,-212418.9,-375000,-375000,-141975.4,-179246.6,0.03,0.00,0.88,-4,0,-2,59,0
'[12:09:02.528 20/01/2026]',-117240.4,-170172.7,-164540.5,-212370.9,-375000,-375000,-141984.8,-179244.6,0.03,0.00,0.88,-4,0,-2,59,0
'[12:09:02.532 20/01/2026]',-117222.2,-170160.8,-164526.4,-212388.5,-375000,-375000,-141988.2,-179246.5,0.03,0.00,0.88,-4,0,-2,59,0
'[12:09:02.536 20/01/2026]',-117196.9,-170130.9,-164498.7,-212456.2,-375000,-375000,-141976.3,-179247.4,0.03,0.00,0.88,-4,0,-2,59,0
'[12:09:02.540 20/01/2026]',-117188,-170140.7,-164510.9,-212451.4,-375000,-375000,-141976.4,-179248.6,0.03,0.00,0.88,-4,0,-2,59,0
'[12:09:02.544 20/01/2026]',-117216.6,-170170.3,-164532.8,-212390.8,-375000,-375000,-141981.5,-179246.5,0.03,0.00,0.88,-4,0,-2,59,0
'[12:09:02.548 20/01/2026]',-117230,-170162.8,-164522.5,-212390.4,-375000,-375000,-141982,-179251.9,0.03,0.00,0.88,-4,0,-2,59,0
'[12:09:02.552 20/01/2026]',-117198.4,-170117.6,-164494.4,-212436.5,-375000,-375000,-141979,-179255.2,0.03,0.00,0.88,-4,0,-2,59,0
'[12:09:02.556 20/01/2026]',-117176.9,-170107.7,-164497,-212427.6,-375000,-375000,-141960.1,-179241.4,0.03,0.00,0.88,-4,0,-2,59,0
'[12:09:02.560 20/01/2026]',-117211.5,-170141.4,-164527,-212364.3,-375000,-375000,-141959.5,-179231.5,0.03,0.00,0.88,-4,0,-2,59,0
'[12:09:02.564 20/01/2026]',-117214.8,-170158.4,-164527.9,-212364.7,-375000,-375000,-141969.3,-179242,0.03,0.00,0.88,-4,0,-2,59,0
'[12:09:02.568 20/01/2026]',-117196,-170129.5,-164494.5,-212429.7,-375000,-375000,-141964.9,-179254.2,0.03,0.00,0.88,-4,0,-2,59,0
'[12:09:02.572 20/01/2026]',-117202.1,-170112,-164486.7,-212434.9,-375000,-375000,-141941.3,-179234.3,0.03,0.00,0.88,-4,0,-2,59,0
'[12:09:02.576 20/01/2026]',-117222.1,-170145.8,-164507.5,-212377.1,-375000,-375000,-141948,-179230.4,0.03,0.00,0.88,-4,0,-2,59,0
'[12:09:02.580 20/01/2026]',-117218.5,-170162.4,-164528.8,-212364.8,-375000,-375000,-141957.9,-179236.9,0.03,0.00,0.88,-4,0,-2,59,0
'[12:09:02.584 20/01/2026]',-117187.3,-170142.7,-164507.1,-212432.6,-375000,-375000,-141960.3,-179242.4,0.03,0.00,0.88,-4,0,-2,59,0
'[12:09:02.588 20/01/2026]',-117179,-170121,-164493.5,-212449.7,-375000,-375000,-141953.9,-179231.8,0.03,0.00,0.88,-4,0,-2,59,0
'[12:09:02.592 20/01/2026]',-117210,-170147.6,-164519.4,-212396.2,-375000,-375000,-141968.7,-179234.1,0.02,0.00,0.88,-4,0,-2,59,0
'[12:09:02.596 20/01/2026]',-117214.6,-170162.8,-164534,-212362.9,-375000,-375000,-141967.6,-179232.2,0.02,0.00,0.88,-4,0,-2,59,0
'[12:09:02.600 20/01/2026]',-117214.7,-170127.3,-164516.9,-212424.3,-375000,-375000,-141968.5,-179244.5,0.02,0.00,0.88,-4,0,-2,59,0
'[12:09:02.604 20/01/2026]',-117196.4,-170117.3,-164505.6,-212465.7,-375000,-375000,-141968.6,-179252,0.02,0.00,0.88,-4,0,-2,59,0
'[12:09:02.608 20/01/2026]',-117213.9,-170149.2,-164526.5,-212423.5,-375000,-375000,-141981.6,-179254.3,0.02,0.00,0.88,-4,0,-2,59,0
'[12:09:02.612 20/01/2026]',-117224.8,-170176.3,-164544,-212384.6,-375000,-375000,-141982.6,-179248.8,0.02,0.00,0.88,-4,0,-2,59,0
'[12:09:02.616 20/01/2026]',-117212.9,-170158.7,-164511,-212424.1,-375000,-375000,-141962.9,-179242.3,0.02,0.00,0.88,-4,0,-2,59,0
'[12:09:02.620 20/01/2026]',-117206,-170122.1,-164489.8,-212471.2,-375000,-375000,-141953.1,-179242.1,0.02,0.00,0.88,-4,0,-2,59,0
'[12:09:02.624 20/01/2026]',-117213.4,-170143.1,-164508.9,-212432.2,-375000,-375000,-141949.1,-179232.6,0.02,0.00,0.88,-4,0,-2,59,0
'[12:09:02.628 20/01/2026]',-117206.6,-170179,-164542.6,-212376.4,-375000,-375000,-141961.9,-179238.9,0.02,0.00,0.88,-4,0,-2,59,0
'[12:09:02.632 20/01/2026]',-117206.1,-170160.3,-164517.4,-212412.9,-375000,-375000,-141964.4,-179248.5,0.02,0.00,0.88,-4,0,-2,59,0
'[12:09:02.636 20/01/2026]',-117216.6,-170126.9,-164486.4,-212461.4,-375000,-375000,-141949.7,-179236.7,0.02,0.00,0.88,-4,0,-2,59,0
'[12:09:02.640 20/01/2026]',-117219.8,-170141.7,-164497.4,-212449.6,-375000,-375000,-141948.4,-179234.8,0.02,0.00,0.88,-4,0,-2,59,0
'[12:09:02.644 20/01/2026]',-117228.8,-170168.3,-164527.5,-212391.7,-375000,-375000,-141953.1,-179227.6,0.02,0.00,0.88,-4,0,-2,59,0
'[12:09:02.648 20/01/2026]',-117223.7,-170172.8,-164513.3,-212398.3,-375000,-375000,-141952.5,-179230.1,0.02,0.00,0.88,-4,0,-2,59,0
'[12:09:02.652 20/01/2026]',-117206,-170144.7,-164490.9,-212467.5,-375000,-375000,-141946.2,-179237.8,0.02,0.00,0.88,-4,0,-2,59,0
'[12:09:02.656 20/01/2026]',-117204.1,-170140.5,-164499,-212457.5,-375000,-375000,-141939.3,-179227.8,0.02,0.00,0.88,-4,0,-2,59,0
'[12:09:02.660 20/01/2026]',-117240.7,-170183.2,-164539.4,-212398.5,-375000,-375000,-141953.1,-179226,0.02,0.00,0.88,-4,0,-2,59,0
'[12:09:02.664 20/01/2026]',-117249,-170190,-164543.3,-212400.7,-375000,-375000,-141957,-179226.4,0.03,0.00,0.88,-4,0,-2,59,0
'[12:09:02.668 20/01/2026]',-117240.8,-170170,-164514,-212467.2,-375000,-375000,-141964.6,-179240.7,0.03,0.00,0.88,-4,0,-2,59,0
'[12:09:02.672 20/01/2026]',-117231.2,-170177.7,-164528,-212479.7,-375000,-375000,-141979.1,-179254.8,0.03,0.00,0.88,-4,0,-2,59,0
'[12:09:02.676 20/01/2026]',-117235.7,-170222.3,-164562.1,-212433.6,-375000,-375000,-142001,-179270.4,0.03,0.00,0.88,-4,0,-2,59,0
'[12:09:02.680 20/01/2026]',-117263.4,-170234.8,-164568.8,-212413.2,-375000,-375000,-141989,-179255.9,0.03,0.00,0.88,-4,0,-2,59,0
'[12:09:02.684 20/01/2026]',-117230.1,-170191.1,-164524.4,-212465,-375000,-375000,-141970.8,-179245,0.03,0.00,0.88,-4,0,-2,59,0
'[12:09:02.688 20/01/2026]',-117236,-170163.7,-164508.1,-212493.9,-375000,-375000,-141969.4,-179244.9,0.03,0.00,0.88,-4,0,-2,59,0
'[12:09:02.692 20/01/2026]',-117263.7,-170191.3,-164535.6,-212431.5,-375000,-375000,-141972,-179232.2,0.03,0.00,0.88,-4,0,-2,59,0
'[12:09:02.696 20/01/2026]',-117276.3,-170230.3,-164538.5,-212395.7,-375000,-375000,-141975.7,-179230.3,0.03,0.00,0.88,-4,0,-2,59,0
'[12:09:02.700 20/01/2026]',-117257.2,-170202.6,-164510.7,-212446.2,-375000,-375000,-141976.4,-179247.4,0.03,0.00,0.88,-4,0,-2,59,0
'[12:09:02.704 20/01/2026]',-117222.1,-170170.5,-164495,-212478.5,-375000,-375000,-141969.8,-179242.5,0.03,0.00,0.88,-4,0,-2,59,0
'[12:09:02.708 20/01/2026]',-117267.8,-170205.3,-164526.6,-212457,-375000,-375000,-141989.5,-179256.5,0.03,0.00,0.88,-4,0,-2,59,0
'[12:09:02.712 20/01/2026]',-117276.3,-170220.1,-164540.3,-212411.7,-375000,-375000,-141977.3,-179241.2,0.03,0.00,0.88,-4,0,-2,59,0
'[12:09:02.716 20/01/2026]',-117244.1,-170192,-164507.4,-212444.9,-375000,-375000,-141951.9,-179228.7,0.03,0.00,0.88,-4,0,-2,59,0
'[12:09:02.720 20/01/2026]',-117210.8,-170155.4,-164483.9,-212496.1,-375000,-375000,-141944.2,-179226,0.03,0.00,0.88,-4,0,-2,59,0
'[12:09:02.724 20/01/2026]',-117243.2,-170175.9,-164505.5,-212475,-375000,-375000,-141952.8,-179227.6,0.03,0.00,0.88,-4,0,-2,59,0
'[12:09:02.728 20/01/2026]',-117271.3,-170222.6,-164533.3,-212437,-375000,-375000,-141964.7,-179230.4,0.03,0.00,0.88,-4,0,-2,59,0
'[12:09:02.732 20/01/2026]',-117248.1,-170201.2,-164523.5,-212477.6,-375000,-375000,-141954.8,-179224.3,0.03,0.00,0.88,-4,0,-2,59,0
'[12:09:02.736 20/01/2026]',-117222.8,-170166.6,-164506,-212555.2,-375000,-375000,-141950.2,-179232.2,0.03,0.00,0.88,-4,0,-2,59,0
'[12:09:02.740 20/01/2026]',-117223,-170170.8,-164511,-212534.1,-375000,-375000,-141941.9,-179212.8,0.03,0.00,0.88,-4,0,-2,59,0
'[12:09:02.744 20/01/2026]',-117235.5,-170196.2,-164534.7,-212480.6,-375000,-375000,-141941,-179201.8,0.03,0.00,0.88,-4,0,-2,59,0
'[12:09:02.748 20/01/2026]',-117247.8,-170191.8,-164522.1,-212502.3,-375000,-375000,-141945.7,-179205.2,0.03,0.00,0.88,-4,0,-2,59,0
'[12:09:02.752 20/01/2026]',-117251.5,-170177.6,-164498.4,-212573.6,-375000,-375000,-141943.6,-179209.2,0.03,0.00,0.88,-4,0,-2,59,0
'[12:09:02.756 20/01/2026]',-117255.3,-170185.8,-164511.8,-212582.6,-375000,-375000,-141929.6,-179206.4,0.03,0.00,0.88,-4,0,-2,59,0
'[12:09:02.760 20/01/2026]',-117281.9,-170228.1,-164544.5,-212536.3,-375000,-375000,-141934.4,-179205.4,0.03,0.00,0.88,-4,0,-2,59,0
'[12:09:02.764 20/01/2026]',-117292.2,-170240.2,-164545.6,-212537.3,-375000,-375000,-141934.1,-179208.7,0.03,0.00,0.88,-4,0,-2,59,0
'[12:09:02.768 20/01/2026]',-117290.7,-170232,-164533.1,-212608,-375000,-375000,-141941,-179233.4,0.03,0.00,0.88,-4,0,-2,59,0
'[12:09:02.772 20/01/2026]',-117289.8,-170237.7,-164537.8,-212612.4,-375000,-375000,-141930.1,-179229.3,0.03,0.00,0.88,-4,0,-2,59,0
'[12:09:02.776 20/01/2026]',-117339.6,-170283.4,-164564.9,-212540,-375000,-375000,-141929.8,-179223.8,0.03,0.00,0.88,-4,0,-2,59,0
'[12:09:02.780 20/01/2026]',-117371.9,-170322.4,-164573.4,-212518.6,-375000,-375000,-141924.6,-179223.8,0.03,0.00,0.88,-4,0,-2,59,0
'[12:09:02.784 20/01/2026]',-117365.5,-170331.6,-164558.7,-212586.9,-375000,-375000,-141933.8,-179243.7,0.03,0.00,0.88,-4,0,-2,59,0
'[12:09:02.788 20/01/2026]',-117356.8,-170336,-164560.9,-212609,-375000,-375000,-141936.9,-179254.3,0.03,0.00,0.88,-4,0,-2,59,0
'[12:09:02.792 20/01/2026]',-117426,-170392.2,-164586.2,-212545.6,-375000,-375000,-141915.5,-179231,0.03,0.00,0.88,-4,0,-2,59,0
'[12:09:02.796 20/01/2026]',-117479,-170435.7,-164592,-212505.7,-375000,-375000,-141912.4,-179228.4,0.03,0.00,0.88,-4,0,-2,59,0
'[12:09:02.800 20/01/2026]',-117474.5,-170424.5,-164578.3,-212564.1,-375000,-375000,-141917.7,-179244.2,0.03,0.00,0.88,-4,0,-2,59,0
'[12:09:02.804 20/01/2026]',-117481.6,-170416.4,-164577.1,-212604,-375000,-375000,-141914,-179244.5,0.03,0.00,0.88,-4,0,-2,59,0
'[12:09:02.808 20/01/2026]',-117506.6,-170440.4,-164596.6,-212542.8,-375000,-375000,-141905.3,-179222.2,0.03,0.00,0.89,-4,0,-2,59,0
'[12:09:02.812 20/01/2026]',-117523.8,-170457.5,-164618.3,-212494.8,-375000,-375000,-141908.7,-179227.2,0.03,0.00,0.89,-4,0,-2,59,0
'[12:09:02.816 20/01/2026]',-117482.7,-170429,-164607.1,-212542.7,-375000,-375000,-141923.5,-179254.9,0.03,0.00,0.89,-4,0,-2,59,0
'[12:09:02.820 20/01/2026]',-117452.6,-170379.9,-164583.8,-212576.9,-375000,-375000,-141913.9,-179258.6,0.03,0.00,0.89,-4,0,-2,59,0
'[12:09:02.824 20/01/2026]',-117469.2,-170378.6,-164584.4,-212513.6,-375000,-375000,-141901.3,-179230.9,0.03,0.00,0.89,-4,0,-2,59,0
'[12:09:02.828 20/01/2026]',-117457.1,-170403,-164613,-212470.1,-375000,-375000,-141924,-179247.9,0.03,0.00,0.89,-4,0,-2,59,0
'[12:09:02.832 20/01/2026]',-117451.8,-170360.6,-164579.7,-212470.4,-375000,-375000,-141906.2,-179228.6,0.03,0.00,0.89,-4,0,-2,59,0
'[12:09:02.836 20/01/2026]',-117426.3,-170292.6,-164545,-212501.2,-375000,-375000,-141902.3,-179222.9,0.03,0.00,0.89,-4,0,-2,59,0
'[12:09:02.840 20/01/2026]',-117421.9,-170298,-164569.2,-212495.1,-375000,-375000,-141932.2,-179252,0.03,0.00,0.89,-4,0,-2,59,0
'[12:09:02.844 20/01/2026]',-117417.8,-170302.2,-164581.1,-212428.3,-375000,-375000,-141931.7,-179236.6,0.03,0.00,0.86,-4,0,-2,59,0
'[12:09:02.848 20/01/2026]',-117383.2,-170257.7,-164560.8,-212434.8,-375000,-375000,-141918.5,-179222.9,0.03,0.00,0.86,-4,0,-2,59,0
'[12:09:02.852 20/01/2026]',-117341.7,-170213.2,-164527,-212496.7,-375000,-375000,-141921.8,-179234,0.03,0.00,0.86,-4,0,-2,59,0
'[12:09:02.856 20/01/2026]',-117316,-170191,-164522.2,-212471.7,-375000,-375000,-141923.2,-179227.4,0.03,0.00,0.86,-4,0,-2,59,0
'[12:09:02.860 20/01/2026]',-117323.9,-170210.7,-164547.4,-212415,-375000,-375000,-141930.1,-179219.6,0.03,0.00,0.86,-4,0,-2,59,0
'[12:09:02.864 20/01/2026]',-117312.2,-170194,-164540.1,-212419.2,-375000,-375000,-141929.6,-179216.5,0.03,0.00,0.86,-4,0,-2,59,0
'[12:09:02.868 20/01/2026]',-117277,-170145.7,-164507.6,-212493.2,-375000,-375000,-141922.7,-179218,0.03,0.00,0.86,-4,0,-2,59,0
'[12:09:02.872 20/01/2026]',-117263.1,-170129.1,-164500.5,-212512.2,-375000,-375000,-141917.2,-179210.8,0.03,0.00,0.86,-4,0,-2,59,0
'[12:09:02.876 20/01/2026]',-117265,-170146,-164516.8,-212459.5,-375000,-375000,-141917.8,-179199.9,0.03,0.00,0.86,-4,0,-2,59,0
'[12:09:02.880 20/01/2026]',-117260.5,-170157.4,-164526,-212459.6,-375000,-375000,-141925.1,-179210.6,0.03,0.00,0.88,-4,0,-2,59,0
'[12:09:02.884 20/01/2026]',-117233.1,-170121.9,-164499.3,-212528.3,-375000,-375000,-141927.5,-179220.7,0.03,0.00,0.88,-4,0,-2,59,0
'[12:09:02.888 20/01/2026]',-117212,-170097.9,-164486.6,-212556.5,-375000,-375000,-141927.3,-179221.6,0.03,0.00,0.88,-4,0,-2,59,0
'[12:09:02.892 20/01/2026]',-117225.7,-170110.5,-164512.3,-212487.5,-375000,-375000,-141919.9,-179203.7,0.03,0.00,0.88,-4,0,-2,59,0
'[12:09:02.896 20/01/2026]',-117209.8,-170105.7,-164515.8,-212428,-375000,-375000,-141905,-179179.3,0.03,0.00,0.88,-4,0,-2,59,0
'[12:09:02.900 20/01/2026]',-117218.3,-170092.7,-164514.1,-212492,-375000,-375000,-141928.4,-179207.9,0.03,0.00,0.88,-4,0,-2,59,0
'[12:09:02.904 20/01/2026]',-117222,-170084.6,-164512.9,-212545.1,-375000,-375000,-141929.4,-179212.5,0.03,0.00,0.88,-4,0,-2,59,0
'[12:09:02.908 20/01/2026]',-117232,-170105.9,-164527.7,-212502.3,-375000,-375000,-141930.5,-179212.8,0.03,0.00,0.88,-4,0,-2,59,0
'[12:09:02.912 20/01/2026]',-117238.3,-170129.1,-164551.2,-212467.3,-375000,-375000,-141935.2,-179223.9,0.03,0.00,0.88,-4,0,-2,59,0
'[12:09:02.916 20/01/2026]',-117217.7,-170099.5,-164524.5,-212516.4,-375000,-375000,-141918.2,-179221.8,0.03,-0.02,0.88,-4,0,-2,59,0
'[12:09:02.920 20/01/2026]',-117191.5,-170065.7,-164503.6,-212599.1,-375000,-375000,-141913.1,-179245.5,0.03,-0.02,0.88,-4,0,-2,59,0
'[12:09:02.924 20/01/2026]',-117199.2,-170075.8,-164530.6,-212613.8,-375000,-375000,-141920.2,-179261.8,0.03,-0.02,0.88,-4,0,-2,59,0
'[12:09:02.928 20/01/2026]',-117217.6,-170097.3,-164564.3,-212609.9,-375000,-375000,-141924.7,-179285.6,0.03,-0.02,0.88,-4,0,-2,59,0
'[12:09:02.932 20/01/2026]',-117203.1,-170079.7,-164564.7,-212683.6,-375000,-375000,-141922.1,-179326.8,0.03,-0.02,0.88,-4,0,-2,59,0
'[12:09:02.936 20/01/2026]',-117174.9,-170048.1,-164559.9,-212784,-375000,-375000,-141916.7,-179362.5,0.03,-0.02,0.88,-4,0,-2,59,0
'[12:09:02.940 20/01/2026]',-117188.4,-170070.6,-164576.1,-212841.8,-375000,-375000,-141927.8,-179442.1,0.03,-0.02,0.88,-4,0,-2,59,0
'[12:09:02.944 20/01/2026]',-117219.7,-170112.9,-164604.1,-212879.2,-375000,-375000,-141938.3,-179525.1,0.03,-0.02,0.88,-4,0,-2,59,0
'[12:09:02.948 20/01/2026]',-117225.1,-170126.8,-164601.7,-212970.9,-375000,-375000,-141942.6,-179595.3,0.03,-0.02,0.88,-4,0,-2,59,0
'[12:09:02.952 20/01/2026]',-117203.9,-170118,-164566.9,-213087.5,-375000,-375000,-141934.8,-179650,0.03,0.02,0.88,-4,0,-2,59,0
'[12:09:02.956 20/01/2026]',-117205.1,-170129.6,-164564.9,-213144.9,-375000,-375000,-141920.5,-179659.4,0.03,0.02,0.88,-4,0,-2,59,0
'[12:09:02.960 20/01/2026]',-117220.5,-170144.9,-164569.5,-213114.9,-375000,-375000,-141908.2,-179657.9,0.03,0.02,0.88,-4,0,-2,59,0
'[12:09:02.964 20/01/2026]',-117207.4,-170127.2,-164561.8,-213143.4,-375000,-375000,-141901.8,-179639,0.03,0.02,0.88,-4,0,-2,59,0
'[12:09:02.968 20/01/2026]',-117185.1,-170119.3,-164544.1,-213266.2,-375000,-375000,-141881.5,-179600.6,0.03,0.02,0.88,-4,0,-2,59,0
'[12:09:02.972 20/01/2026]',-117173.8,-170145.8,-164535.3,-213319,-375000,-375000,-141849.6,-179573,0.03,0.02,0.88,-4,0,-2,59,0
'[12:09:02.976 20/01/2026]',-117187,-170168.5,-164565.4,-213275.6,-375000,-375000,-141848.3,-179562.7,0.03,0.02,0.88,-4,0,-2,59,0
'[12:09:02.980 20/01/2026]',-117196.9,-170182.3,-164595.8,-213305.8,-375000,-375000,-141874.7,-179609.4,0.03,0.02,0.88,-4,0,-2,59,0
'[12:09:02.984 20/01/2026]',-117169.8,-170167.7,-164572.2,-213413.6,-375000,-375000,-141870.2,-179670.3,0.03,0.02,0.88,-4,0,-2,59,0
'[12:09:02.988 20/01/2026]',-117122.1,-170127.2,-164523.7,-213404.5,-375000,-375000,-141823.9,-179737.9,0.03,0.00,0.88,-4,0,-2,59,0
'[12:09:02.992 20/01/2026]',-117119.9,-170126.1,-164531.8,-213323.6,-375000,-375000,-141819.6,-179841.9,0.03,0.00,0.88,-4,0,-2,59,0
'[12:09:02.996 20/01/2026]',-117121.8,-170130.4,-164535.7,-213260.3,-375000,-375000,-141809,-179878.8,0.03,0.00,0.88,-4,0,-2,59,0
'[12:09:03.000 20/01/2026]',-117088.4,-170093.7,-164505.6,-213267.2,-375000,-375000,-141791.1,-179850.8,0.03,0.00,0.88,-4,0,-2,59,0
'[12:09:03.004 20/01/2026]',-117049.2,-170043.2,-164480.3,-213287.1,-375000,-375000,-141786.1,-179818.3,0.03,0.00,0.88,-4,0,-2,59,0
'[12:09:03.008 20/01/2026]',-117065.6,-170053.4,-164503.9,-213253.6,-375000,-375000,-141819.6,-179818.5,0.03,0.00,0.88,-4,0,-2,59,0
'[12:09:03.012 20/01/2026]',-117076.5,-170075.4,-164513.7,-213187.2,-375000,-375000,-141793.2,-179757.7,0.03,0.00,0.88,-4,0,-2,59,0
'[12:09:03.016 20/01/2026]',-117034.3,-170026.2,-164467,-213164.7,-375000,-375000,-141739.3,-179682.8,0.03,0.00,0.88,-4,0,-2,59,0
'[12:09:03.020 20/01/2026]',-117013.7,-169993,-164457.6,-213168.8,-375000,-375000,-141755,-179650.8,0.03,0.00,0.88,-4,0,-2,59,0
'[12:09:03.024 20/01/2026]',-117031.8,-170017.3,-164490.7,-213110,-375000,-375000,-141782.4,-179605.1,0.02,0.00,0.88,-4,0,-2,59,0
'[12:09:03.028 20/01/2026]',-117047.1,-170035.4,-164506.9,-213024.9,-375000,-375000,-141785.6,-179560.3,0.02,0.00,0.88,-4,0,-2,59,0
'[12:09:03.032 20/01/2026]',-117029.9,-170011.5,-164485,-213011,-375000,-375000,-141786.2,-179539.2,0.02,0.00,0.88,-4,0,-2,59,0
'[12:09:03.036 20/01/2026]',-117004.7,-169981.1,-164461.5,-213006.8,-375000,-375000,-141790.6,-179515.1,0.02,0.00,0.88,-4,0,-2,59,0
'[12:09:03.040 20/01/2026]',-117001.4,-169982.8,-164464,-212934.4,-375000,-375000,-141788.5,-179455,0.02,0.00,0.88,-4,0,-2,59,0
'[12:09:03.044 20/01/2026]',-117015.9,-169999.5,-164477.1,-212855.4,-375000,-375000,-141792,-179385.5,0.02,0.00,0.88,-4,0,-2,59,0
'[12:09:03.048 20/01/2026]',-117002.7,-169977.2,-164455.9,-212848.1,-375000,-375000,-141798.8,-179341,0.02,0.00,0.88,-4,0,-2,59,0
'[12:09:03.052 20/01/2026]',-116979.2,-169934.7,-164415.9,-212858.3,-375000,-375000,-141798.1,-179298,0.02,0.00,0.88,-4,0,-2,59,0
'[12:09:03.056 20/01/2026]',-116981,-169927.1,-164406.1,-212784.1,-375000,-375000,-141800.8,-179247.6,0.02,0.00,0.88,-4,0,-2,59,0
'[12:09:03.060 20/01/2026]',-116997.1,-169935.9,-164407.5,-212659.5,-375000,-375000,-141791.9,-179187,0.02,0.00,0.88,-4,0,-2,59,0
'[12:09:03.064 20/01/2026]',-116991.4,-169923.3,-164380.9,-212593.2,-375000,-375000,-141760.4,-179084,0.02,0.00,0.88,-4,0,-2,59,0
'[12:09:03.068 20/01/2026]',-116970.8,-169891.8,-164339.5,-212597.8,-375000,-375000,-141759.9,-179040.1,0.02,0.00,0.88,-4,0,-2,59,0
'[12:09:03.072 20/01/2026]',-116957.5,-169871.4,-164322.6,-212579.7,-375000,-375000,-141752.8,-179021.3,0.02,0.00,0.88,-4,0,-2,59,0
'[12:09:03.076 20/01/2026]',-116974.2,-169894.1,-164341.9,-212535.4,-375000,-375000,-141759.2,-179011.8,0.02,0.00,0.88,-4,0,-2,59,0
'[12:09:03.080 20/01/2026]',-116987.4,-169911,-164351.3,-212545.5,-375000,-375000,-141782.9,-179032.5,0.02,0.00,0.88,-4,0,-2,59,0
'[12:09:03.084 20/01/2026]',-116968.3,-169883.4,-164309.9,-212595.1,-375000,-375000,-141765.7,-179010.9,0.02,0.00,0.88,-4,0,-2,59,0
'[12:09:03.088 20/01/2026]',-116946.6,-169862.1,-164283.3,-212595.3,-375000,-375000,-141722,-178958.3,0.02,0.00,0.88,-4,0,-2,59,0
'[12:09:03.092 20/01/2026]',-116968.4,-169891.9,-164312.3,-212526.2,-375000,-375000,-141750.9,-178966.3,0.02,0.00,0.88,-4,0,-2,59,0
'[12:09:03.096 20/01/2026]',-116985.8,-169911,-164328,-212499.5,-375000,-375000,-141763.9,-178979,0.02,0.00,0.88,-4,0,-2,59,0
'[12:09:03.100 20/01/2026]',-116964.5,-169877.5,-164288,-212551.8,-375000,-375000,-141746.3,-178966.7,0.02,0.00,0.88,-4,0,-2,59,0
'[12:09:03.104 20/01/2026]',-116942.7,-169863.4,-164274.1,-212605.8,-375000,-375000,-141759,-178974.2,0.02,0.00,0.88,-4,0,-2,59,0
'[12:09:03.108 20/01/2026]',-116956.9,-169887,-164305.5,-212629,-375000,-375000,-141783.7,-178974.9,0.02,0.00,0.88,-4,0,-2,59,0
'[12:09:03.112 20/01/2026]',-116953.8,-169893.6,-164316.2,-212639.9,-375000,-375000,-141750.5,-178951.4,0.02,0.00,0.88,-4,0,-2,59,0
'[12:09:03.116 20/01/2026]',-116934.8,-169878.4,-164279.7,-212672.6,-375000,-375000,-141712,-178942.7,0.02,0.00,0.88,-4,0,-2,59,0
'[12:09:03.120 20/01/2026]',-116940.3,-169866.7,-164256.6,-212724.9,-375000,-375000,-141710.6,-178968.4,0.02,0.00,0.88,-4,0,-2,59,0
'[12:09:03.124 20/01/2026]',-116982.6,-169912,-164288.3,-212738.6,-375000,-375000,-141728.7,-179000.9,0.02,0.00,0.88,-4,0,-2,59,0
'[12:09:03.128 20/01/2026]',-117007,-169951.5,-164321.9,-212770.8,-375000,-375000,-141741.1,-179021,0.02,0.00,0.88,-4,0,-2,59,0
'[12:09:03.132 20/01/2026]',-116990.9,-169925.2,-164311.7,-212905.5,-375000,-375000,-141731.3,-179047,0.03,0.00,0.88,-4,0,-2,59,0
'[12:09:03.136 20/01/2026]',-116950.3,-169879.6,-164291.8,-213018,-375000,-375000,-141713.7,-179061.6,0.03,0.00,0.88,-4,0,-2,59,0
'[12:09:03.140 20/01/2026]',-116952.9,-169886.5,-164314.3,-213009.8,-375000,-375000,-141717.2,-179073,0.03,0.00,0.88,-4,0,-2,59,0
'[12:09:03.144 20/01/2026]',-116982.5,-169905.6,-164350.8,-212953.5,-375000,-375000,-141733.4,-179080.4,0.03,0.00,0.88,-4,0,-2,59,0
'[12:09:03.148 20/01/2026]',-116987.8,-169884.9,-164337.3,-212978,-375000,-375000,-141741.1,-179091.9,0.03,0.00,0.88,-4,0,-2,59,0
'[12:09:03.152 20/01/2026]',-116966.7,-169853.2,-164306.2,-213024.7,-375000,-375000,-141740.6,-179099.5,0.03,0.00,0.88,-4,0,-2,59,0
'[12:09:03.156 20/01/2026]',-116971.5,-169869.2,-164315.9,-212973.7,-375000,-375000,-141729.8,-179098.5,0.03,0.00,0.88,-4,0,-2,59,0
'[12:09:03.160 20/01/2026]',-116996.9,-169918.3,-164348.8,-212853.8,-375000,-375000,-141740.2,-179110.7,0.03,0.00,0.88,-4,0,-2,59,0
'[12:09:03.164 20/01/2026]',-116986.3,-169919.3,-164337.1,-212790.3,-375000,-375000,-141741.7,-179115.7,0.03,0.00,0.88,-4,0,-2,59,0
'[12:09:03.168 20/01/2026]',-116960.1,-169896.9,-164303.7,-212779.5,-375000,-375000,-141745,-179118.9,0.03,0.00,0.89,-4,0,-2,59,0
'[12:09:03.172 20/01/2026]',-116973.1,-169899.7,-164300.6,-212754.2,-375000,-375000,-141757,-179112,0.03,0.00,0.89,-4,0,-2,59,0
'[12:09:03.176 20/01/2026]',-116998.1,-169930,-164328,-212653.9,-375000,-375000,-141784.3,-179105.6,0.03,0.00,0.89,-4,0,-2,59,0
'[12:09:03.180 20/01/2026]',-116980.1,-169924,-164322.7,-212565.3,-375000,-375000,-141769.2,-179078.6,0.03,0.00,0.89,-4,0,-2,59,0
'[12:09:03.184 20/01/2026]',-116943.5,-169880.5,-164287.8,-212553.9,-375000,-375000,-141753.4,-179067.8,0.03,0.00,0.89,-4,0,-2,59,0
'[12:09:03.188 20/01/2026]',-116946.1,-169868.6,-164267.2,-212510.9,-375000,-375000,-141750.3,-179059.5,0.03,0.00,0.89,-4,0,-2,59,0
'[12:09:03.192 20/01/2026]',-116991.8,-169918.9,-164308.3,-212426.9,-375000,-375000,-141771.6,-179060.7,0.03,0.00,0.89,-4,0,-2,59,0
'[12:09:03.196 20/01/2026]',-117011.5,-169941.1,-164334.4,-212376.3,-375000,-375000,-141790.7,-179060.5,0.03,0.00,0.89,-4,0,-2,59,0
'[12:09:03.200 20/01/2026]',-116986.3,-169907.9,-164310.3,-212423.9,-375000,-375000,-141801.9,-179066.8,0.03,0.00,0.89,-4,0,-2,59,0
'[12:09:03.204 20/01/2026]',-116953.1,-169876.2,-164284.4,-212451.5,-375000,-375000,-141795.3,-179050.5,0.03,0.00,0.88,-4,0,-2,59,0
'[12:09:03.208 20/01/2026]',-116967.4,-169897.7,-164305.4,-212380,-375000,-375000,-141804.9,-179045,0.03,0.00,0.88,-4,0,-2,59,0
'[12:09:03.212 20/01/2026]',-116979.3,-169929.9,-164334.4,-212323.2,-375000,-375000,-141818.4,-179057.7,0.03,0.00,0.88,-4,0,-2,59,0
'[12:09:03.216 20/01/2026]',-116979.9,-169923.4,-164323.3,-212364.5,-375000,-375000,-141836.8,-179076.6,0.03,0.00,0.88,-4,0,-2,59,0
'[12:09:03.220 20/01/2026]',-116976,-169907.9,-164313.1,-212410.8,-375000,-375000,-141856.4,-179100.5,0.03,0.00,0.88,-4,0,-2,59,0
'[12:09:03.224 20/01/2026]',-116986.7,-169927.4,-164324.7,-212335.2,-375000,-375000,-141863.8,-179097.8,0.03,0.00,0.88,-4,0,-2,59,0
'[12:09:03.228 20/01/2026]',-117008.4,-169955.5,-164347.7,-212213.7,-375000,-375000,-141867.2,-179083.9,0.03,0.00,0.88,-4,0,-2,59,0
'[12:09:03.232 20/01/2026]',-116969.5,-169915.6,-164299.2,-212161.2,-375000,-375000,-141846.7,-179056.3,0.03,0.00,0.88,-4,0,-2,59,0
'[12:09:03.236 20/01/2026]',-116936.5,-169874,-164254.4,-212163.3,-375000,-375000,-141843.5,-179044.7,0.03,0.00,0.88,-4,0,-2,59,0
'[12:09:03.240 20/01/2026]',-116979.5,-169916.2,-164302,-212097.9,-375000,-375000,-141907.1,-179068.3,0.03,0.00,0.89,-4,0,-2,59,0
'[12:09:03.244 20/01/2026]',-117005.5,-169942.3,-164333.2,-211959.1,-375000,-375000,-141910.2,-179044.4,0.03,0.00,0.89,-4,0,-2,59,0
'[12:09:03.248 20/01/2026]',-117001.7,-169938.3,-164336.5,-211954.8,-375000,-375000,-141899.2,-179030.3,0.03,0.00,0.89,-4,0,-2,59,0
'[12:09:03.252 20/01/2026]',-116972.1,-169901,-164305.3,-211992.7,-375000,-375000,-141890,-179019,0.03,0.00,0.89,-4,0,-2,59,0
'[12:09:03.256 20/01/2026]',-116970.3,-169905.7,-164318.4,-211984.6,-375000,-375000,-141888.7,-179007.3,0.03,0.00,0.89,-4,0,-2,59,0
'[12:09:03.260 20/01/2026]',-117005.3,-169943,-164364.6,-211938.4,-375000,-375000,-141909.8,-179014.3,0.03,0.00,0.89,-4,0,-2,59,0
'[12:09:03.264 20/01/2026]',-117002.8,-169940.8,-164377.6,-211958.1,-375000,-375000,-141917.1,-179027,0.03,0.00,0.89,-4,0,-2,59,0
'[12:09:03.268 20/01/2026]',-116975,-169904.6,-164356.1,-212058.7,-375000,-375000,-141914.4,-179044.1,0.03,0.00,0.89,-4,0,-2,59,0
'[12:09:03.272 20/01/2026]',-116975.7,-169903.7,-164371.4,-212114.6,-375000,-375000,-141921,-179056.8,0.03,0.00,0.89,-4,0,-2,59,0
'[12:09:03.276 20/01/2026]',-117011.4,-169941.1,-164422.4,-212078.8,-375000,-375000,-141944.3,-179079.4,0.03,0.00,0.88,-4,0,-2,59,0
'[12:09:03.280 20/01/2026]',-117017.7,-169951.3,-164444.5,-212094.7,-375000,-375000,-141955.8,-179102,0.03,0.00,0.88,-4,0,-2,59,0
'[12:09:03.284 20/01/2026]',-116986.2,-169920.7,-164419.5,-212202.8,-375000,-375000,-141942.3,-179124,0.03,0.00,0.88,-4,0,-2,59,0
'[12:09:03.288 20/01/2026]',-116980.1,-169901.8,-164416.8,-212268.8,-375000,-375000,-141934.4,-179142.5,0.03,0.00,0.88,-4,0,-2,59,0
'[12:09:03.292 20/01/2026]',-117010,-169935.8,-164464.4,-212243.2,-375000,-375000,-141957.9,-179171.1,0.03,0.00,0.88,-4,0,-2,59,0
'[12:09:03.296 20/01/2026]',-117011.2,-169955.8,-164466.5,-212216.5,-375000,-375000,-141938.9,-179172.4,0.03,0.00,0.88,-4,0,-2,59,0
'[12:09:03.300 20/01/2026]',-116994,-169923,-164427.9,-212287.3,-375000,-375000,-141925.8,-179180.8,0.03,0.00,0.88,-4,0,-2,59,0
'[12:09:03.304 20/01/2026]',-116978.6,-169897.4,-164406,-212335.5,-375000,-375000,-141915.5,-179189.8,0.03,0.00,0.88,-4,0,-2,59,0
'[12:09:03.308 20/01/2026]',-117007.4,-169926.1,-164436.2,-212273.9,-375000,-375000,-141929.4,-179197.6,0.03,0.00,0.88,-4,0,-2,59,0
'[12:09:03.312 20/01/2026]',-117026,-169949.1,-164461.1,-212222.8,-375000,-375000,-141941.9,-179211.1,0.03,0.00,0.89,-4,0,-2,59,0
'[12:09:03.316 20/01/2026]',-117007.1,-169928.9,-164440.5,-212278,-375000,-375000,-141945.3,-179236.3,0.03,0.00,0.89,-4,0,-2,59,0
'[12:09:03.320 20/01/2026]',-116984.1,-169909.2,-164420.9,-212350.7,-375000,-375000,-141956.5,-179255.9,0.03,0.00,0.89,-4,0,-2,59,0
'[12:09:03.324 20/01/2026]',-116977.3,-169902.3,-164422,-212298.3,-375000,-375000,-141949.7,-179234.7,0.03,0.00,0.89,-4,0,-2,59,0
'[12:09:03.328 20/01/2026]',-116988.5,-169929.7,-164444.1,-212225.7,-375000,-375000,-141932.9,-179220.8,0.03,0.00,0.89,-4,0,-2,59,0
'[12:09:03.332 20/01/2026]',-116982.7,-169926.1,-164441.6,-212275.4,-375000,-375000,-141941.6,-179229.5,0.03,0.00,0.89,-4,0,-2,59,0
'[12:09:03.336 20/01/2026]',-116964.8,-169888.9,-164419.5,-212354.9,-375000,-375000,-141937.4,-179227.2,0.03,0.00,0.89,-4,0,-2,59,0
'[12:09:03.340 20/01/2026]',-116982.9,-169923.1,-164445.7,-212348,-375000,-375000,-141949.7,-179225.5,0.03,0.00,0.89,-4,0,-2,59,0
'[12:09:03.344 20/01/2026]',-117001.7,-169957.2,-164468,-212277.1,-375000,-375000,-141950.9,-179195.9,0.03,0.00,0.89,-4,0,-2,59,0
'[12:09:03.348 20/01/2026]',-116975.8,-169935.7,-164452.5,-212305.3,-375000,-375000,-141950.3,-179188.8,0.03,0.00,0.89,-4,0,-2,59,0
'[12:09:03.352 20/01/2026]',-116946.1,-169903.4,-164426.8,-212399,-375000,-375000,-141958.7,-179210.4,0.03,0.00,0.89,-4,0,-2,59,0
'[12:09:03.356 20/01/2026]',-116983.9,-169937,-164424.2,-212410.3,-375000,-375000,-141932.5,-179191.2,0.03,0.00,0.89,-4,0,-2,59,0
'[12:09:03.360 20/01/2026]',-117033.1,-169990.7,-164452.2,-212356.3,-375000,-375000,-141934.8,-179178.4,0.03,0.00,0.89,-4,0,-2,59,0
'[12:09:03.364 20/01/2026]',-117041.2,-170006.8,-164452.6,-212372.5,-375000,-375000,-141942.3,-179189.7,0.03,0.00,0.89,-4,0,-2,59,0
'[12:09:03.368 20/01/2026]',-117030.6,-169988,-164413.6,-212455.2,-375000,-375000,-141922.5,-179186.1,0.03,0.00,0.89,-4,0,-2,59,0
'[12:09:03.372 20/01/2026]',-117052.4,-170004.9,-164412.2,-212479.1,-375000,-375000,-141909.4,-179175.8,0.03,0.00,0.89,-4,0,-2,59,0
'[12:09:03.376 20/01/2026]',-117090.2,-170046.3,-164441.4,-212406.7,-375000,-375000,-141912.4,-179162.4,0.03,0.00,0.89,-4,0,-2,59,0
'[12:09:03.380 20/01/2026]',-117104.2,-170057.5,-164453.5,-212383.1,-375000,-375000,-141922.5,-179157.2,0.03,0.00,0.89,-4,0,-2,59,0
'[12:09:03.384 20/01/2026]',-117095.4,-170025.2,-164422,-212446,-375000,-375000,-141922,-179166.1,0.02,0.00,0.88,-4,0,-2,59,0
'[12:09:03.388 20/01/2026]',-117111,-170044.9,-164423.1,-212476.8,-375000,-375000,-141930,-179177.5,0.02,0.00,0.88,-4,0,-2,59,0
'[12:09:03.392 20/01/2026]',-117140.8,-170076.4,-164461.2,-212402.5,-375000,-375000,-141938.2,-179178.5,0.02,0.00,0.88,-4,0,-2,59,0
'[12:09:03.396 20/01/2026]',-117151.3,-170092.9,-164470.2,-212353.5,-375000,-375000,-141938.1,-179176.9,0.02,0.00,0.88,-4,0,-2,59,0
'[12:09:03.400 20/01/2026]',-117129.9,-170073.7,-164449.3,-212404.9,-375000,-375000,-141941.2,-179189.9,0.02,0.00,0.88,-4,0,-2,59,0
'[12:09:03.404 20/01/2026]',-117130.8,-170040.4,-164421.3,-212428.2,-375000,-375000,-141935.8,-179180.9,0.02,0.00,0.88,-4,0,-2,59,0
'[12:09:03.408 20/01/2026]',-117145.3,-170058.1,-164435.4,-212368.7,-375000,-375000,-141933.7,-179170,0.02,0.00,0.88,-4,0,-2,59,0
'[12:09:03.412 20/01/2026]',-117148.1,-170075.8,-164456,-212326.8,-375000,-375000,-141927.9,-179168.4,0.02,0.00,0.88,-4,0,-2,59,0
'[12:09:03.416 20/01/2026]',-117132.6,-170058,-164441.2,-212408.5,-375000,-375000,-141943.5,-179197.5,0.02,0.00,0.88,-4,0,-2,59,0
'[12:09:03.420 20/01/2026]',-117117.4,-170027.8,-164423.7,-212465.2,-375000,-375000,-141944.6,-179205.6,0.02,0.00,0.88,-4,0,-2,59,0
'[12:09:03.424 20/01/2026]',-117121,-170035.2,-164435.2,-212416,-375000,-375000,-141934.1,-179192.3,0.02,0.00,0.88,-4,0,-2,59,0
'[12:09:03.428 20/01/2026]',-117136.1,-170064.8,-164457.2,-212353.8,-375000,-375000,-141937.9,-179193.6,0.02,0.00,0.88,-4,0,-2,59,0
'[12:09:03.432 20/01/2026]',-117114.5,-170040,-164433.1,-212383.3,-375000,-375000,-141930,-179195.9,0.02,0.00,0.88,-4,0,-2,59,0
'[12:09:03.436 20/01/2026]',-117083.8,-169999.4,-164402.4,-212448.2,-375000,-375000,-141922.2,-179205.3,0.02,0.00,0.88,-4,0,-2,59,0
'[12:09:03.440 20/01/2026]',-117075,-169996.3,-164410.8,-212410.9,-375000,-375000,-141910.6,-179191.8,0.02,0.00,0.88,-4,0,-2,59,0
'[12:09:03.444 20/01/2026]',-117067.9,-169995.1,-164403.8,-212298.5,-375000,-375000,-141874,-179143.4,0.02,0.00,0.88,-4,0,-2,59,0
'[12:09:03.448 20/01/2026]',-117057.5,-169989.9,-164393.7,-212313.9,-375000,-375000,-141897.3,-179165.7,0.02,0.00,0.88,-4,0,-2,59,0
'[12:09:03.452 20/01/2026]',-117029.9,-169953.7,-164360,-212377.4,-375000,-375000,-141905,-179178.2,0.02,0.00,0.88,-4,0,-2,59,0
'[12:09:03.456 20/01/2026]',-117030.8,-169952.7,-164360.1,-212342.8,-375000,-375000,-141896.6,-179173.7,0.03,0.00,0.88,-4,0,-2,59,0
'[12:09:03.460 20/01/2026]',-117040.9,-169973.8,-164381.5,-212265.1,-375000,-375000,-141908.1,-179168,0.03,0.00,0.88,-4,0,-2,59,0
'[12:09:03.464 20/01/2026]',-117033.4,-169961.4,-164377,-212254.8,-375000,-375000,-141913.6,-179159.4,0.03,0.00,0.88,-4,0,-2,59,0
'[12:09:03.468 20/01/2026]',-117025.5,-169942.6,-164364.4,-212328.7,-375000,-375000,-141932.1,-179187.6,0.03,0.00,0.88,-4,0,-2,59,0
'[12:09:03.472 20/01/2026]',-117033.4,-169964.7,-164380,-212340.9,-375000,-375000,-141948.6,-179205.2,0.03,0.00,0.88,-4,0,-2,59,0
'[12:09:03.476 20/01/2026]',-117068.4,-170014.5,-164430.6,-212283.2,-375000,-375000,-141960.6,-179206,0.03,0.00,0.88,-4,0,-2,59,0
'[12:09:03.480 20/01/2026]',-117075,-170023.1,-164444.1,-212260.5,-375000,-375000,-141964,-179201.4,0.03,0.00,0.88,-4,0,-2,59,0
'[12:09:03.484 20/01/2026]',-117056.6,-169986.7,-164427.5,-212313.1,-375000,-375000,-141971.8,-179211.5,0.03,0.00,0.88,-4,0,-2,59,0
'[12:09:03.488 20/01/2026]',-117026.9,-169967.3,-164428.3,-212328.7,-375000,-375000,-141965.8,-179204.2,0.03,0.00,0.88,-4,0,-2,59,0
'[12:09:03.492 20/01/2026]',-117048.4,-169999,-164465.3,-212256.9,-375000,-375000,-141962.2,-179188.8,0.02,0.00,0.88,-4,0,-2,59,0
'[12:09:03.496 20/01/2026]',-117077.2,-170013.4,-164477.6,-212209.1,-375000,-375000,-141968,-179185,0.02,0.00,0.88,-4,0,-2,59,0
'[12:09:03.500 20/01/2026]',-117071.9,-169995.3,-164466.6,-212271.7,-375000,-375000,-141987.9,-179206.2,0.02,0.00,0.88,-4,0,-2,59,0
'[12:09:03.504 20/01/2026]',-117053.6,-169975.3,-164459.9,-212296.4,-375000,-375000,-141983.3,-179203.5,0.02,0.00,0.88,-4,0,-2,59,0
'[12:09:03.508 20/01/2026]',-117072.9,-170004.8,-164490.5,-212242.7,-375000,-375000,-141987.3,-179201.8,0.02,0.00,0.88,-4,0,-2,59,0
'[12:09:03.512 20/01/2026]',-117090.4,-170036.7,-164519.5,-212199.7,-375000,-375000,-141988.4,-179189.7,0.02,0.00,0.88,-4,0,-2,59,0
'[12:09:03.516 20/01/2026]',-117074.4,-170008.5,-164508.8,-212233.4,-375000,-375000,-141997.1,-179191.9,0.02,0.00,0.88,-4,0,-2,59,0
'[12:09:03.520 20/01/2026]',-117047.4,-169976.8,-164484.6,-212288.1,-375000,-375000,-141993.7,-179193.6,0.02,0.00,0.88,-4,0,-2,59,0
'[12:09:03.524 20/01/2026]',-117055.5,-169984.8,-164493.2,-212259.1,-375000,-375000,-141991.8,-179191.2,0.02,0.00,0.88,-4,0,-2,59,0
'[12:09:03.528 20/01/2026]',-117078.9,-170018.1,-164510.6,-212216.7,-375000,-375000,-141996.7,-179197.2,0.03,0.00,0.88,-4,0,-2,59,0
'[12:09:03.532 20/01/2026]',-117066.3,-170013.1,-164490.1,-212264,-375000,-375000,-141993.1,-179210.9,0.03,0.00,0.88,-4,0,-2,59,0
'[12:09:03.536 20/01/2026]',-117040.7,-169970.7,-164460.5,-212328.9,-375000,-375000,-141990.3,-179217.1,0.03,0.00,0.88,-4,0,-2,59,0
'[12:09:03.540 20/01/2026]',-117051.7,-169970.7,-164462.4,-212293.3,-375000,-375000,-141995.8,-179217.6,0.03,0.00,0.88,-4,0,-2,59,0
'[12:09:03.544 20/01/2026]',-117059,-170013,-164476.3,-212225.1,-375000,-375000,-141994.8,-179217.7,0.03,0.00,0.88,-4,0,-2,59,0
'[12:09:03.548 20/01/2026]',-117041.2,-170009.6,-164452.6,-212225.3,-375000,-375000,-141978,-179209.8,0.03,0.00,0.88,-4,0,-2,59,0
'[12:09:03.552 20/01/2026]',-117022.7,-169970.6,-164414.2,-212272.4,-375000,-375000,-141962.2,-179204.4,0.03,0.00,0.88,-4,0,-2,59,0
'[12:09:03.556 20/01/2026]',-117034.8,-169987.7,-164425.8,-212304.7,-375000,-375000,-141969.1,-179209.4,0.03,0.00,0.88,-4,0,-2,59,0
'[12:09:03.560 20/01/2026]',-117052.8,-170021.6,-164450.6,-212270.7,-375000,-375000,-141989.1,-179225,0.03,0.00,0.88,-4,0,-2,59,0
'[12:09:03.564 20/01/2026]',-117042.5,-170006.4,-164436.1,-212253.7,-375000,-375000,-141983.6,-179220.1,0.02,0.00,0.88,-4,0,-2,59,0
'[12:09:03.568 20/01/2026]',-117006.3,-169957.9,-164401.9,-212290.1,-375000,-375000,-141983.1,-179218.6,0.02,0.00,0.88,-4,0,-2,59,0
'[12:09:03.572 20/01/2026]',-117010.7,-169943.5,-164391.6,-212277,-375000,-375000,-141970.5,-179201.3,0.02,0.00,0.88,-4,0,-2,59,0
'[12:09:03.576 20/01/2026]',-117050.2,-169974.9,-164419.7,-212210.1,-375000,-375000,-141964.6,-179197.8,0.02,0.00,0.88,-4,0,-2,59,0
'[12:09:03.580 20/01/2026]',-117060.2,-169991.1,-164438.7,-212211.3,-375000,-375000,-141997.7,-179227.8,0.02,0.00,0.88,-4,0,-2,59,0
'[12:09:03.584 20/01/2026]',-117047.9,-169969.6,-164420,-212291.1,-375000,-375000,-142012.8,-179255,0.02,0.00,0.88,-4,0,-2,59,0
'[12:09:03.588 20/01/2026]',-117027.2,-169942.5,-164392.1,-212302.3,-375000,-375000,-141980.8,-179233.2,0.02,0.00,0.88,-4,0,-2,59,0
'[12:09:03.592 20/01/2026]',-117042.7,-169961.7,-164405.4,-212229.6,-375000,-375000,-141966.5,-179214.8,0.02,0.00,0.88,-4,0,-2,59,0
'[12:09:03.596 20/01/2026]',-117055.4,-169974.2,-164415.5,-212199.2,-375000,-375000,-141970.5,-179209.5,0.02,0.00,0.88,-4,0,-2,59,0
'[12:09:03.600 20/01/2026]',-117037,-169940.4,-164387.3,-212255.9,-375000,-375000,-141983.1,-179227.3,0.02,0.02,0.89,-4,0,-2,59,0
'[12:09:03.604 20/01/2026]',-117022.1,-169915.2,-164369.2,-212289.7,-375000,-375000,-141983.5,-179233.9,0.02,0.02,0.89,-4,0,-2,59,0
'[12:09:03.608 20/01/2026]',-117035,-169941.8,-164388.2,-212238.9,-375000,-375000,-141971.7,-179233.8,0.02,0.02,0.89,-4,0,-2,59,0
'[12:09:03.612 20/01/2026]',-117051.5,-169964.4,-164411.8,-212198,-375000,-375000,-141968.5,-179230,0.02,0.02,0.89,-4,0,-2,59,0
'[12:09:03.616 20/01/2026]',-117051.1,-169955.1,-164414.2,-212253.5,-375000,-375000,-141994.6,-179268.1,0.02,0.02,0.89,-4,0,-2,59,0
'[12:09:03.620 20/01/2026]',-117030.6,-169949.5,-164409.6,-212308.2,-375000,-375000,-142008.6,-179288.9,0.02,0.02,0.89,-4,0,-2,59,0
'[12:09:03.624 20/01/2026]',-117015.7,-169938.2,-164420.5,-212240.8,-375000,-375000,-142006.9,-179267.7,0.02,0.02,0.89,-4,0,-2,59,0
'[12:09:03.628 20/01/2026]',-117042.9,-169946.6,-164427.5,-212135.8,-375000,-375000,-141957.1,-179203.9,0.02,0.02,0.89,-4,0,-2,59,0
'[12:09:03.632 20/01/2026]',-117079.1,-169964.5,-164422.6,-212167.5,-375000,-375000,-141946,-179200,0.02,0.02,0.89,-4,0,-2,59,0
'[12:09:03.636 20/01/2026]',-117078.9,-169959.9,-164423.9,-212259.9,-375000,-375000,-141976.5,-179229.6,0.03,-0.02,0.88,-4,0,-2,59,0
'[12:09:03.640 20/01/2026]',-117074.9,-169960.8,-164430.9,-212230,-375000,-375000,-141962.7,-179194.4,0.03,-0.02,0.88,-4,0,-2,59,0
'[12:09:03.644 20/01/2026]',-117124.9,-169992.2,-164456.4,-212177.1,-375000,-375000,-141938.6,-179159.5,0.03,-0.02,0.88,-4,0,-2,59,0
'[12:09:03.648 20/01/2026]',-117134.7,-170007.7,-164475.6,-212235.9,-375000,-375000,-141960,-179179.2,0.03,-0.02,0.88,-4,0,-2,59,0
'[12:09:03.652 20/01/2026]',-117123.3,-169996.9,-164466.9,-212335.6,-375000,-375000,-141960.3,-179162.2,0.03,-0.02,0.88,-4,0,-2,59,0
'[12:09:03.656 20/01/2026]',-117153.4,-170022.3,-164492.8,-212368.7,-375000,-375000,-141973,-179155.8,0.03,-0.02,0.88,-4,0,-2,59,0
'[12:09:03.660 20/01/2026]',-117172.9,-170065.6,-164523,-212335,-375000,-375000,-141982.7,-179153.1,0.03,-0.02,0.88,-4,0,-2,59,0
