'Time and date','Fp1','Fp2','F3','Fz','F4','P3','Pz','P4','AccX','AccY','AccZ','GyroX','GyroY','GyroZ','Battery','Event'
'[hh:mm:ss.mmm dd/mm/yyyy]','uV','uV','uV','uV','uV','uV','uV','uV','G','G','G','Deg/s','Deg/s','Deg/s','%','Button'
'[12:39:00.000 21/01/2026]',-104185.2,-164698.5,-83465.79,18093.96,-375000,-375000,-139095.7,-118219.3,0.03,0.00,0.88,-4,0,-2,38,0
'[12:39:00.004 21/01/2026]',-104184.3,-164706.9,-83473.8,18089.31,-375000,-375000,-139100.8,-118224.6,0.03,0.00,0.88,-4,0,-2,38,0
'[12:39:00.008 21/01/2026]',-104183.7,-164709.3,-83484.97,18095.26,-375000,-375000,-139098.8,-118222,0.03,0.00,0.88,-4,0,-2,38,0
'[12:39:00.012 21/01/2026]',-104199.4,-164713.9,-83482.87,18101.96,-375000,-375000,-139095.4,-118223.4,0.03,0.00,0.88,-4,0,-2,38,0
'[12:39:00.016 21/01/2026]',-104205.9,-164715.5,-83480.27,18078.18,-375000,-375000,-139105.2,-118232.2,0.03,0.00,0.88,-4,0,-2,38,0
'[12:39:00.020 21/01/2026]',-104205.7,-164715.4,-83475,18070.54,-375000,-375000,-139107.6,-118233.5,0.03,0.00,0.88,-4,0,-2,38,0
'[12:39:00.024 21/01/2026]',-104213.4,-164722.8,-83482.24,18086.99,-375000,-375000,-139112,-118236.1,0.03,0.00,0.88,-4,0,-2,38,0
'[12:39:00.028 21/01/2026]',-104210.4,-164721.4,-83487.52,18090.79,-375000,-375000,-139107.5,-118233.9,0.03,0.00,0.88,-4,0,-2,38,0
'[12:39:00.032 21/01/2026]',-104208.9,-164725,-83489.09,18072.95,-375000,-375000,-139115.2,-118243.9,0.03,0.00,0.88,-4,0,-2,38,0
'[12:39:00.036 21/01/2026]',-104212.1,-164728.7,-83488.14,18067.54,-375000,-375000,-139111.5,-118239,0.03,0.00,0.88,-4,0,-2,38,0
'[12:39:00.040 21/01/2026]',-104222.5,-164734.4,-83499.72,18074.92,-375000,-375000,-139118.5,-118243.9,0.03,0.00,0.88,-4,0,-2,38,0
'[12:39:00.044 21/01/2026]',-104230,-164738.1,-83510.98,18084.62,-375000,-375000,-139120.2,-118247.9,0.03,0.00,0.88,-4,0,-2,38,0
'[12:39:00.048 21/01/2026]',-104230.2,-164739.8,-83515.32,18056.1,-375000,-375000,-139135.3,-118263.3,0.03,0.00,0.88,-4,0,-2,38,0
'[12:39:00.052 21/01/2026]',-104227.7,-164738.9,-83508.17,18043.13,-375000,-375000,-139142.1,-118267.3,0.03,0.00,0.88,-4,0,-2,38,0
'[12:39:00.056 21/01/2026]',-104242.9,-164744.4,-83518.27,18048.32,-375000,-375000,-139146.1,-118269.7,0.03,0.00,0.88,-4,0,-2,38,0
'[12:39:00.060 21/01/2026]',-104237.3,-164745.6,-83524.4,18065.48,-375000,-375000,-139139.6,-118267.1,0.03,0.00,0.88,-4,0,-2,38,0
'[12:39:00.064 21/01/2026]',-104227.7,-164753.3,-83533.92,18045.63,-375000,-375000,-139151,-118280.4,0.03,0.00,0.88,-4,0,-2,38,0
'[12:39:00.068 21/01/2026]',-104235.5,-164752.8,-83523.86,18029.77,-375000,-375000,-139157.3,-118285.4,0.03,0.00,0.88,-4,0,-2,38,0
'[12:39:00.072 21/01/2026]',-104254.4,-164749.5,-83515.28,18037.77,-375000,-375000,-139157.9,-118284.8,0.02,0.02,0.88,-4,0,-2,38,0
'[12:39:00.076 21/01/2026]',-104262.2,-164756.2,-83524.8,18050.55,-375000,-375000,-139157.9,-118289.6,0.02,0.02,0.88,-4,0,-2,38,0
'[12:39:00.080 21/01/2026]',-104259.5,-164760.1,-83529.72,18039.06,-375000,-375000,-139163.7,-118297.7,0.02,0.02,0.88,-4,0,-2,38,0
'[12:39:00.084 21/01/2026]',-104259.3,-164768.5,-83522.74,18014.34,-375000,-375000,-139172,-118303.3,0.02,0.02,0.88,-4,0,-2,38,0
'[12:39:00.088 21/01/2026]',-104265.9,-164776.9,-83534.45,18013.31,-375000,-375000,-139176.1,-118307,0.02,0.02,0.88,-4,0,-2,38,0
'[12:39:00.092 21/01/2026]',-104273.5,-164781.6,-83554.7,18029.63,-375000,-375000,-139174.2,-118306.3,0.02,0.02,0.88,-4,0,-2,38,0
'[12:39:00.096 21/01/2026]',-104268.7,-164789.1,-83561.28,18026.77,-375000,-375000,-139175.4,-118310.6,0.02,0.02,0.88,-4,0,-2,38,0
'[12:39:00.100 21/01/2026]',-104266.8,-164791.6,-83558.77,17999.01,-375000,-375000,-139184.3,-118317.8,0.02,0.02,0.88,-4,0,-2,38,0
'[12:39:00.104 21/01/2026]',-104275.4,-164784.8,-83554.57,17998.25,-375000,-375000,-139184,-118313.5,0.02,0.02,0.88,-4,0,-2,38,0
'[12:39:00.108 21/01/2026]',-104281.1,-164784.2,-83563.88,18013.36,-375000,-375000,-139185.3,-118313,0.03,0.00,0.88,-4,0,-2,38,0
'[12:39:00.112 21/01/2026]',-104295.6,-164791,-83565.57,18010.54,-375000,-375000,-139187.8,-118318.2,0.03,0.00,0.88,-4,0,-2,38,0
'[12:39:00.116 21/01/2026]',-104300.3,-164805.6,-83572.45,17988.59,-375000,-375000,-139202.1,-118333.8,0.03,0.00,0.88,-4,0,-2,38,0
'[12:39:00.120 21/01/2026]',-104297.3,-164809.6,-83571.88,17973.89,-375000,-375000,-139208.3,-118336.7,0.03,0.00,0.88,-4,0,-2,38,0
'[12:39:00.124 21/01/2026]',-104308.7,-164811.3,-83579.16,17983.41,-375000,-375000,-139210.2,-118333.4,0.03,0.00,0.88,-4,0,-2,38,0
'[12:39:00.128 21/01/2026]',-104318.3,-164820.4,-83592.03,17987.16,-375000,-375000,-139210.1,-118334.7,0.03,0.00,0.88,-4,0,-2,38,0
'[12:39:00.132 21/01/2026]',-104320.3,-164829.1,-83593.91,17965.71,-375000,-375000,-139220.2,-118347.7,0.03,0.00,0.88,-4,0,-2,38,0
'[12:39:00.136 21/01/2026]',-104313.6,-164826.3,-83591.23,17960.88,-375000,-375000,-139223.8,-118350.3,0.03,0.00,0.88,-4,0,-2,38,0
'[12:39:00.140 21/01/2026]',-104315.2,-164832.2,-83595.34,17971.21,-375000,-375000,-139227.2,-118352,0.03,0.00,0.88,-4,0,-2,38,0
'[12:39:00.144 21/01/2026]',-104327.3,-164833.1,-83604.73,17967.67,-375000,-375000,-139230,-118354.7,0.02,0.00,0.88,-4,0,-2,38,0
'[12:39:00.148 21/01/2026]',-104326.6,-164837,-83603.16,17946.84,-375000,-375000,-139241.1,-118369,0.02,0.00,0.88,-4,0,-2,38,0
'[12:39:00.152 21/01/2026]',-104316.3,-164838.7,-83607.99,17941.79,-375000,-375000,-139245.3,-118373.2,0.02,0.00,0.88,-4,0,-2,38,0
'[12:39:00.156 21/01/2026]',-104327.5,-164844.2,-83614.74,17948.94,-375000,-375000,-139248,-118374.7,0.02,0.00,0.88,-4,0,-2,38,0
'[12:39:00.160 21/01/2026]',-104342.8,-164850.5,-83624.45,17957.97,-375000,-375000,-139248.4,-118377.3,0.02,0.00,0.88,-4,0,-2,38,0
'[12:39:00.164 21/01/2026]',-104337.9,-164853.5,-83620.73,17944.38,-375000,-375000,-139252.5,-118385.7,0.02,0.00,0.88,-4,0,-2,38,0
'[12:39:00.168 21/01/2026]',-104330.7,-164848.5,-83613.58,17935.89,-375000,-375000,-139253.7,-118388.2,0.02,0.00,0.88,-4,0,-2,38,0
'[12:39:00.172 21/01/2026]',-104350.9,-164854.1,-83620.65,17936.43,-375000,-375000,-139259.7,-118392,0.02,0.00,0.88,-4,0,-2,38,0
'[12:39:00.176 21/01/2026]',-104361.7,-164859.4,-83639.38,17933.88,-375000,-375000,-139267.5,-118397.5,0.02,0.00,0.88,-4,0,-2,38,0
'[12:39:00.180 21/01/2026]',-104351.4,-164860.7,-83634.99,17929.9,-375000,-375000,-139263.8,-118397.9,0.02,0.00,0.88,-4,0,-2,38,0
'[12:39:00.184 21/01/2026]',-104350.5,-164870,-83640.18,17911.39,-375000,-375000,-139276.1,-118410.1,0.02,0.00,0.88,-4,0,-2,38,0
'[12:39:00.188 21/01/2026]',-104364.7,-164874.7,-83651.71,17909.69,-375000,-375000,-139283.4,-118414.1,0.02,0.00,0.88,-4,0,-2,38,0
'[12:39:00.192 21/01/2026]',-104375.4,-164875.8,-83646.7,17929.99,-375000,-375000,-139276.4,-118409.6,0.02,0.00,0.88,-4,0,-2,38,0
'[12:39:00.196 21/01/2026]',-104389.5,-164876.9,-83651.05,17926.46,-375000,-375000,-139274,-118409.4,0.02,0.00,0.88,-4,0,-2,38,0
'[12:39:00.200 21/01/2026]',-104382.9,-164879.3,-83650.91,17908.44,-375000,-375000,-139281.8,-118416.2,0.02,0.00,0.88,-4,0,-2,38,0
'[12:39:00.204 21/01/2026]',-104370.2,-164876.9,-83652.43,17907.01,-375000,-375000,-139281.8,-118412.7,0.02,0.00,0.88,-4,0,-2,38,0
'[12:39:00.208 21/01/2026]',-104383.4,-164882,-83661.82,17918.1,-375000,-375000,-139284.8,-118412.6,0.02,0.00,0.88,-4,0,-2,38,0
'[12:39:00.212 21/01/2026]',-104396.8,-164887.7,-83661.1,17916.62,-375000,-375000,-139286.5,-118415.7,0.02,0.00,0.88,-4,0,-2,38,0
'[12:39:00.216 21/01/2026]',-104400.1,-164895.5,-83667.77,17895.16,-375000,-375000,-139297.8,-118430.1,0.02,0.00,0.88,-4,0,-2,38,0
'[12:39:00.220 21/01/2026]',-104390,-164898,-83670.45,17890.29,-375000,-375000,-139303.2,-118433.5,0.02,0.00,0.88,-4,0,-2,38,0
'[12:39:00.224 21/01/2026]',-104399.1,-164898.6,-83673.66,17902.05,-375000,-375000,-139302.7,-118430.7,0.02,0.00,0.88,-4,0,-2,38,0
'[12:39:00.228 21/01/2026]',-104410,-164897.6,-83673.98,17911.57,-375000,-375000,-139301.8,-118432.2,0.02,0.00,0.88,-4,0,-2,38,0
'[12:39:00.232 21/01/2026]',-104412.8,-164904.2,-83679.61,17886.89,-375000,-375000,-139311.2,-118443.7,0.02,0.00,0.88,-4,0,-2,38,0
'[12:39:00.236 21/01/2026]',-104403.5,-164901.5,-83680.55,17882.42,-375000,-375000,-139310.9,-118443.2,0.02,0.00,0.88,-4,0,-2,38,0
'[12:39:00.240 21/01/2026]',-104405.1,-164888.9,-83681.48,17889.31,-375000,-375000,-139313.8,-118440.4,0.02,0.00,0.88,-4,0,-2,38,0
'[12:39:00.244 21/01/2026]',-104402.3,-164867,-83680.5,17901.06,-375000,-375000,-139317.9,-118443.9,0.02,0.00,0.88,-4,0,-2,38,0
'[12:39:00.248 21/01/2026]',-104395.6,-164881.4,-83678.09,17891.05,-375000,-375000,-139325.5,-118455.7,0.02,0.00,0.88,-4,0,-2,38,0
'[12:39:00.252 21/01/2026]',-104421.6,-164930.5,-83685.91,17874.6,-375000,-375000,-139322.4,-118455.4,0.03,0.00,0.88,-4,0,-2,38,0
'[12:39:00.256 21/01/2026]',-104442.4,-164957.1,-83697.53,17871.29,-375000,-375000,-139326.5,-118456.9,0.03,0.00,0.88,-4,0,-2,38,0
'[12:39:00.260 21/01/2026]',-104452.9,-164968,-83710.59,17876.16,-375000,-375000,-139332.1,-118460.5,0.03,0.00,0.88,-4,0,-2,38,0
'[12:39:00.264 21/01/2026]',-104457.3,-164983.1,-83720.83,17855.33,-375000,-375000,-139343.5,-118473.7,0.03,0.00,0.88,-4,0,-2,38,0
'[12:39:00.268 21/01/2026]',-104450.1,-164993.8,-83708.58,17836.83,-375000,-375000,-139344,-118474.7,0.03,0.00,0.88,-4,0,-2,38,0
'[12:39:00.272 21/01/2026]',-104459.2,-165012.7,-83710.99,17839.2,-375000,-375000,-139344.4,-118473,0.03,0.00,0.88,-4,0,-2,38,0
'[12:39:00.276 21/01/2026]',-104470.5,-165024.7,-83724.63,17850.82,-375000,-375000,-139346.3,-118474.2,0.03,0.00,0.88,-4,0,-2,38,0
'[12:39:00.280 21/01/2026]',-104474.4,-165036.6,-83728.7,17836.51,-375000,-375000,-139354.3,-118485.1,0.03,0.00,0.88,-4,0,-2,38,0
'[12:39:00.284 21/01/2026]',-104465.2,-165040.2,-83730.84,17812.69,-375000,-375000,-139365.2,-118496.4,0.03,0.00,0.88,-4,0,-2,38,0
'[12:39:00.288 21/01/2026]',-104470.2,-165039.8,-83731.69,17815.95,-375000,-375000,-139364.8,-118492.4,0.03,0.00,0.88,-4,0,-2,38,0
'[12:39:00.292 21/01/2026]',-104495.2,-165047.8,-83738.84,17827.44,-375000,-375000,-139367.6,-118497.2,0.03,0.00,0.88,-4,0,-2,38,0
'[12:39:00.296 21/01/2026]',-104495,-165050.2,-83741.12,17820.42,-375000,-375000,-139372.5,-118503.8,0.03,0.00,0.88,-4,0,-2,38,0
'[12:39:00.300 21/01/2026]',-104487.6,-165051.3,-83742.02,17802.09,-375000,-375000,-139380.9,-118516.1,0.03,0.00,0.88,-4,0,-2,38,0
'[12:39:00.304 21/01/2026]',-104487.4,-165047.8,-83740.8,17800.75,-375000,-375000,-139381.1,-118513.5,0.03,0.00,0.88,-4,0,-2,38,0
'[12:39:00.308 21/01/2026]',-104484.4,-165045,-83745.91,17807.95,-375000,-375000,-139382.1,-118510.5,0.03,0.00,0.88,-4,0,-2,38,0
'[12:39:00.312 21/01/2026]',-104477.4,-165050,-83750.38,17809.73,-375000,-375000,-139387.3,-118517.6,0.03,0.00,0.88,-4,0,-2,38,0
'[12:39:00.316 21/01/2026]',-104476.5,-165054,-83752.61,17786.36,-375000,-375000,-139397.5,-118529.3,0.03,0.00,0.88,-4,0,-2,38,0
'[12:39:00.320 21/01/2026]',-104478.1,-165054.8,-83758.29,17786.31,-375000,-375000,-139398.8,-118531.4,0.03,0.00,0.88,-4,0,-2,38,0
'[12:39:00.324 21/01/2026]',-104497,-165063,-83760.48,17789.48,-375000,-375000,-139406.5,-118535.8,0.03,0.00,0.88,-4,0,-2,38,0
'[12:39:00.328 21/01/2026]',-104515,-165066.6,-83763.38,17798.47,-375000,-375000,-139406.5,-118537.9,0.03,0.00,0.88,-4,0,-2,38,0
'[12:39:00.332 21/01/2026]',-104517.4,-165068.6,-83758.78,17786.45,-375000,-375000,-139409.5,-118543.2,0.03,0.00,0.88,-4,0,-2,38,0
'[12:39:00.336 21/01/2026]',-104508.6,-165067.5,-83758.42,17777.77,-375000,-375000,-139411.4,-118542.5,0.03,0.00,0.88,-4,0,-2,38,0
'[12:39:00.340 21/01/2026]',-104512.1,-165071.7,-83764.99,17779.16,-375000,-375000,-139415.6,-118541.4,0.03,0.00,0.88,-4,0,-2,38,0
'[12:39:00.344 21/01/2026]',-104504.5,-165071.1,-83759.23,17794.85,-375000,-375000,-139408.8,-118536.8,0.03,0.00,0.88,-4,0,-2,38,0
'[12:39:00.348 21/01/2026]',-104479.5,-165072.5,-83760.52,17781.44,-375000,-375000,-139413,-118543.8,0.03,0.00,0.88,-4,0,-2,38,0
'[12:39:00.352 21/01/2026]',-104498.4,-165071.4,-83772.73,17770.44,-375000,-375000,-139416,-118547.3,0.03,0.00,0.88,-4,0,-2,38,0
'[12:39:00.356 21/01/2026]',-104535.4,-165085.6,-83784.26,17767.54,-375000,-375000,-139432,-118560.9,0.03,0.00,0.88,-4,0,-2,38,0
'[12:39:00.360 21/01/2026]',-104532.7,-165088.5,-83782.92,17783.67,-375000,-375000,-139427.9,-118557.9,0.02,0.00,0.89,-4,0,-2,38,0
'[12:39:00.364 21/01/2026]',-104530.3,-165091.6,-83781.58,17773.79,-375000,-375000,-139432,-118565.1,0.02,0.00,0.89,-4,0,-2,38,0
'[12:39:00.368 21/01/2026]',-104530.4,-165093.5,-83783.59,17758.68,-375000,-375000,-139436.1,-118570.2,0.02,0.00,0.89,-4,0,-2,38,0
'[12:39:00.372 21/01/2026]',-104533.4,-165092.7,-83785.69,17764.32,-375000,-375000,-139439.8,-118572.4,0.02,0.00,0.89,-4,0,-2,38,0
'[12:39:00.376 21/01/2026]',-104545.2,-165097.4,-83787.88,17769.99,-375000,-375000,-139439.4,-118569.1,0.02,0.00,0.89,-4,0,-2,38,0
'[12:39:00.380 21/01/2026]',-104547.1,-165101.1,-83787.03,17762.97,-375000,-375000,-139442.3,-118575.4,0.02,0.00,0.89,-4,0,-2,38,0
'[12:39:00.384 21/01/2026]',-104534,-165100,-83792.48,17745.45,-375000,-375000,-139445.9,-118579,0.02,0.00,0.89,-4,0,-2,38,0
'[12:39:00.388 21/01/2026]',-104532.1,-165108.8,-83808.27,17740.13,-375000,-375000,-139455.5,-118585,0.02,0.00,0.89,-4,0,-2,38,0
'[12:39:00.392 21/01/2026]',-104550.8,-165121.3,-83820.24,17743.31,-375000,-375000,-139465.1,-118594.9,0.02,0.00,0.89,-4,0,-2,38,0
'[12:39:00.396 21/01/2026]',-104557.1,-165126.8,-83823.51,17734.9,-375000,-375000,-139470,-118603,0.02,0.00,0.88,-4,0,-2,38,0
'[12:39:00.400 21/01/2026]',-104552.6,-165129.4,-83820.88,17722.07,-375000,-375000,-139476.6,-118610.9,0.02,0.00,0.88,-4,0,-2,38,0
'[12:39:00.404 21/01/2026]',-104567.6,-165129.7,-83825.03,17716.04,-375000,-375000,-139484.6,-118615.5,0.02,0.00,0.88,-4,0,-2,38,0
'[12:39:00.408 21/01/2026]',-104574.4,-165129.8,-83830.62,17725.11,-375000,-375000,-139484.5,-118612.3,0.02,0.00,0.88,-4,0,-2,38,0
'[12:39:00.412 21/01/2026]',-104566.3,-165129.8,-83836.74,17727.12,-375000,-375000,-139481.2,-118612.6,0.02,0.00,0.88,-4,0,-2,38,0
'[12:39:00.416 21/01/2026]',-104569,-165132.4,-83835.84,17710.18,-375000,-375000,-139483.2,-118616.1,0.02,0.00,0.88,-4,0,-2,38,0
'[12:39:00.420 21/01/2026]',-104576.8,-165137.6,-83834.59,17698.24,-375000,-375000,-139492,-118622.2,0.02,0.00,0.88,-4,0,-2,38,0
'[12:39:00.424 21/01/2026]',-104586.1,-165149.8,-83854.31,17694.58,-375000,-375000,-139505.2,-118633.5,0.02,0.00,0.88,-4,0,-2,38,0
'[12:39:00.428 21/01/2026]',-104586,-165156.5,-83861.46,17700.75,-375000,-375000,-139504.2,-118634,0.02,0.00,0.88,-4,0,-2,38,0
'[12:39:00.432 21/01/2026]',-104585.2,-165159.9,-83854.76,17688.99,-375000,-375000,-139510,-118644,0.03,0.00,0.88,-4,0,-2,38,0
'[12:39:00.436 21/01/2026]',-104588.4,-165161.9,-83855.92,17673.97,-375000,-375000,-139518.6,-118651.1,0.03,0.00,0.88,-4,0,-2,38,0
'[12:39:00.440 21/01/2026]',-104596,-165165.6,-83867.81,17681.48,-375000,-375000,-139521.2,-118648.8,0.03,0.00,0.88,-4,0,-2,38,0
'[12:39:00.444 21/01/2026]',-104607.9,-165175.5,-83877.65,17685.5,-375000,-375000,-139524.6,-118654.9,0.03,0.00,0.88,-4,0,-2,38,0
'[12:39:00.448 21/01/2026]',-104614.9,-165178,-83876.98,17669.46,-375000,-375000,-139529.5,-118665,0.03,0.00,0.88,-4,0,-2,38,0
'[12:39:00.452 21/01/2026]',-104609.2,-165177.6,-83865.58,17661.63,-375000,-375000,-139527.5,-118662.4,0.03,0.00,0.88,-4,0,-2,38,0
'[12:39:00.456 21/01/2026]',-104602.8,-165182.6,-83873.4,17664.98,-375000,-375000,-139534.2,-118664.9,0.03,0.00,0.88,-4,0,-2,38,0
'[12:39:00.460 21/01/2026]',-104607.9,-165186.5,-83882.65,17671.65,-375000,-375000,-139538.3,-118669.5,0.03,0.00,0.88,-4,0,-2,38,0
'[12:39:00.464 21/01/2026]',-104626,-165192.3,-83888.42,17663.96,-375000,-375000,-139539,-118674.4,0.03,0.00,0.88,-4,0,-2,38,0
'[12:39:00.468 21/01/2026]',-104624,-165185,-83880.77,17661.77,-375000,-375000,-139538,-118675.6,0.03,0.00,0.86,-4,0,-2,38,0
'[12:39:00.472 21/01/2026]',-104621.5,-165192.2,-83891.05,17653.99,-375000,-375000,-139547.2,-118681.2,0.03,0.00,0.86,-4,0,-2,38,0
'[12:39:00.476 21/01/2026]',-104638.4,-165202,-83899.28,17653.9,-375000,-375000,-139555.3,-118688.5,0.03,0.00,0.86,-4,0,-2,38,0
'[12:39:00.480 21/01/2026]',-104651.4,-165213.2,-83908.36,17645.81,-375000,-375000,-139560.4,-118696.3,0.03,0.00,0.86,-4,0,-2,38,0
'[12:39:00.484 21/01/2026]',-104641.8,-165216.4,-83910.41,17634.36,-375000,-375000,-139561,-118697.8,0.03,0.00,0.86,-4,0,-2,38,0
'[12:39:00.488 21/01/2026]',-104630.1,-165212.2,-83911.04,17636.38,-375000,-375000,-139560.1,-118694,0.03,0.00,0.86,-4,0,-2,38,0
'[12:39:00.492 21/01/2026]',-104640.1,-165216.1,-83917.03,17646.39,-375000,-375000,-139561.4,-118694.4,0.03,0.00,0.86,-4,0,-2,38,0
'[12:39:00.496 21/01/2026]',-104659.5,-165221.9,-83917.7,17640.85,-375000,-375000,-139562.3,-118700.7,0.03,0.00,0.86,-4,0,-2,38,0
'[12:39:00.500 21/01/2026]',-104661.2,-165221,-83919.4,17620.06,-375000,-375000,-139569.6,-118707.3,0.03,0.00,0.86,-4,0,-2,38,0
'[12:39:00.504 21/01/2026]',-104646.6,-165205.5,-83918.59,17623.14,-375000,-375000,-139576.6,-118710.6,0.03,0.00,0.88,-4,0,-2,38,0
'[12:39:00.508 21/01/2026]',-104654.2,-165202.9,-83920.56,17635.66,-375000,-375000,-139578,-118708.8,0.03,0.00,0.88,-4,0,-2,38,0
'[12:39:00.512 21/01/2026]',-104684.3,-165251,-83938.93,17630.61,-375000,-375000,-139575.7,-118712.2,0.03,0.00,0.88,-4,0,-2,38,0
'[12:39:00.516 21/01/2026]',-104692.9,-165268.7,-83941.03,17606.51,-375000,-375000,-139582.5,-118721.3,0.03,0.00,0.88,-4,0,-2,38,0
'[12:39:00.520 21/01/2026]',-104693.4,-165271.3,-83939.42,17603.25,-375000,-375000,-139583.8,-118721.2,0.03,0.00,0.88,-4,0,-2,38,0
'[12:39:00.524 21/01/2026]',-104706.3,-165280.1,-83955.34,17603.34,-375000,-375000,-139592.2,-118726.3,0.03,0.00,0.88,-4,0,-2,38,0
'[12:39:00.528 21/01/2026]',-104710.5,-165286.1,-83966.56,17599.45,-375000,-375000,-139599.5,-118734.6,0.03,0.00,0.88,-4,0,-2,38,0
'[12:39:00.532 21/01/2026]',-104703.3,-165295,-83956.99,17589.93,-375000,-375000,-139598.3,-118734.9,0.03,0.00,0.88,-4,0,-2,38,0
'[12:39:00.536 21/01/2026]',-104705.8,-165292.6,-83958.73,17571.78,-375000,-375000,-139608.2,-118740,0.03,0.00,0.88,-4,0,-2,38,0
'[12:39:00.540 21/01/2026]',-104719.3,-165295.2,-83968.66,17583.27,-375000,-375000,-139616.1,-118747.7,0.02,0.00,0.88,-4,0,-2,38,0
'[12:39:00.544 21/01/2026]',-104721.3,-165303.1,-83978.36,17584.52,-375000,-375000,-139622,-118754.1,0.02,0.00,0.88,-4,0,-2,38,0
'[12:39:00.548 21/01/2026]',-104704.8,-165307.6,-83974.83,17572.54,-375000,-375000,-139622.6,-118757.7,0.02,0.00,0.88,-4,0,-2,38,0
'[12:39:00.552 21/01/2026]',-104716.6,-165307.8,-83978.23,17561.45,-375000,-375000,-139626.7,-118761.4,0.02,0.00,0.88,-4,0,-2,38,0
'[12:39:00.556 21/01/2026]',-104732.3,-165309,-83986.05,17567.04,-375000,-375000,-139634.6,-118765.9,0.02,0.00,0.88,-4,0,-2,38,0
'[12:39:00.560 21/01/2026]',-104736.1,-165317,-83993.56,17572.05,-375000,-375000,-139639.8,-118771.3,0.02,0.00,0.88,-4,0,-2,38,0
'[12:39:00.564 21/01/2026]',-104742.8,-165320.3,-83992.35,17561.01,-375000,-375000,-139641.1,-118778.8,0.02,0.00,0.88,-4,0,-2,38,0
'[12:39:00.568 21/01/2026]',-104739.9,-165317.5,-83988.11,17540.93,-375000,-375000,-139647.8,-118784.6,0.02,0.00,0.88,-4,0,-2,38,0
'[12:39:00.572 21/01/2026]',-104746,-165319.6,-83994.81,17550.59,-375000,-375000,-139654,-118786.7,0.02,0.00,0.88,-4,0,-2,38,0
'[12:39:00.576 21/01/2026]',-104756.4,-165323.4,-84000.13,17560.56,-375000,-375000,-139657.5,-118790.1,0.03,0.00,0.88,-4,0,-2,38,0
'[12:39:00.580 21/01/2026]',-104755.6,-165326,-83999.24,17552.51,-375000,-375000,-139658.3,-118796,0.03,0.00,0.88,-4,0,-2,38,0
'[12:39:00.584 21/01/2026]',-104749.1,-165329.5,-84003.89,17533.47,-375000,-375000,-139663.6,-118803.5,0.03,0.00,0.88,-4,0,-2,38,0
'[12:39:00.588 21/01/2026]',-104754.8,-165327,-84005.59,17529.49,-375000,-375000,-139665.8,-118799.8,0.03,0.00,0.88,-4,0,-2,38,0
'[12:39:00.592 21/01/2026]',-104764.3,-165335.1,-84011.53,17539.86,-375000,-375000,-139667,-118798,0.03,0.00,0.88,-4,0,-2,38,0
'[12:39:00.596 21/01/2026]',-104767.3,-165343.6,-84016.72,17532.62,-375000,-375000,-139670.9,-118805.9,0.03,0.00,0.88,-4,0,-2,38,0
'[12:39:00.600 21/01/2026]',-104764.9,-165345,-84017.66,17513.08,-375000,-375000,-139676.5,-118812.3,0.03,0.00,0.88,-4,0,-2,38,0
'[12:39:00.604 21/01/2026]',-104762.6,-165343.5,-84020.61,17507.27,-375000,-375000,-139681,-118813.6,0.03,0.00,0.88,-4,0,-2,38,0
'[12:39:00.608 21/01/2026]',-104760.3,-165347.7,-84028.97,17519.65,-375000,-375000,-139685.3,-118815.7,0.03,0.00,0.88,-4,0,-2,38,0
'[12:39:00.612 21/01/2026]',-104768.6,-165359.1,-84039.78,17515.86,-375000,-375000,-139691,-118825,0.03,0.00,0.88,-4,0,-2,38,0
'[12:39:00.616 21/01/2026]',-104777.6,-165361.6,-84032.5,17500.57,-375000,-375000,-139695.8,-118832,0.03,0.00,0.88,-4,0,-2,38,0
'[12:39:00.620 21/01/2026]',-104778.6,-165364.7,-84040.59,17490.73,-375000,-375000,-139702.3,-118836.5,0.03,0.00,0.88,-4,0,-2,38,0
'[12:39:00.624 21/01/2026]',-104786.9,-165365.1,-84038.58,17502.58,-375000,-375000,-139700.4,-118831.5,0.03,0.00,0.88,-4,0,-2,38,0
'[12:39:00.628 21/01/2026]',-104788.4,-165363.5,-84041.26,17510.76,-375000,-375000,-139690.4,-118824.8,0.03,0.00,0.88,-4,0,-2,38,0
'[12:39:00.632 21/01/2026]',-104789.3,-165366.8,-84044.08,17502.8,-375000,-375000,-139687.8,-118827.3,0.03,0.00,0.88,-4,0,-2,38,0
'[12:39:00.636 21/01/2026]',-104805.6,-165372.3,-84039.65,17487.74,-375000,-375000,-139692.6,-118830.4,0.03,0.00,0.88,-4,0,-2,38,0
'[12:39:00.640 21/01/2026]',-104818.7,-165379,-84043.09,17496.86,-375000,-375000,-139699.5,-118834.8,0.03,0.00,0.88,-4,0,-2,38,0
'[12:39:00.644 21/01/2026]',-104814.5,-165376.8,-84048.1,17505.84,-375000,-375000,-139700.5,-118836.6,0.03,0.00,0.88,-4,0,-2,38,0
'[12:39:00.648 21/01/2026]',-104805.9,-165378.9,-84058.34,17489.26,-375000,-375000,-139704.5,-118844.2,0.03,0.00,0.89,-4,0,-2,38,0
'[12:39:00.652 21/01/2026]',-104803.3,-165381.9,-84061.02,17479.47,-375000,-375000,-139708.1,-118847.1,0.03,0.00,0.89,-4,0,-2,38,0
'[12:39:00.656 21/01/2026]',-104801.3,-165373.3,-84053.91,17480.63,-375000,-375000,-139727.7,-118862.1,0.03,0.00,0.89,-4,0,-2,38,0
'[12:39:00.660 21/01/2026]',-104809.1,-165366,-84059.95,17484.38,-375000,-375000,-139733.8,-118868.2,0.03,0.00,0.89,-4,0,-2,38,0
'[12:39:00.664 21/01/2026]',-104829.9,-165385.4,-84071.93,17482.42,-375000,-375000,-139715.6,-118853.7,0.03,0.00,0.89,-4,0,-2,38,0
'[12:39:00.668 21/01/2026]',-104830.6,-165390.5,-84066.34,17478.53,-375000,-375000,-139706.1,-118843.7,0.03,0.00,0.89,-4,0,-2,38,0
'[12:39:00.672 21/01/2026]',-104830,-165372.5,-84065.31,17487.65,-375000,-375000,-139705.6,-118838.2,0.03,0.00,0.89,-4,0,-2,38,0
'[12:39:00.676 21/01/2026]',-104829.1,-165365.7,-84071.88,17504.5,-375000,-375000,-139705.8,-118837.8,0.03,0.00,0.89,-4,0,-2,38,0
'[12:39:00.680 21/01/2026]',-104823.6,-165363.3,-84069.83,17502.04,-375000,-375000,-139701.4,-118838.3,0.03,0.00,0.89,-4,0,-2,38,0
'[12:39:00.684 21/01/2026]',-104825.6,-165365.4,-84072.2,17478.35,-375000,-375000,-139705.8,-118842.3,0.02,0.00,0.88,-4,0,-2,38,0
'[12:39:00.688 21/01/2026]',-104826.5,-165358.5,-84075.41,17482.91,-375000,-375000,-139708.5,-118841.9,0.02,0.00,0.88,-4,0,-2,38,0
'[12:39:00.692 21/01/2026]',-104824.6,-165346,-84080.6,17498.24,-375000,-375000,-139711.3,-118843.3,0.02,0.00,0.88,-4,0,-2,38,0
'[12:39:00.696 21/01/2026]',-104831.5,-165353.1,-84085.34,17493.64,-375000,-375000,-139707.8,-118842.2,0.02,0.00,0.88,-4,0,-2,38,0
'[12:39:00.700 21/01/2026]',-104824.7,-165350.5,-84082.43,17482.06,-375000,-375000,-139706.1,-118841.2,0.02,0.00,0.88,-4,0,-2,38,0
'[12:39:00.704 21/01/2026]',-104823.1,-165346.2,-84085.25,17479.64,-375000,-375000,-139710.4,-118842.5,0.02,0.00,0.88,-4,0,-2,38,0
'[12:39:00.708 21/01/2026]',-104830.1,-165346.7,-84094.01,17486.57,-375000,-375000,-139719,-118848.6,0.02,0.00,0.88,-4,0,-2,38,0
'[12:39:00.712 21/01/2026]',-104826.2,-165349.6,-84096.78,17481.16,-375000,-375000,-139728,-118859.2,0.02,0.00,0.88,-4,0,-2,38,0
'[12:39:00.716 21/01/2026]',-104819.6,-165352.3,-84098.93,17464.18,-375000,-375000,-139734.3,-118869.1,0.02,0.00,0.88,-4,0,-2,38,0
'[12:39:00.720 21/01/2026]',-104835.6,-165354,-84100.85,17457.92,-375000,-375000,-139734,-118866.4,0.02,0.02,0.89,-4,0,-2,38,0
'[12:39:00.724 21/01/2026]',-104834.6,-165356.5,-84107.02,17466.95,-375000,-375000,-139737.9,-118866.2,0.02,0.02,0.89,-4,0,-2,38,0
'[12:39:00.728 21/01/2026]',-104841.2,-165362.9,-84116.9,17473.3,-375000,-375000,-139743.1,-118872.9,0.02,0.02,0.89,-4,0,-2,38,0
'[12:39:00.732 21/01/2026]',-104843.9,-165368.9,-84118.33,17458.68,-375000,-375000,-139748.6,-118883.2,0.02,0.02,0.89,-4,0,-2,38,0
'[12:39:00.736 21/01/2026]',-104842.5,-165373.8,-84109.52,17443.75,-375000,-375000,-139754.2,-118887.8,0.02,0.02,0.89,-4,0,-2,38,0
'[12:39:00.740 21/01/2026]',-104849.8,-165375.4,-84113.01,17448.93,-375000,-375000,-139760.7,-118890.1,0.02,0.02,0.89,-4,0,-2,38,0
'[12:39:00.744 21/01/2026]',-104862.2,-165377.3,-84122.09,17459.35,-375000,-375000,-139758.7,-118889.9,0.02,0.02,0.89,-4,0,-2,38,0
'[12:39:00.748 21/01/2026]',-104850.3,-165386.5,-84131.34,17439.68,-375000,-375000,-139767.1,-118902.1,0.02,0.02,0.89,-4,0,-2,38,0
'[12:39:00.752 21/01/2026]',-104829.1,-165383.4,-84128.79,17436.37,-375000,-375000,-139766.7,-118903.4,0.02,0.02,0.89,-4,0,-2,38,0
'[12:39:00.756 21/01/2026]',-104858.4,-165390.5,-84143.41,17425.82,-375000,-375000,-139776.3,-118906.7,0.03,0.00,0.88,-4,0,-2,38,0
'[12:39:00.760 21/01/2026]',-104885.1,-165390.4,-84132.37,17446.83,-375000,-375000,-139773.3,-118902.6,0.03,0.00,0.88,-4,0,-2,38,0
'[12:39:00.764 21/01/2026]',-104898.8,-165399.6,-84136.61,17434.31,-375000,-375000,-139778.8,-118912.4,0.03,0.00,0.88,-4,0,-2,38,0
'[12:39:00.768 21/01/2026]',-104892.9,-165400.8,-84140.95,17418.09,-375000,-375000,-139781.4,-118913.8,0.03,0.00,0.88,-4,0,-2,38,0
'[12:39:00.772 21/01/2026]',-104894.2,-165400.2,-84148.5,17418,-375000,-375000,-139788.6,-118915.2,0.03,0.00,0.88,-4,0,-2,38,0
'[12:39:00.776 21/01/2026]',-104887.5,-165406.7,-84158.88,17426,-375000,-375000,-139792.5,-118919,0.03,0.00,0.88,-4,0,-2,38,0
'[12:39:00.780 21/01/2026]',-104874.9,-165406.7,-84159.95,17420.95,-375000,-375000,-139791.2,-118920,0.03,0.00,0.88,-4,0,-2,38,0
'[12:39:00.784 21/01/2026]',-104880.9,-165407.5,-84159.55,17398.82,-375000,-375000,-139796.5,-118925.3,0.03,0.00,0.88,-4,0,-2,38,0
'[12:39:00.788 21/01/2026]',-104891,-165407.5,-84159.91,17405.66,-375000,-375000,-139794.8,-118921.3,0.03,0.00,0.88,-4,0,-2,38,0
'[12:39:00.792 21/01/2026]',-104894.8,-165408.5,-84162.98,17422.92,-375000,-375000,-139793.6,-118919.8,0.03,0.00,0.89,-4,0,-2,38,0
'[12:39:00.796 21/01/2026]',-104903.3,-165418.9,-84167.55,17418.98,-375000,-375000,-139801.9,-118932.4,0.03,0.00,0.89,-4,0,-2,38,0
'[12:39:00.800 21/01/2026]',-104900.3,-165423.6,-84163.66,17401.86,-375000,-375000,-139807,-118938.1,0.03,0.00,0.89,-4,0,-2,38,0
'[12:39:00.804 21/01/2026]',-104903.3,-165421.8,-84167.91,17391.13,-375000,-375000,-139811.6,-118938.1,0.03,0.00,0.89,-4,0,-2,38,0
'[12:39:00.808 21/01/2026]',-104906.6,-165423.3,-84178.27,17399.22,-375000,-375000,-139815.8,-118941.3,0.03,0.00,0.89,-4,0,-2,38,0
'[12:39:00.812 21/01/2026]',-104906.3,-165421.6,-84174.07,17400.79,-375000,-375000,-139814.7,-118942.6,0.03,0.00,0.89,-4,0,-2,38,0
'[12:39:00.816 21/01/2026]',-104909.3,-165428.6,-84176.66,17381.48,-375000,-375000,-139821.3,-118952.5,0.03,0.00,0.89,-4,0,-2,38,0
'[12:39:00.820 21/01/2026]',-104910.3,-165428.6,-84184.94,17377.27,-375000,-375000,-139823.6,-118952.4,0.03,0.00,0.89,-4,0,-2,38,0
'[12:39:00.824 21/01/2026]',-104905.8,-165428.9,-84184.67,17395.38,-375000,-375000,-139820,-118946.5,0.03,0.00,0.89,-4,0,-2,38,0
'[12:39:00.828 21/01/2026]',-104910.5,-165435.1,-84199.33,17390.06,-375000,-375000,-139822.8,-118952.4,0.03,0.00,0.89,-4,0,-2,38,0
'[12:39:00.832 21/01/2026]',-104925.5,-165439.6,-84193.92,17373.61,-375000,-375000,-139825,-118956.5,0.03,0.00,0.89,-4,0,-2,38,0
'[12:39:00.836 21/01/2026]',-104938.4,-165441.9,-84186.1,17374.95,-375000,-375000,-139824,-118956.9,0.03,0.00,0.89,-4,0,-2,38,0
'[12:39:00.840 21/01/2026]',-104932.2,-165445.4,-84195.84,17382.73,-375000,-375000,-139825.8,-118957.3,0.03,0.00,0.89,-4,0,-2,38,0
'[12:39:00.844 21/01/2026]',-104940.7,-165446.9,-84200.13,17389.92,-375000,-375000,-139822.6,-118957.1,0.03,0.00,0.89,-4,0,-2,38,0
'[12:39:00.848 21/01/2026]',-104938.4,-165452,-84193.25,17376.83,-375000,-375000,-139822.3,-118961.4,0.03,0.00,0.89,-4,0,-2,38,0
'[12:39:00.852 21/01/2026]',-104917.2,-165448.1,-84195.27,17366.77,-375000,-375000,-139821.2,-118958.6,0.03,0.00,0.89,-4,0,-2,38,0
'[12:39:00.856 21/01/2026]',-104931,-165450.6,-84203.31,17369.23,-375000,-375000,-139826.6,-118959.7,0.03,0.00,0.89,-4,0,-2,38,0
'[12:39:00.860 21/01/2026]',-104948.9,-165464.4,-84215.16,17370.39,-375000,-375000,-139829.9,-118963.4,0.03,0.00,0.89,-4,0,-2,38,0
'[12:39:00.864 21/01/2026]',-104951.6,-165470.9,-84213.15,17359.17,-375000,-375000,-139835.7,-118970.6,0.03,0.00,0.88,-4,0,-2,38,0
'[12:39:00.868 21/01/2026]',-104956.9,-165475.5,-84214.04,17336.06,-375000,-375000,-139846.1,-118979.3,0.03,0.00,0.88,-4,0,-2,38,0
'[12:39:00.872 21/01/2026]',-104964.2,-165475.7,-84222.22,17346.21,-375000,-375000,-139850.9,-118980.9,0.03,0.00,0.88,-4,0,-2,38,0
'[12:39:00.876 21/01/2026]',-104965.7,-165476.5,-84224.77,17360.33,-375000,-375000,-139851.4,-118980.2,0.03,0.00,0.88,-4,0,-2,38,0
'[12:39:00.880 21/01/2026]',-104949.3,-165468.9,-84220.3,17352.02,-375000,-375000,-139855.2,-118988,0.03,0.00,0.88,-4,0,-2,38,0
'[12:39:00.884 21/01/2026]',-104956.6,-165473.2,-84221.33,17337.85,-375000,-375000,-139856.2,-118989.7,0.03,0.00,0.88,-4,0,-2,38,0
'[12:39:00.888 21/01/2026]',-104974.1,-165490.2,-84226.69,17339.5,-375000,-375000,-139850.3,-118979.4,0.03,0.00,0.88,-4,0,-2,38,0
'[12:39:00.892 21/01/2026]',-104981,-165494.9,-84230.18,17350.99,-375000,-375000,-139848,-118976.4,0.03,0.00,0.88,-4,0,-2,38,0
'[12:39:00.896 21/01/2026]',-104979.7,-165485.4,-84232.23,17351.26,-375000,-375000,-139850.4,-118981.2,0.03,0.00,0.88,-4,0,-2,38,0
'[12:39:00.900 21/01/2026]',-104973.2,-165481.2,-84233.53,17327.03,-375000,-375000,-139863.4,-118995.1,0.02,0.02,0.88,-4,0,-2,38,0
'[12:39:00.904 21/01/2026]',-104964.6,-165474.6,-84234.55,17327.34,-375000,-375000,-139867.7,-118996.3,0.02,0.02,0.88,-4,0,-2,38,0
'[12:39:00.908 21/01/2026]',-104975.6,-165482.4,-84246.23,17337.71,-375000,-375000,-139873.8,-119002.2,0.02,0.02,0.88,-4,0,-2,38,0
'[12:39:00.912 21/01/2026]',-104985.9,-165495.1,-84247.7,17336.37,-375000,-375000,-139875.9,-119007.9,0.02,0.02,0.88,-4,0,-2,38,0
'[12:39:00.916 21/01/2026]',-104979.4,-165495.8,-84248.77,17320.41,-375000,-375000,-139876,-119010.2,0.02,0.02,0.88,-4,0,-2,38,0
'[12:39:00.920 21/01/2026]',-104968.8,-165491.2,-84246.27,17314.55,-375000,-375000,-139877.5,-119009.5,0.02,0.02,0.88,-4,0,-2,38,0
'[12:39:00.924 21/01/2026]',-104982.7,-165491.7,-84254.95,17326.76,-375000,-375000,-139877.3,-119004,0.02,0.02,0.88,-4,0,-2,38,0
'[12:39:00.928 21/01/2026]',-104999.1,-165502,-84261.24,17328.28,-375000,-375000,-139880.2,-119012.6,0.02,0.02,0.88,-4,0,-2,38,0
'[12:39:00.932 21/01/2026]',-104992,-165501.4,-84256.41,17310.17,-375000,-375000,-139883.1,-119017.3,0.02,0.02,0.88,-4,0,-2,38,0
'[12:39:00.936 21/01/2026]',-104983.7,-165503.7,-84256.51,17301.68,-375000,-375000,-139889.3,-119021.7,0.03,0.00,0.88,-4,0,-2,38,0
'[12:39:00.940 21/01/2026]',-105003.9,-165506.5,-84268.8,17307.85,-375000,-375000,-139900.1,-119028.1,0.03,0.00,0.88,-4,0,-2,38,0
'[12:39:00.944 21/01/2026]',-105019.5,-165515.5,-84268.94,17317.01,-375000,-375000,-139902.4,-119034.2,0.03,0.00,0.88,-4,0,-2,38,0
'[12:39:00.948 21/01/2026]',-105031.9,-165520.2,-84270.95,17302.57,-375000,-375000,-139906.7,-119042.9,0.03,0.00,0.88,-4,0,-2,38,0
'[12:39:00.952 21/01/2026]',-105031,-165519.4,-84275.91,17287.2,-375000,-375000,-139911.8,-119046.9,0.03,0.00,0.88,-4,0,-2,38,0
'[12:39:00.956 21/01/2026]',-105025.2,-165515.6,-84282.16,17291.67,-375000,-375000,-139915.8,-119046.7,0.03,0.00,0.88,-4,0,-2,38,0
'[12:39:00.960 21/01/2026]',-105019.7,-165524.3,-84292.45,17301.28,-375000,-375000,-139916,-119048.6,0.03,0.00,0.88,-4,0,-2,38,0
'[12:39:00.964 21/01/2026]',-105023.5,-165528.2,-84291.15,17290.73,-375000,-375000,-139917,-119054.1,0.03,0.00,0.88,-4,0,-2,38,0
'[12:39:00.968 21/01/2026]',-105027.9,-165526.9,-84281.01,17275.62,-375000,-375000,-139918.2,-119053.4,0.03,0.00,0.88,-4,0,-2,38,0
'[12:39:00.972 21/01/2026]',-105034.8,-165531,-84279.8,17276.6,-375000,-375000,-139923.4,-119054.4,0.03,0.00,0.89,-4,0,-2,38,0
'[12:39:00.976 21/01/2026]',-105028.9,-165539.8,-84292.72,17287.06,-375000,-375000,-139929.1,-119060,0.03,0.00,0.89,-4,0,-2,38,0
'[12:39:00.980 21/01/2026]',-105025.4,-165544.7,-84301.26,17282.59,-375000,-375000,-139927.5,-119063.7,0.03,0.00,0.89,-4,0,-2,38,0
'[12:39:00.984 21/01/2026]',-105032.9,-165538.2,-84294.41,17274.59,-375000,-375000,-139924.2,-119062.6,0.03,0.00,0.89,-4,0,-2,38,0
'[12:39:00.988 21/01/2026]',-105039.8,-165540.4,-84298.08,17271.77,-375000,-375000,-139930.5,-119064.8,0.03,0.00,0.89,-4,0,-2,38,0
'[12:39:00.992 21/01/2026]',-105051.3,-165541.8,-84305.68,17282.01,-375000,-375000,-139935.6,-119069.5,0.03,0.00,0.89,-4,0,-2,38,0
'[12:39:00.996 21/01/2026]',-105052.8,-165548,-84310.55,17276.56,-375000,-375000,-139938.2,-119076.3,0.03,0.00,0.89,-4,0,-2,38,0
'[12:39:01.000 21/01/2026]',-105036,-165547.5,-84311.58,17256.48,-375000,-375000,-139942.3,-119081.9,0.03,0.00,0.89,-4,0,-2,38,0
'[12:39:01.004 21/01/2026]',-105034.6,-165547.1,-84313.46,17252.86,-375000,-375000,-139944.8,-119082.6,0.03,0.00,0.89,-4,0,-2,38,0
'[12:39:01.008 21/01/2026]',-105058.9,-165559.1,-84322.31,17251.08,-375000,-375000,-139957.2,-119090.4,0.02,0.00,0.88,-4,0,-2,38,0
'[12:39:01.012 21/01/2026]',-105075.3,-165570.4,-84333.58,17252.46,-375000,-375000,-139961.7,-119098,0.02,0.00,0.88,-4,0,-2,38,0
'[12:39:01.016 21/01/2026]',-105074.1,-165575.6,-84333.4,17232.39,-375000,-375000,-139964.7,-119101.7,0.02,0.00,0.88,-4,0,-2,38,0
'[12:39:01.020 21/01/2026]',-105066.8,-165575.6,-84336.21,17223.31,-375000,-375000,-139969.2,-119101.8,0.02,0.00,0.88,-4,0,-2,38,0
'[12:39:01.024 21/01/2026]',-105070.6,-165581.1,-84343.23,17230.2,-375000,-375000,-139974.4,-119103.5,0.02,0.00,0.88,-4,0,-2,38,0
'[12:39:01.028 21/01/2026]',-105072.1,-165584.8,-84351.41,17231.76,-375000,-375000,-139978.6,-119108.5,0.02,0.00,0.88,-4,0,-2,38,0
'[12:39:01.032 21/01/2026]',-105089.9,-165586.3,-84346.05,17215.94,-375000,-375000,-139981.3,-119112.3,0.02,0.00,0.88,-4,0,-2,38,0
'[12:39:01.036 21/01/2026]',-105100.3,-165586.3,-84350.61,17201.01,-375000,-375000,-139990.7,-119118.3,0.02,0.00,0.88,-4,0,-2,38,0
'[12:39:01.040 21/01/2026]',-105089.9,-165590.5,-84357.76,17205.97,-375000,-375000,-139995.3,-119120.5,0.02,0.00,0.88,-4,0,-2,38,0
'[12:39:01.044 21/01/2026]',-105094.9,-165590.8,-84363.7,17215.85,-375000,-375000,-139995,-119121.6,0.02,-0.02,0.88,-4,0,-2,38,0
'[12:39:01.048 21/01/2026]',-105099.3,-165594.4,-84366.26,17209.1,-375000,-375000,-139992.7,-119125.6,0.02,-0.02,0.88,-4,0,-2,38,0
'[12:39:01.052 21/01/2026]',-105099.6,-165597.3,-84362.68,17199.18,-375000,-375000,-139989.8,-119122.6,0.02,-0.02,0.88,-4,0,-2,38,0
'[12:39:01.056 21/01/2026]',-105096.8,-165598.5,-84363.26,17204.85,-375000,-375000,-139992.1,-119123.1,0.02,-0.02,0.88,-4,0,-2,38,0
'[12:39:01.060 21/01/2026]',-105099.3,-165596.8,-84368.49,17218.04,-375000,-375000,-139986.4,-119117.5,0.02,-0.02,0.88,-4,0,-2,38,0
'[12:39:01.064 21/01/2026]',-105106.3,-165599.6,-84370.05,17212.99,-375000,-375000,-139984.8,-119122.1,0.02,-0.02,0.88,-4,0,-2,38,0
'[12:39:01.068 21/01/2026]',-105101.1,-165603.6,-84361.34,17193.32,-375000,-375000,-139988.8,-119126.5,0.02,-0.02,0.88,-4,0,-2,38,0
'[12:39:01.072 21/01/2026]',-105111.7,-165608.2,-84372.47,17192.69,-375000,-375000,-139999.1,-119133.3,0.02,-0.02,0.88,-4,0,-2,38,0
'[12:39:01.076 21/01/2026]',-105123,-165613.1,-84380.7,17199.76,-375000,-375000,-140006.9,-119138.6,0.02,-0.02,0.88,-4,0,-2,38,0
'[12:39:01.080 21/01/2026]',-105109.5,-165616.2,-84382.98,17191.13,-375000,-375000,-140012.3,-119147.3,0.02,0.00,0.88,-4,0,-2,38,0
'[12:39:01.084 21/01/2026]',-105111.8,-165618,-84385.03,17177.58,-375000,-375000,-140018.9,-119153.8,0.02,0.00,0.88,-4,0,-2,38,0
'[12:39:01.088 21/01/2026]',-105125,-165623.5,-84390.39,17180.94,-375000,-375000,-140026.2,-119159.1,0.02,0.00,0.88,-4,0,-2,38,0
'[12:39:01.092 21/01/2026]',-105119.6,-165624,-84389.99,17193.86,-375000,-375000,-140025.4,-119155.4,0.02,0.00,0.88,-4,0,-2,38,0
'[12:39:01.096 21/01/2026]',-105109.8,-165624.7,-84387.04,17194.03,-375000,-375000,-140021.8,-119155.6,0.02,0.00,0.88,-4,0,-2,38,0
'[12:39:01.100 21/01/2026]',-105119.5,-165627.5,-84388.38,17176.82,-375000,-375000,-140024.5,-119159.4,0.02,0.00,0.88,-4,0,-2,38,0
'[12:39:01.104 21/01/2026]',-105130.8,-165628.3,-84393.03,17171.46,-375000,-375000,-140030.1,-119161.4,0.02,0.00,0.88,-4,0,-2,38,0
'[12:39:01.108 21/01/2026]',-105130.2,-165631.2,-84392.23,17185.76,-375000,-375000,-140028.2,-119156.4,0.02,0.00,0.88,-4,0,-2,38,0
'[12:39:01.112 21/01/2026]',-105136.3,-165636.6,-84394.91,17186.88,-375000,-375000,-140025,-119157.5,0.02,0.00,0.88,-4,0,-2,38,0
'[12:39:01.116 21/01/2026]',-105138.4,-165642.6,-84404.03,17171.1,-375000,-375000,-140027.6,-119165.8,0.03,0.00,0.88,-4,0,-2,38,0
'[12:39:01.120 21/01/2026]',-105132.8,-165646,-84408.72,17168.15,-375000,-375000,-140029.9,-119167.7,0.03,0.00,0.88,-4,0,-2,38,0
'[12:39:01.124 21/01/2026]',-105138.9,-165651.1,-84415.61,17161.94,-375000,-375000,-140039.6,-119170.9,0.03,0.00,0.88,-4,0,-2,38,0
'[12:39:01.128 21/01/2026]',-105144.2,-165654.6,-84421.15,17176.73,-375000,-375000,-140038.1,-119173.8,0.03,0.00,0.88,-4,0,-2,38,0
'[12:39:01.132 21/01/2026]',-105148.1,-165656.6,-84416.68,17158.23,-375000,-375000,-140040.4,-119180.4,0.03,0.00,0.88,-4,0,-2,38,0
'[12:39:01.136 21/01/2026]',-105148.5,-165656,-84410.78,17152.46,-375000,-375000,-140040,-119179.7,0.03,0.00,0.88,-4,0,-2,38,0
'[12:39:01.140 21/01/2026]',-105159.1,-165652.8,-84415.92,17165.87,-375000,-375000,-140041,-119177.7,0.03,0.00,0.88,-4,0,-2,38,0
'[12:39:01.144 21/01/2026]',-105163.1,-165657.5,-84422.45,17173.02,-375000,-375000,-140044.1,-119182.1,0.03,0.00,0.88,-4,0,-2,38,0
'[12:39:01.148 21/01/2026]',-105157.6,-165659.8,-84424.01,17154.16,-375000,-375000,-140051.5,-119191.9,0.03,0.00,0.88,-4,0,-2,38,0
'[12:39:01.152 21/01/2026]',-105149.2,-165654.5,-84422.05,17149.96,-375000,-375000,-140052.7,-119193.7,0.02,0.00,0.89,-4,0,-2,38,0
'[12:39:01.156 21/01/2026]',-105152.5,-165655.6,-84423.52,17146.43,-375000,-375000,-140060.7,-119196.4,0.02,0.00,0.89,-4,0,-2,38,0
'[12:39:01.160 21/01/2026]',-105156.9,-165664.2,-84438.09,17156.93,-375000,-375000,-140061.3,-119197.7,0.02,0.00,0.89,-4,0,-2,38,0
'[12:39:01.164 21/01/2026]',-105155.7,-165681.8,-84446.05,17143.29,-375000,-375000,-140062.7,-119202.9,0.02,0.00,0.89,-4,0,-2,38,0
'[12:39:01.168 21/01/2026]',-105160.2,-165680.8,-84440.69,17129.44,-375000,-375000,-140064.8,-119204.6,0.02,0.00,0.89,-4,0,-2,38,0
'[12:39:01.172 21/01/2026]',-105167.5,-165674.3,-84438.9,17129.71,-375000,-375000,-140069.3,-119205.9,0.02,0.00,0.89,-4,0,-2,38,0
'[12:39:01.176 21/01/2026]',-105184.5,-165678.9,-84445.29,17143.61,-375000,-375000,-140069.9,-119206.4,0.02,0.00,0.89,-4,0,-2,38,0
'[12:39:01.180 21/01/2026]',-105180.8,-165677.5,-84447.75,17133.55,-375000,-375000,-140070.9,-119211.7,0.02,0.00,0.89,-4,0,-2,38,0
'[12:39:01.184 21/01/2026]',-105188.6,-165689,-84450.88,17122.6,-375000,-375000,-140068.8,-119211.4,0.02,0.00,0.89,-4,0,-2,38,0
'[12:39:01.188 21/01/2026]',-105191.6,-165685.4,-84448.77,17129.13,-375000,-375000,-140067.9,-119206.3,0.05,0.00,0.88,-4,0,-2,38,0
'[12:39:01.192 21/01/2026]',-105190.1,-165689.1,-84458.16,17133.28,-375000,-375000,-140076.8,-119211.8,0.05,0.00,0.88,-4,0,-2,38,0
'[12:39:01.196 21/01/2026]',-105189.6,-165694.7,-84464.24,17129.97,-375000,-375000,-140076.5,-119214.9,0.05,0.00,0.88,-4,0,-2,38,0
'[12:39:01.200 21/01/2026]',-105198.6,-165700.9,-84457.13,17109.41,-375000,-375000,-140085.4,-119226.5,0.05,0.00,0.88,-4,0,-2,38,0
'[12:39:01.204 21/01/2026]',-105186,-165695.4,-84455.44,17110.17,-375000,-375000,-140085.6,-119223.8,0.05,0.00,0.88,-4,0,-2,38,0
'[12:39:01.208 21/01/2026]',-105178.7,-165695.8,-84468.4,17121.7,-375000,-375000,-140090.9,-119227,0.05,0.00,0.88,-4,0,-2,38,0
'[12:39:01.212 21/01/2026]',-105194.9,-165703,-84475.69,17121.26,-375000,-375000,-140094.3,-119233.1,0.05,0.00,0.88,-4,0,-2,38,0
'[12:39:01.216 21/01/2026]',-105207.9,-165711.6,-84473.05,17105.21,-375000,-375000,-140101,-119243.4,0.05,0.00,0.88,-4,0,-2,38,0
'[12:39:01.220 21/01/2026]',-105205.7,-165710.4,-84468.63,17094.88,-375000,-375000,-140104.5,-119242.4,0.05,0.00,0.88,-4,0,-2,38,0
'[12:39:01.224 21/01/2026]',-105211,-165717.4,-84475.2,17098.32,-375000,-375000,-140111.1,-119245.4,0.03,0.00,0.86,-4,0,-2,38,0
'[12:39:01.228 21/01/2026]',-105212.9,-165718.7,-84482.3,17111.33,-375000,-375000,-140111.3,-119249.6,0.03,0.00,0.86,-4,0,-2,38,0
'[12:39:01.232 21/01/2026]',-105213.9,-165722.6,-84485.16,17093.59,-375000,-375000,-140117.1,-119258,0.03,0.00,0.86,-4,0,-2,38,0
'[12:39:01.236 21/01/2026]',-105215.4,-165725.7,-84484.9,17085.18,-375000,-375000,-140116,-119256.1,0.03,0.00,0.86,-4,0,-2,38,0
'[12:39:01.240 21/01/2026]',-105217.1,-165729.6,-84495.89,17090.1,-375000,-375000,-140118.3,-119254.5,0.03,0.00,0.86,-4,0,-2,38,0
'[12:39:01.244 21/01/2026]',-105222.7,-165725.4,-84488.07,17102.26,-375000,-375000,-140114.8,-119251.7,0.03,0.00,0.86,-4,0,-2,38,0
'[12:39:01.248 21/01/2026]',-105227.9,-165729.1,-84493.66,17087.86,-375000,-375000,-140115.9,-119257.2,0.03,0.00,0.86,-4,0,-2,38,0
'[12:39:01.252 21/01/2026]',-105218.9,-165730.6,-84493.16,17079.86,-375000,-375000,-140115.8,-119256.2,0.03,0.00,0.86,-4,0,-2,38,0
'[12:39:01.256 21/01/2026]',-105230.7,-165732.3,-84493.88,17089.16,-375000,-375000,-140115.7,-119253.8,0.03,0.00,0.86,-4,0,-2,38,0
'[12:39:01.260 21/01/2026]',-105242.6,-165734.3,-84499.91,17100.38,-375000,-375000,-140115.1,-119253.3,0.03,0.00,0.88,-4,0,-2,38,0
'[12:39:01.264 21/01/2026]',-105239.5,-165735.7,-84497.02,17093.5,-375000,-375000,-140120,-119261.8,0.03,0.00,0.88,-4,0,-2,38,0
'[12:39:01.268 21/01/2026]',-105236.6,-165745.7,-84498.09,17073.56,-375000,-375000,-140127.5,-119273.4,0.03,0.00,0.88,-4,0,-2,38,0
'[12:39:01.272 21/01/2026]',-105239,-165744.6,-84500.01,17071.5,-375000,-375000,-140132.3,-119272,0.03,0.00,0.88,-4,0,-2,38,0
'[12:39:01.276 21/01/2026]',-105240.1,-165750.3,-84507.65,17080.8,-375000,-375000,-140133.1,-119271.4,0.03,0.00,0.88,-4,0,-2,38,0
'[12:39:01.280 21/01/2026]',-105233.3,-165757.3,-84524.02,17075.75,-375000,-375000,-140133.2,-119275.4,0.03,0.00,0.88,-4,0,-2,38,0
'[12:39:01.284 21/01/2026]',-105243.1,-165757.2,-84519.77,17063.81,-375000,-375000,-140135,-119278.3,0.03,0.00,0.88,-4,0,-2,38,0
'[12:39:01.288 21/01/2026]',-105257.1,-165763.2,-84522.31,17048.39,-375000,-375000,-140144.5,-119285,0.03,0.00,0.88,-4,0,-2,38,0
'[12:39:01.292 21/01/2026]',-105261.5,-165760,-84527.9,17065.73,-375000,-375000,-140145.3,-119284.7,0.03,0.00,0.88,-4,0,-2,38,0
'[12:39:01.296 21/01/2026]',-105268.7,-165761.6,-84531.57,17060.24,-375000,-375000,-140146.1,-119286.2,0.02,0.00,0.89,-4,0,-2,38,0
'[12:39:01.300 21/01/2026]',-105269.8,-165770.5,-84536.98,17036.81,-375000,-375000,-140156.7,-119297.1,0.02,0.00,0.89,-4,0,-2,38,0
'[12:39:01.304 21/01/2026]',-105270.9,-165778.3,-84540.95,17035.92,-375000,-375000,-140160.2,-119299.3,0.02,0.00,0.89,-4,0,-2,38,0
'[12:39:01.308 21/01/2026]',-105277.9,-165782.2,-84548.47,17037.04,-375000,-375000,-140166.4,-119301.7,0.02,0.00,0.89,-4,0,-2,38,0
'[12:39:01.312 21/01/2026]',-105281.2,-165782.3,-84548.11,17038.82,-375000,-375000,-140163.5,-119300.6,0.02,0.00,0.89,-4,0,-2,38,0
'[12:39:01.316 21/01/2026]',-105275.1,-165786.2,-84545.74,17022.42,-375000,-375000,-140168.9,-119309.8,0.02,0.00,0.89,-4,0,-2,38,0
'[12:39:01.320 21/01/2026]',-105277.3,-165784,-84548.82,17018.89,-375000,-375000,-140173.6,-119313.1,0.02,0.00,0.89,-4,0,-2,38,0
'[12:39:01.324 21/01/2026]',-105299.7,-165787.7,-84556.6,17028.99,-375000,-375000,-140175.7,-119311.3,0.02,0.00,0.89,-4,0,-2,38,0
'[12:39:01.328 21/01/2026]',-105305.4,-165792.1,-84560.67,17036.19,-375000,-375000,-140178.1,-119316.5,0.02,0.00,0.89,-4,0,-2,38,0
'[12:39:01.332 21/01/2026]',-105303.8,-165796.6,-84564.2,17012.72,-375000,-375000,-140185.9,-119325.9,0.02,0.02,0.88,-4,0,-2,38,0
'[12:39:01.336 21/01/2026]',-105304.4,-165798.8,-84562.15,17003.42,-375000,-375000,-140191.7,-119329.1,0.02,0.02,0.88,-4,0,-2,38,0
'[12:39:01.340 21/01/2026]',-105312.7,-165804.3,-84564.07,17008.29,-375000,-375000,-140199,-119330.9,0.02,0.02,0.88,-4,0,-2,38,0
'[12:39:01.344 21/01/2026]',-105314.3,-165807.9,-84571.35,17021.43,-375000,-375000,-140195.7,-119330.7,0.02,0.02,0.88,-4,0,-2,38,0
'[12:39:01.348 21/01/2026]',-105313.4,-165802.3,-84576.36,17009.32,-375000,-375000,-140196.2,-119334.3,0.02,0.02,0.88,-4,0,-2,38,0
'[12:39:01.352 21/01/2026]',-105309.8,-165800.3,-84573.99,16998.63,-375000,-375000,-140198.6,-119335.4,0.02,0.02,0.88,-4,0,-2,38,0
'[12:39:01.356 21/01/2026]',-105309.6,-165802.8,-84575.11,17005.16,-375000,-375000,-140201.9,-119335.3,0.02,0.02,0.88,-4,0,-2,38,0
'[12:39:01.360 21/01/2026]',-105323,-165807,-84574.57,17017.77,-375000,-375000,-140202.8,-119337.2,0.02,0.02,0.88,-4,0,-2,38,0
'[12:39:01.364 21/01/2026]',-105327.9,-165818.5,-84573.81,17001.99,-375000,-375000,-140207.3,-119347.4,0.02,0.02,0.88,-4,0,-2,38,0
'[12:39:01.368 21/01/2026]',-105317.8,-165819.2,-84575.42,16990.41,-375000,-375000,-140208.9,-119350.9,0.02,0.00,0.88,-4,0,-2,38,0
'[12:39:01.372 21/01/2026]',-105316.8,-165819.1,-84585.3,16988.98,-375000,-375000,-140216.2,-119352.7,0.02,0.00,0.88,-4,0,-2,38,0
'[12:39:01.376 21/01/2026]',-105320.6,-165818.5,-84593.48,17000.91,-375000,-375000,-140217.4,-119352,0.02,0.00,0.88,-4,0,-2,38,0
'[12:39:01.380 21/01/2026]',-105320.5,-165822.5,-84588.66,16995.86,-375000,-375000,-140214.4,-119353.1,0.02,0.00,0.88,-4,0,-2,38,0
'[12:39:01.384 21/01/2026]',-105321.3,-165818.3,-84582.53,16984.78,-375000,-375000,-140211.3,-119349.8,0.02,0.00,0.88,-4,0,-2,38,0
'[12:39:01.388 21/01/2026]',-105328.5,-165822.8,-84589.91,16983.21,-375000,-375000,-140216.6,-119349.5,0.02,0.00,0.88,-4,0,-2,38,0
'[12:39:01.392 21/01/2026]',-105328.8,-165823.4,-84597.73,16996.58,-375000,-375000,-140219.1,-119348.4,0.02,0.00,0.88,-4,0,-2,38,0
'[12:39:01.396 21/01/2026]',-105330.1,-165827.1,-84601.88,16987.24,-375000,-375000,-140226.5,-119357.7,0.02,0.00,0.88,-4,0,-2,38,0
'[12:39:01.400 21/01/2026]',-105333.8,-165831.8,-84596.88,16967.61,-375000,-375000,-140231,-119363,0.02,0.00,0.88,-4,0,-2,38,0
'[12:39:01.404 21/01/2026]',-105335.6,-165832.2,-84600.68,16971.72,-375000,-375000,-140230.9,-119362.4,0.03,0.00,0.88,-4,0,-2,38,0
'[12:39:01.408 21/01/2026]',-105344.6,-165842.9,-84615.07,16977,-375000,-375000,-140241.6,-119370.6,0.03,0.00,0.88,-4,0,-2,38,0
'[12:39:01.412 21/01/2026]',-105352.8,-165844.8,-84613.46,16977.76,-375000,-375000,-140243.4,-119376.6,0.03,0.00,0.88,-4,0,-2,38,0
'[12:39:01.416 21/01/2026]',-105343.5,-165848.3,-84609.71,16963.01,-375000,-375000,-140244.7,-119380,0.03,0.00,0.88,-4,0,-2,38,0
'[12:39:01.420 21/01/2026]',-105331.7,-165841.3,-84610.78,16960.59,-375000,-375000,-140239.9,-119374.5,0.03,0.00,0.88,-4,0,-2,38,0
'[12:39:01.424 21/01/2026]',-105348.6,-165846.2,-84621.2,16964.88,-375000,-375000,-140242.4,-119375,0.03,0.00,0.88,-4,0,-2,38,0
'[12:39:01.428 21/01/2026]',-105347.9,-165853.7,-84624.87,16966.54,-375000,-375000,-140241.5,-119375.7,0.03,0.00,0.88,-4,0,-2,38,0
'[12:39:01.432 21/01/2026]',-105343.2,-165850.9,-84614.13,16959.88,-375000,-375000,-140238.7,-119378.5,0.03,0.00,0.88,-4,0,-2,38,0
'[12:39:01.436 21/01/2026]',-105346.2,-165850.8,-84610.02,16955.18,-375000,-375000,-140239.8,-119380,0.03,0.00,0.88,-4,0,-2,38,0
'[12:39:01.440 21/01/2026]',-105349.1,-165857.9,-84615.92,16951.16,-375000,-375000,-140248.8,-119383.8,0.00,0.02,0.88,-4,0,-2,38,0
'[12:39:01.444 21/01/2026]',-105357.8,-165861.4,-84630.23,16968.55,-375000,-375000,-140244.6,-119381.2,0.00,0.02,0.88,-4,0,-2,38,0
'[12:39:01.448 21/01/2026]',-105359.6,-165863.5,-84629.7,16959.97,-375000,-375000,-140245.4,-119388.4,0.00,0.02,0.88,-4,0,-2,38,0
'[12:39:01.452 21/01/2026]',-105354.3,-165866,-84622.05,16947.36,-375000,-375000,-140250.5,-119394.1,0.00,0.02,0.88,-4,0,-2,38,0
'[12:39:01.456 21/01/2026]',-105354,-165865.3,-84628.48,16948.84,-375000,-375000,-140252.5,-119390.2,0.00,0.02,0.88,-4,0,-2,38,0
'[12:39:01.460 21/01/2026]',-105367.7,-165871.5,-84636.53,16956.7,-375000,-375000,-140254.4,-119392.1,0.00,0.02,0.88,-4,0,-2,38,0
'[12:39:01.464 21/01/2026]',-105360.7,-165877.6,-84637.6,16951.12,-375000,-375000,-140255.6,-119396.9,0.00,0.02,0.88,-4,0,-2,38,0
'[12:39:01.468 21/01/2026]',-105355.7,-165880.5,-84633.58,16939.22,-375000,-375000,-140259,-119399.8,0.00,0.02,0.88,-4,0,-2,38,0
'[12:39:01.472 21/01/2026]',-105360.8,-165876.3,-84634.66,16942.35,-375000,-375000,-140261.9,-119398.1,0.00,0.02,0.88,-4,0,-2,38,0
'[12:39:01.476 21/01/2026]',-105370.4,-165875.2,-84637.29,16954.07,-375000,-375000,-140263,-119399.9,0.03,0.00,0.88,-4,0,-2,38,0
'[12:39:01.480 21/01/2026]',-105383.4,-165886.9,-84641.31,16931.58,-375000,-375000,-140270.9,-119411.3,0.03,0.00,0.88,-4,0,-2,38,0
'[12:39:01.484 21/01/2026]',-105387.4,-165890.8,-84647.39,16919.2,-375000,-375000,-140277.3,-119418.3,0.03,0.00,0.88,-4,0,-2,38,0
'[12:39:01.488 21/01/2026]',-105391.8,-165893,-84651.64,16920,-375000,-375000,-140281.8,-119417.9,0.03,0.00,0.88,-4,0,-2,38,0
'[12:39:01.492 21/01/2026]',-105385.2,-165891.8,-84656.65,16936.1,-375000,-375000,-140277,-119412.3,0.03,0.00,0.88,-4,0,-2,38,0
'[12:39:01.496 21/01/2026]',-105382.9,-165890.3,-84655.53,16934.35,-375000,-375000,-140275.4,-119410.7,0.03,0.00,0.88,-4,0,-2,38,0
'[12:39:01.500 21/01/2026]',-105379.4,-165897.4,-84652.36,16911.96,-375000,-375000,-140282.5,-119418.4,0.03,0.00,0.88,-4,0,-2,38,0
'[12:39:01.504 21/01/2026]',-105380.3,-165895.7,-84654.19,16917.68,-375000,-375000,-140283,-119415.1,0.03,0.00,0.88,-4,0,-2,38,0
'[12:39:01.508 21/01/2026]',-105381.3,-165894.4,-84664.78,16918.75,-375000,-375000,-140288.3,-119416.1,0.03,0.00,0.88,-4,0,-2,38,0
'[12:39:01.512 21/01/2026]',-105387.4,-165904.3,-84671.49,16919.2,-375000,-375000,-140290.4,-119423,0.03,0.00,0.88,-4,0,-2,38,0
'[12:39:01.516 21/01/2026]',-105402.9,-165913.4,-84669.03,16896.04,-375000,-375000,-140298.9,-119437.9,0.03,0.00,0.88,-4,0,-2,38,0
'[12:39:01.520 21/01/2026]',-105420.8,-165925.3,-84681.41,16881.65,-375000,-375000,-140308.6,-119447.4,0.03,0.00,0.88,-4,0,-2,38,0
'[12:39:01.524 21/01/2026]',-105439.3,-165938.6,-84692.63,16882.41,-375000,-375000,-140319.5,-119454.9,0.03,0.00,0.88,-4,0,-2,38,0
'[12:39:01.528 21/01/2026]',-105436.3,-165937.1,-84699.61,16889.56,-375000,-375000,-140314,-119452.6,0.03,0.00,0.88,-4,0,-2,38,0
'[12:39:01.532 21/01/2026]',-105433,-165941,-84705.11,16872.44,-375000,-375000,-140318.7,-119460.7,0.03,0.00,0.88,-4,0,-2,38,0
'[12:39:01.536 21/01/2026]',-105441.7,-165945,-84712.3,16857.78,-375000,-375000,-140324.2,-119464.4,0.03,0.00,0.88,-4,0,-2,38,0
'[12:39:01.540 21/01/2026]',-105448.6,-165951.3,-84718.65,16862.87,-375000,-375000,-140329.1,-119466.1,0.03,0.00,0.88,-4,0,-2,38,0
'[12:39:01.544 21/01/2026]',-105454.5,-165961.7,-84726.16,16860.5,-375000,-375000,-140333.8,-119471.9,0.03,0.00,0.88,-4,0,-2,38,0
'[12:39:01.548 21/01/2026]',-105455.2,-165970.7,-84729.2,16845.08,-375000,-375000,-140340.1,-119482.6,0.03,0.00,0.88,-4,0,-2,38,0
'[12:39:01.552 21/01/2026]',-105464.3,-165973.6,-84729.25,16834.93,-375000,-375000,-140347.1,-119486.7,0.03,0.00,0.88,-4,0,-2,38,0
'[12:39:01.556 21/01/2026]',-105475.6,-165981.3,-84740.2,16839.4,-375000,-375000,-140357.2,-119493.6,0.03,0.00,0.88,-4,0,-2,38,0
'[12:39:01.560 21/01/2026]',-105481.7,-165988.2,-84743.69,16838.64,-375000,-375000,-140364.9,-119499.5,0.03,0.00,0.88,-4,0,-2,38,0
'[12:39:01.564 21/01/2026]',-105483.1,-165993.7,-84744.58,16828.9,-375000,-375000,-140367.9,-119503.6,0.03,0.00,0.88,-4,0,-2,38,0
'[12:39:01.568 21/01/2026]',-105479.4,-165993.3,-84753.16,16814.46,-375000,-375000,-140377.8,-119514.1,0.03,0.00,0.88,-4,0,-2,38,0
'[12:39:01.572 21/01/2026]',-105489.6,-166003.7,-84768.27,16811.01,-375000,-375000,-140389.2,-119521.8,0.03,0.00,0.88,-4,0,-2,38,0
'[12:39:01.576 21/01/2026]',-105493.8,-166009.8,-84775.52,16813.38,-375000,-375000,-140395.3,-119526.5,0.03,0.00,0.88,-4,0,-2,38,0
'[12:39:01.580 21/01/2026]',-105490.1,-166012.5,-84767.87,16811.42,-375000,-375000,-140395.2,-119529.2,0.03,0.00,0.88,-4,0,-2,38,0
'[12:39:01.584 21/01/2026]',-105493,-166019.6,-84771.36,16796.8,-375000,-375000,-140398,-119533.3,0.05,0.02,0.88,-4,0,-2,38,0
'[12:39:01.588 21/01/2026]',-105507,-166032.1,-84781.95,16787.99,-375000,-375000,-140410.3,-119544,0.05,0.02,0.88,-4,0,-2,38,0
'[12:39:01.592 21/01/2026]',-105529.3,-166039.8,-84794.88,16789.82,-375000,-375000,-140420,-119554,0.05,0.02,0.88,-4,0,-2,38,0
'[12:39:01.596 21/01/2026]',-105532.7,-166044.6,-84796.97,16788.53,-375000,-375000,-140418.3,-119556.5,0.05,0.02,0.88,-4,0,-2,38,0
'[12:39:01.600 21/01/2026]',-105522.7,-166042.6,-84794.88,16774.04,-375000,-375000,-140420.2,-119559.3,0.05,0.02,0.88,-4,0,-2,38,0
'[12:39:01.604 21/01/2026]',-105527.1,-166044.1,-84796.88,16767.25,-375000,-375000,-140427,-119562.9,0.05,0.02,0.88,-4,0,-2,38,0
'[12:39:01.608 21/01/2026]',-105534.4,-166053.3,-84798.72,16776.95,-375000,-375000,-140433.4,-119564.9,0.05,0.02,0.88,-4,0,-2,38,0
'[12:39:01.612 21/01/2026]',-105543.3,-166060.4,-84817.4,16764.97,-375000,-375000,-140440.8,-119573.4,0.05,0.02,0.88,-4,0,-2,38,0
'[12:39:01.616 21/01/2026]',-105546.5,-166065.9,-84825.13,16754.38,-375000,-375000,-140444,-119580.8,0.05,0.02,0.88,-4,0,-2,38,0
'[12:39:01.620 21/01/2026]',-105563.5,-166072.6,-84830.77,16742.53,-375000,-375000,-140448.8,-119583.4,0.02,0.00,0.88,-4,0,-2,38,0
'[12:39:01.624 21/01/2026]',-105573,-166074.4,-84831.53,16752.01,-375000,-375000,-140454,-119586,0.02,0.00,0.88,-4,0,-2,38,0
'[12:39:01.628 21/01/2026]',-105570.7,-166082.5,-84831.08,16754.24,-375000,-375000,-140454.8,-119590.8,0.02,0.00,0.88,-4,0,-2,38,0
'[12:39:01.632 21/01/2026]',-105588,-166093.2,-84839.04,16728.36,-375000,-375000,-140464.6,-119604.9,0.02,0.00,0.88,-4,0,-2,38,0
'[12:39:01.636 21/01/2026]',-105589.3,-166089.2,-84841.14,16720.36,-375000,-375000,-140462.7,-119602.3,0.02,0.00,0.88,-4,0,-2,38,0
'[12:39:01.640 21/01/2026]',-105598.3,-166088.5,-84844.45,16732.34,-375000,-375000,-140459.1,-119596.5,0.02,0.00,0.88,-4,0,-2,38,0
'[12:39:01.644 21/01/2026]',-105609.1,-166099.8,-84858.53,16736.27,-375000,-375000,-140462.1,-119603.6,0.02,0.00,0.88,-4,0,-2,38,0
'[12:39:01.648 21/01/2026]',-105600.5,-166109.8,-84869.44,16710.3,-375000,-375000,-140471.4,-119616.1,0.02,0.00,0.88,-4,0,-2,38,0
'[12:39:01.652 21/01/2026]',-105587.8,-166108.1,-84865.19,16702.34,-375000,-375000,-140470.9,-119615.2,0.02,0.00,0.88,-4,0,-2,38,0
'[12:39:01.656 21/01/2026]',-105598.2,-166114.2,-84869.88,16705.16,-375000,-375000,-140471.9,-119612.5,0.02,0.00,0.88,-4,0,-2,38,0
'[12:39:01.660 21/01/2026]',-105617.7,-166129.1,-84886.29,16700.73,-375000,-375000,-140483.8,-119623,0.02,0.00,0.88,-4,0,-2,38,0
'[12:39:01.664 21/01/2026]',-105633.9,-166137.4,-84891.52,16686.16,-375000,-375000,-140492.7,-119634.4,0.02,0.00,0.88,-4,0,-2,38,0
'[12:39:01.668 21/01/2026]',-105643.8,-166134.1,-84883.3,16678.38,-375000,-375000,-140491.2,-119634,0.02,0.00,0.88,-4,0,-2,38,0
'[12:39:01.672 21/01/2026]',-105654.4,-166140.2,-84890.85,16675.25,-375000,-375000,-140502.5,-119638.5,0.02,0.00,0.88,-4,0,-2,38,0
'[12:39:01.676 21/01/2026]',-105656.6,-166143.1,-84898.13,16686.61,-375000,-375000,-140505.8,-119639.5,0.02,0.00,0.88,-4,0,-2,38,0
'[12:39:01.680 21/01/2026]',-105656.3,-166155.2,-84905.83,16672.57,-375000,-375000,-140516.1,-119652.5,0.02,0.00,0.88,-4,0,-2,38,0
'[12:39:01.684 21/01/2026]',-105656.9,-166158.4,-84908.55,16654.55,-375000,-375000,-140523.1,-119658.5,0.02,0.00,0.88,-4,0,-2,38,0
'[12:39:01.688 21/01/2026]',-105651.7,-166159.5,-84913.11,16654.33,-375000,-375000,-140532.8,-119662.7,0.02,0.00,0.88,-4,0,-2,38,0
'[12:39:01.692 21/01/2026]',-105650,-166165.4,-84914.99,16658.31,-375000,-375000,-140539.9,-119668.9,0.03,0.00,0.88,-4,0,-2,38,0
'[12:39:01.696 21/01/2026]',-105659.5,-166169.3,-84923.08,16658.89,-375000,-375000,-140542.4,-119676.9,0.03,0.00,0.88,-4,0,-2,38,0
'[12:39:01.700 21/01/2026]',-105675.5,-166173.8,-84924.96,16645.97,-375000,-375000,-140548.8,-119685.2,0.03,0.00,0.88,-4,0,-2,38,0
'[12:39:01.704 21/01/2026]',-105677.4,-166174.7,-84922.23,16646.33,-375000,-375000,-140551.1,-119685.3,0.03,0.00,0.88,-4,0,-2,38,0
'[12:39:01.708 21/01/2026]',-105685.2,-166181.4,-84934.8,16646.73,-375000,-375000,-140561.7,-119694.4,0.03,0.00,0.88,-4,0,-2,38,0
'[12:39:01.712 21/01/2026]',-105686.4,-166185.5,-84939.48,16645.75,-375000,-375000,-140561.2,-119697.6,0.03,0.00,0.88,-4,0,-2,38,0
'[12:39:01.716 21/01/2026]',-105672.6,-166186.2,-84935.51,16632.29,-375000,-375000,-140561.5,-119703.8,0.03,0.00,0.88,-4,0,-2,38,0
'[12:39:01.720 21/01/2026]',-105679.5,-166194.3,-84940.83,16623.26,-375000,-375000,-140563.8,-119704.5,0.03,0.00,0.88,-4,0,-2,38,0
'[12:39:01.724 21/01/2026]',-105699.3,-166199,-84947,16628.36,-375000,-375000,-140567.3,-119703.5,0.03,0.00,0.88,-4,0,-2,38,0
'[12:39:01.728 21/01/2026]',-105689.8,-166210.2,-84963.72,16627.55,-375000,-375000,-140571.6,-119711.1,0.02,0.00,0.89,-4,0,-2,38,0
'[12:39:01.732 21/01/2026]',-105687.3,-166216.5,-84963.72,16607.44,-375000,-375000,-140576.6,-119719.6,0.02,0.00,0.89,-4,0,-2,38,0
'[12:39:01.736 21/01/2026]',-105706,-166218.1,-84955.45,16600.01,-375000,-375000,-140579.5,-119722.5,0.02,0.00,0.89,-4,0,-2,38,0
'[12:39:01.740 21/01/2026]',-105720.4,-166223,-84967.56,16604.75,-375000,-375000,-140583.6,-119726,0.02,0.00,0.89,-4,0,-2,38,0
'[12:39:01.744 21/01/2026]',-105733.7,-166223.3,-84973.95,16603.28,-375000,-375000,-140580,-119723,0.02,0.00,0.89,-4,0,-2,38,0
'[12:39:01.748 21/01/2026]',-105727.4,-166229.4,-84969.08,16596.26,-375000,-375000,-140574.7,-119725.1,0.02,0.00,0.89,-4,0,-2,38,0
'[12:39:01.752 21/01/2026]',-105729.7,-166233.3,-84970.69,16583.7,-375000,-375000,-140575.6,-119729.6,0.02,0.00,0.89,-4,0,-2,38,0
'[12:39:01.756 21/01/2026]',-105737.6,-166232.9,-84977.84,16587.81,-375000,-375000,-140578.3,-119727.8,0.02,0.00,0.89,-4,0,-2,38,0
'[12:39:01.760 21/01/2026]',-105742.9,-166242.9,-84988.57,16596.3,-375000,-375000,-140577.8,-119728.1,0.02,0.00,0.89,-4,0,-2,38,0
'[12:39:01.764 21/01/2026]',-105751.1,-166254.3,-84999.84,16576.19,-375000,-375000,-140584.4,-119737.9,0.03,0.00,0.88,-4,0,-2,38,0
'[12:39:01.768 21/01/2026]',-105753.8,-166254.1,-84997.06,16563.94,-375000,-375000,-140584.7,-119737.5,0.03,0.00,0.88,-4,0,-2,38,0
'[12:39:01.772 21/01/2026]',-105759.2,-166252.8,-84998.9,16569.35,-375000,-375000,-140590.8,-119734.7,0.03,0.00,0.88,-4,0,-2,38,0
'[12:39:01.776 21/01/2026]',-105776.4,-166264.3,-85013.07,16569.62,-375000,-375000,-140599,-119736.7,0.03,0.00,0.88,-4,0,-2,38,0
'[12:39:01.780 21/01/2026]',-105780.3,-166274,-85022.63,16565.46,-375000,-375000,-140605.4,-119744.7,0.03,0.00,0.88,-4,0,-2,38,0
'[12:39:01.784 21/01/2026]',-105779.5,-166281.4,-85024.2,16545.83,-375000,-375000,-140618.9,-119756.7,0.03,0.00,0.88,-4,0,-2,38,0
'[12:39:01.788 21/01/2026]',-105786.2,-166286.3,-85030.01,16535.73,-375000,-375000,-140632.3,-119763.6,0.03,0.00,0.88,-4,0,-2,38,0
'[12:39:01.792 21/01/2026]',-105799.9,-166306.8,-85044.98,16543.02,-375000,-375000,-140638.8,-119767.9,0.03,0.00,0.88,-4,0,-2,38,0
'[12:39:01.796 21/01/2026]',-105823.2,-166334.3,-85060.73,16531.62,-375000,-375000,-140649.1,-119781.2,0.03,0.00,0.88,-4,0,-2,38,0
'[12:39:01.800 21/01/2026]',-105843.1,-166348.5,-85064.7,16509.22,-375000,-375000,-140657.9,-119791.8,0.03,0.00,0.88,-4,0,-2,38,0
'[12:39:01.804 21/01/2026]',-105865.4,-166363.8,-85075.48,16493.84,-375000,-375000,-140676.2,-119805.9,0.03,0.00,0.88,-4,0,-2,38,0
'[12:39:01.808 21/01/2026]',-105906.4,-166402.9,-85101.23,16490,-375000,-375000,-140690.8,-119820.2,0.03,0.00,0.88,-4,0,-2,38,0
'[12:39:01.812 21/01/2026]',-105929.9,-166430.9,-85117.05,16482.36,-375000,-375000,-140696.1,-119828,0.03,0.00,0.88,-4,0,-2,38,0
'[12:39:01.816 21/01/2026]',-105923.3,-166435.6,-85120.4,16465.99,-375000,-375000,-140695.8,-119828.5,0.03,0.00,0.88,-4,0,-2,38,0
'[12:39:01.820 21/01/2026]',-105919.2,-166436.7,-85125.54,16457.01,-375000,-375000,-140701.8,-119831.9,0.03,0.00,0.88,-4,0,-2,38,0
'[12:39:01.824 21/01/2026]',-105934.3,-166445.5,-85134.48,16462.6,-375000,-375000,-140706.6,-119835.2,0.03,0.00,0.88,-4,0,-2,38,0
'[12:39:01.828 21/01/2026]',-105947.9,-166455.4,-85142.75,16470.69,-375000,-375000,-140703.4,-119834,0.03,0.00,0.88,-4,0,-2,38,0
'[12:39:01.832 21/01/2026]',-105936,-166450.3,-85140.12,16450.3,-375000,-375000,-140705.8,-119839.9,0.03,0.00,0.88,-4,0,-2,38,0
'[12:39:01.836 21/01/2026]',-105934.4,-166459.7,-85140.52,16435.19,-375000,-375000,-140708.3,-119840.6,0.02,0.00,0.88,-4,0,-2,38,0
'[12:39:01.840 21/01/2026]',-105948,-166459.1,-85136.31,16449.9,-375000,-375000,-140704.3,-119835.2,0.02,0.00,0.88,-4,0,-2,38,0
'[12:39:01.844 21/01/2026]',-105956.6,-166451.2,-85135.42,16462.15,-375000,-375000,-140701.4,-119835.9,0.02,0.00,0.88,-4,0,-2,38,0
'[12:39:01.848 21/01/2026]',-105979.6,-166456,-85137.44,16449.72,-375000,-375000,-140702.3,-119843.8,0.02,0.00,0.88,-4,0,-2,38,0
'[12:39:01.852 21/01/2026]',-105969.1,-166445,-85126.62,16441.54,-375000,-375000,-140699.5,-119842.5,0.02,0.00,0.88,-4,0,-2,38,0
'[12:39:01.856 21/01/2026]',-105951.5,-166427.6,-85129.21,16450.35,-375000,-375000,-140699.8,-119839.6,0.02,0.00,0.88,-4,0,-2,38,0
'[12:39:01.860 21/01/2026]',-105938.3,-166421.6,-85129.61,16468.81,-375000,-375000,-140696.4,-119839.9,0.02,0.00,0.88,-4,0,-2,38,0
'[12:39:01.864 21/01/2026]',-105916.8,-166420.2,-85138.87,16466.57,-375000,-375000,-140692.9,-119843.5,0.02,0.00,0.88,-4,0,-2,38,0
'[12:39:01.868 21/01/2026]',-105902.2,-166403.4,-85127.55,16443.46,-375000,-375000,-140696,-119846,0.02,0.00,0.88,-4,0,-2,38,0
'[12:39:01.872 21/01/2026]',-105924.3,-166410.6,-85129.39,16449.95,-375000,-375000,-140699.1,-119848.6,0.03,-0.02,0.88,-4,0,-2,38,0
'[12:39:01.876 21/01/2026]',-105927.8,-166406.8,-85136.05,16459.82,-375000,-375000,-140701.3,-119850.2,0.03,-0.02,0.88,-4,0,-2,38,0
'[12:39:01.880 21/01/2026]',-105907.1,-166391,-85131.31,16464.7,-375000,-375000,-140698.5,-119853.3,0.03,-0.02,0.88,-4,0,-2,38,0
'[12:39:01.884 21/01/2026]',-105893,-166392.3,-85122.23,16449.95,-375000,-375000,-140696.5,-119853,0.03,-0.02,0.88,-4,0,-2,38,0
'[12:39:01.888 21/01/2026]',-105882.5,-166386.3,-85120.31,16455.22,-375000,-375000,-140691.9,-119847.1,0.03,-0.02,0.88,-4,0,-2,38,0
'[12:39:01.892 21/01/2026]',-105883.3,-166379.3,-85122.23,16469.66,-375000,-375000,-140695.3,-119847.9,0.03,-0.02,0.88,-4,0,-2,38,0
'[12:39:01.896 21/01/2026]',-105889.6,-166384.5,-85126.52,16460.81,-375000,-375000,-140699.9,-119855.3,0.03,-0.02,0.88,-4,0,-2,38,0
'[12:39:01.900 21/01/2026]',-105881,-166381.2,-85125.77,16438.95,-375000,-375000,-140710.3,-119866.4,0.03,-0.02,0.88,-4,0,-2,38,0
'[12:39:01.904 21/01/2026]',-105881.3,-166379.2,-85124.07,16440.11,-375000,-375000,-140717.7,-119867.2,0.03,-0.02,0.88,-4,0,-2,38,0
'[12:39:01.908 21/01/2026]',-105886.6,-166382.1,-85130.91,16448.47,-375000,-375000,-140725.7,-119870,0.03,0.00,0.88,-4,0,-2,38,0
'[12:39:01.912 21/01/2026]',-105870.9,-166380.2,-85127.38,16451.38,-375000,-375000,-140727,-119870.4,0.03,0.00,0.88,-4,0,-2,38,0
'[12:39:01.916 21/01/2026]',-105873.9,-166382.1,-85127.29,16439.53,-375000,-375000,-140734,-119879.6,0.03,0.00,0.88,-4,0,-2,38,0
'[12:39:01.920 21/01/2026]',-105882.7,-166379.7,-85131.84,16428.93,-375000,-375000,-140743.8,-119883.3,0.03,0.00,0.88,-4,0,-2,38,0
'[12:39:01.924 21/01/2026]',-105886,-166388.1,-85142.3,16432.02,-375000,-375000,-140751.8,-119889.5,0.03,0.00,0.88,-4,0,-2,38,0
'[12:39:01.928 21/01/2026]',-105884.3,-166389.8,-85145.34,16439.84,-375000,-375000,-140750,-119891.8,0.03,0.00,0.88,-4,0,-2,38,0
'[12:39:01.932 21/01/2026]',-105878,-166385.5,-85141.55,16419.86,-375000,-375000,-140753.5,-119896,0.03,0.00,0.88,-4,0,-2,38,0
'[12:39:01.936 21/01/2026]',-105882.9,-166384.1,-85135.38,16407.34,-375000,-375000,-140761.4,-119901.7,0.03,0.00,0.88,-4,0,-2,38,0
'[12:39:01.940 21/01/2026]',-105890.2,-166387.9,-85143.07,16419.77,-375000,-375000,-140769,-119906.7,0.03,0.00,0.88,-4,0,-2,38,0
'[12:39:01.944 21/01/2026]',-105894.6,-166398.8,-85162.2,16416.73,-375000,-375000,-140777.2,-119914.6,0.02,0.00,0.88,-4,0,-2,38,0
'[12:39:01.948 21/01/2026]',-105881.9,-166402.9,-85159.92,16408.15,-375000,-375000,-140777,-119919.7,0.02,0.00,0.88,-4,0,-2,38,0
'[12:39:01.952 21/01/2026]',-105881.5,-166399.8,-85150.94,16401.89,-375000,-375000,-140777.6,-119917.6,0.02,0.00,0.88,-4,0,-2,38,0
'[12:39:01.956 21/01/2026]',-105906.3,-166405,-85162.73,16401.08,-375000,-375000,-140789.1,-119923.9,0.02,0.00,0.88,-4,0,-2,38,0
'[12:39:01.960 21/01/2026]',-105908.2,-166406.8,-85164.03,16411.05,-375000,-375000,-140788.2,-119923.9,0.02,0.00,0.88,-4,0,-2,38,0
'[12:39:01.964 21/01/2026]',-105897.6,-166409.1,-85162.87,16405.02,-375000,-375000,-140791.3,-119932.8,0.02,0.00,0.88,-4,0,-2,38,0
'[12:39:01.968 21/01/2026]',-105890.7,-166401.5,-85160.73,16387.99,-375000,-375000,-140792,-119930.4,0.02,0.00,0.88,-4,0,-2,38,0
'[12:39:01.972 21/01/2026]',-105905.1,-166399.3,-85167.25,16393.98,-375000,-375000,-140796.2,-119930.9,0.02,0.00,0.88,-4,0,-2,38,0
'[12:39:01.976 21/01/2026]',-105914.2,-166404,-85173.69,16404.3,-375000,-375000,-140798.6,-119933,0.02,0.00,0.88,-4,0,-2,38,0
'[12:39:01.980 21/01/2026]',-105903.1,-166401.6,-85166.89,16402.96,-375000,-375000,-140793.1,-119930.9,0.02,0.00,0.88,-4,0,-2,38,0
'[12:39:01.984 21/01/2026]',-105888.3,-166402.7,-85169.8,16396.08,-375000,-375000,-140792,-119932.9,0.02,0.00,0.88,-4,0,-2,38,0
'[12:39:01.988 21/01/2026]',-105900.5,-166405.4,-85173.42,16393.53,-375000,-375000,-140796.3,-119934,0.02,0.00,0.88,-4,0,-2,38,0
'[12:39:01.992 21/01/2026]',-105917.9,-166408.8,-85175.61,16406.18,-375000,-375000,-140796.7,-119934.4,0.02,0.00,0.88,-4,0,-2,38,0
'[12:39:01.996 21/01/2026]',-105909.8,-166407.3,-85169.13,16409.58,-375000,-375000,-140787.8,-119929.8,0.02,0.00,0.88,-4,0,-2,38,0
'[12:39:02.000 21/01/2026]',-105897.1,-166403.9,-85168.23,16396.35,-375000,-375000,-140784.1,-119927.6,0.02,0.00,0.88,-4,0,-2,38,0
'[12:39:02.004 21/01/2026]',-105899.2,-166408.9,-85167.16,16395.27,-375000,-375000,-140786.9,-119927.9,0.02,0.00,0.88,-4,0,-2,38,0
'[12:39:02.008 21/01/2026]',-105918.2,-166418.2,-85177.58,16393.48,-375000,-375000,-140795.9,-119932.8,0.02,0.00,0.88,-4,0,-2,38,0
'[12:39:02.012 21/01/2026]',-105913.1,-166414.6,-85179.68,16401.08,-375000,-375000,-140796.2,-119936.4,0.02,0.00,0.88,-4,0,-2,38,0
'[12:39:02.016 21/01/2026]',-105908,-166411.6,-85177.8,16379.89,-375000,-375000,-140805.5,-119946.8,0.02,0.00,0.89,-4,0,-2,38,0
'[12:39:02.020 21/01/2026]',-105909.6,-166410.7,-85177.48,16377.26,-375000,-375000,-140815.2,-119951.9,0.02,0.00,0.89,-4,0,-2,38,0
'[12:39:02.024 21/01/2026]',-105927.5,-166426.5,-85187.73,16384.86,-375000,-375000,-140814.1,-119948,0.02,0.00,0.89,-4,0,-2,38,0
'[12:39:02.028 21/01/2026]',-105932.8,-166438.1,-85194.34,16387.76,-375000,-375000,-140809.1,-119945.2,0.02,0.00,0.89,-4,0,-2,38,0
'[12:39:02.032 21/01/2026]',-105931.4,-166439.8,-85199.3,16371.94,-375000,-375000,-140813.8,-119953.7,0.02,0.00,0.89,-4,0,-2,38,0
'[12:39:02.036 21/01/2026]',-105933.3,-166428.6,-85196.22,16368.58,-375000,-375000,-140820.3,-119959,0.02,0.00,0.89,-4,0,-2,38,0
'[12:39:02.040 21/01/2026]',-105941.6,-166427.2,-85198.59,16371.85,-375000,-375000,-140828.4,-119962.8,0.02,0.00,0.89,-4,0,-2,38,0
'[12:39:02.044 21/01/2026]',-105941.6,-166428.2,-85204.31,16383.96,-375000,-375000,-140824.8,-119959.8,0.02,0.00,0.89,-4,0,-2,38,0
'[12:39:02.048 21/01/2026]',-105941.8,-166435.5,-85203.69,16364.65,-375000,-375000,-140824.7,-119964.9,0.02,0.00,0.89,-4,0,-2,38,0
'[12:39:02.052 21/01/2026]',-105945.8,-166438.5,-85205.38,16353.43,-375000,-375000,-140830.3,-119970.4,0.02,0.00,0.89,-4,0,-2,38,0
'[12:39:02.056 21/01/2026]',-105948.9,-166443.1,-85214.28,16357.01,-375000,-375000,-140837.4,-119974.2,0.02,0.00,0.89,-4,0,-2,38,0
'[12:39:02.060 21/01/2026]',-105951.5,-166448.1,-85223.76,16364.16,-375000,-375000,-140840.3,-119977,0.02,0.00,0.89,-4,0,-2,38,0
'[12:39:02.064 21/01/2026]',-105946.1,-166449.7,-85221.03,16353.43,-375000,-375000,-140841.8,-119982.2,0.02,0.00,0.89,-4,0,-2,38,0
'[12:39:02.068 21/01/2026]',-105933.6,-166447,-85213.2,16341.76,-375000,-375000,-140839.7,-119980.6,0.02,0.00,0.89,-4,0,-2,38,0
'[12:39:02.072 21/01/2026]',-105948.1,-166448,-85220.72,16345.79,-375000,-375000,-140843.4,-119981.1,0.02,0.00,0.89,-4,0,-2,38,0
'[12:39:02.076 21/01/2026]',-105957.7,-166454.4,-85225.45,16357.59,-375000,-375000,-140845.6,-119983.4,0.02,0.00,0.89,-4,0,-2,38,0
'[12:39:02.080 21/01/2026]',-105960.3,-166458.1,-85229.88,16344.8,-375000,-375000,-140846.6,-119987.2,0.02,0.00,0.89,-4,0,-2,38,0
'[12:39:02.084 21/01/2026]',-105962.6,-166463.5,-85231.45,16331.93,-375000,-375000,-140847.3,-119990.8,0.02,0.00,0.89,-4,0,-2,38,0
'[12:39:02.088 21/01/2026]',-105970.4,-166465.4,-85228.41,16335.06,-375000,-375000,-140849.3,-119990.8,0.02,0.00,0.89,-4,0,-2,38,0
'[12:39:02.092 21/01/2026]',-105971.8,-166464.4,-85231.18,16350.7,-375000,-375000,-140848.7,-119992.5,0.02,0.00,0.89,-4,0,-2,38,0
'[12:39:02.096 21/01/2026]',-105966.4,-166471.7,-85238.87,16345.07,-375000,-375000,-140847.1,-119996.6,0.02,0.00,0.89,-4,0,-2,38,0
'[12:39:02.100 21/01/2026]',-105972.6,-166473.9,-85232.66,16332.24,-375000,-375000,-140846.7,-119998.6,0.02,0.00,0.89,-4,0,-2,38,0
'[12:39:02.104 21/01/2026]',-105978.4,-166467.4,-85227.2,16331.17,-375000,-375000,-140844.5,-119993.8,0.02,0.00,0.89,-4,0,-2,38,0
'[12:39:02.108 21/01/2026]',-105978.2,-166468.3,-85228.36,16347.26,-375000,-375000,-140846.6,-119992.4,0.02,0.00,0.89,-4,0,-2,38,0
'[12:39:02.112 21/01/2026]',-105979.1,-166467.9,-85230.02,16351.73,-375000,-375000,-140845.8,-119994.5,0.02,0.00,0.89,-4,0,-2,38,0
'[12:39:02.116 21/01/2026]',-105972.5,-166470.2,-85227.96,16340.47,-375000,-375000,-140850.1,-120001.1,0.02,0.00,0.89,-4,0,-2,38,0
'[12:39:02.120 21/01/2026]',-105977,-166469,-85230.73,16341.09,-375000,-375000,-140851.4,-120000.5,0.02,0.00,0.89,-4,0,-2,38,0
'[12:39:02.124 21/01/2026]',-105981.7,-166473.7,-85237.8,16347.84,-375000,-375000,-140858.1,-120003.8,0.02,0.00,0.89,-4,0,-2,38,0
'[12:39:02.128 21/01/2026]',-105979.1,-166479.9,-85244.9,16346.54,-375000,-375000,-140859.4,-120007.1,0.02,0.00,0.89,-4,0,-2,38,0
'[12:39:02.132 21/01/2026]',-105981.6,-166479.7,-85250.76,16331.88,-375000,-375000,-140861.5,-120011.3,0.02,0.00,0.89,-4,0,-2,38,0
'[12:39:02.136 21/01/2026]',-105988.1,-166477.9,-85242.45,16333.04,-375000,-375000,-140858.9,-120008.1,0.02,0.00,0.89,-4,0,-2,38,0
'[12:39:02.140 21/01/2026]',-106000.3,-166477.8,-85248.61,16339.35,-375000,-375000,-140860.5,-120006.2,0.02,0.00,0.89,-4,0,-2,38,0
'[12:39:02.144 21/01/2026]',-105993,-166481.4,-85251.88,16352.71,-375000,-375000,-140856.4,-120004.8,0.02,0.00,0.89,-4,0,-2,38,0
'[12:39:02.148 21/01/2026]',-105988.7,-166479.7,-85245.93,16334.43,-375000,-375000,-140856.4,-120007.6,0.02,0.00,0.89,-4,0,-2,38,0
'[12:39:02.152 21/01/2026]',-105999.3,-166483,-85241.91,16328.8,-375000,-375000,-140858,-120009.9,0.02,0.00,0.89,-4,0,-2,38,0
'[12:39:02.156 21/01/2026]',-106003.8,-166488,-85246.29,16336.49,-375000,-375000,-140861,-120009.8,0.02,0.00,0.89,-4,0,-2,38,0
'[12:39:02.160 21/01/2026]',-106001.8,-166488.8,-85253.98,16347.08,-375000,-375000,-140859.9,-120008.1,0.02,0.00,0.89,-4,0,-2,38,0
'[12:39:02.164 21/01/2026]',-105998,-166499.7,-85258.85,16331.53,-375000,-375000,-140863.9,-120016.2,0.02,0.00,0.89,-4,0,-2,38,0
'[12:39:02.168 21/01/2026]',-105994.3,-166499.1,-85256.21,16318.52,-375000,-375000,-140865.7,-120017.8,0.02,0.00,0.89,-4,0,-2,38,0
'[12:39:02.172 21/01/2026]',-106001.4,-166503.4,-85265.38,16321.91,-375000,-375000,-140871.5,-120021.8,0.02,0.00,0.89,-4,0,-2,38,0
'[12:39:02.176 21/01/2026]',-106010.3,-166503.8,-85264.62,16327.9,-375000,-375000,-140870.8,-120019.4,0.02,0.00,0.89,-4,0,-2,38,0
'[12:39:02.180 21/01/2026]',-106009.9,-166502.8,-85263.59,16329.74,-375000,-375000,-140868.3,-120022,0.02,0.00,0.89,-4,0,-2,38,0
'[12:39:02.184 21/01/2026]',-106011.3,-166503.5,-85263.01,16318.61,-375000,-375000,-140866.3,-120026.3,0.02,0.00,0.89,-4,0,-2,38,0
'[12:39:02.188 21/01/2026]',-106018,-166502.2,-85270.52,16310.78,-375000,-375000,-140870.7,-120028.4,0.02,0.00,0.89,-4,0,-2,38,0
'[12:39:02.192 21/01/2026]',-106019.8,-166500,-85277.13,16323.08,-375000,-375000,-140872,-120026.2,0.02,0.00,0.89,-4,0,-2,38,0
'[12:39:02.196 21/01/2026]',-106007.7,-166497.1,-85269.35,16324.55,-375000,-375000,-140867.5,-120025.2,0.03,0.00,0.89,-4,0,-2,38,0
'[12:39:02.200 21/01/2026]',-106005.7,-166502.3,-85265.38,16311.14,-375000,-375000,-140870.1,-120028.9,0.03,0.00,0.89,-4,0,-2,38,0
'[12:39:02.204 21/01/2026]',-106018.8,-166505.2,-85266.94,16314.9,-375000,-375000,-140871.8,-120029.7,0.03,0.00,0.89,-4,0,-2,38,0
'[12:39:02.208 21/01/2026]',-106027.6,-166508.9,-85277.63,16322.23,-375000,-375000,-140877.1,-120032.2,0.03,0.00,0.89,-4,0,-2,38,0
'[12:39:02.212 21/01/2026]',-106027.2,-166508,-85283.44,16326.07,-375000,-375000,-140874.4,-120031.4,0.03,0.00,0.89,-4,0,-2,38,0
'[12:39:02.216 21/01/2026]',-106019.7,-166508.4,-85280.3,16311.27,-375000,-375000,-140874.5,-120032.4,0.03,0.00,0.89,-4,0,-2,38,0
'[12:39:02.220 21/01/2026]',-106021.8,-166505.3,-85279.45,16302.51,-375000,-375000,-140880.9,-120034.8,0.03,0.00,0.89,-4,0,-2,38,0
'[12:39:02.224 21/01/2026]',-106039.9,-166512.6,-85284.06,16305.11,-375000,-375000,-140888.8,-120038,0.03,0.00,0.89,-4,0,-2,38,0
'[12:39:02.228 21/01/2026]',-106043.9,-166519.2,-85292.24,16298.04,-375000,-375000,-140895.1,-120045.6,0.03,0.00,0.89,-4,0,-2,38,0
'[12:39:02.232 21/01/2026]',-106031.4,-166519.7,-85288.3,16293.97,-375000,-375000,-140894.3,-120047.9,0.03,0.00,0.88,-4,0,-2,38,0
'[12:39:02.236 21/01/2026]',-106030.8,-166522.4,-85288.89,16282.62,-375000,-375000,-140900.1,-120050.5,0.03,0.00,0.88,-4,0,-2,38,0
'[12:39:02.240 21/01/2026]',-106030.3,-166528,-85297.74,16287.27,-375000,-375000,-140907.7,-120054.1,0.03,0.00,0.88,-4,0,-2,38,0
'[12:39:02.244 21/01/2026]',-106035.2,-166531.7,-85300.78,16292.5,-375000,-375000,-140909.5,-120057.7,0.03,0.00,0.88,-4,0,-2,38,0
'[12:39:02.248 21/01/2026]',-106044,-166533.6,-85299.48,16277.79,-375000,-375000,-140911.1,-120060.4,0.03,0.00,0.88,-4,0,-2,38,0
'[12:39:02.252 21/01/2026]',-106037.3,-166527.5,-85297.79,16270.5,-375000,-375000,-140909.9,-120056.7,0.03,0.00,0.88,-4,0,-2,38,0
'[12:39:02.256 21/01/2026]',-106041.1,-166527.7,-85298.01,16275.56,-375000,-375000,-140915.6,-120058.5,0.03,0.00,0.88,-4,0,-2,38,0
'[12:39:02.260 21/01/2026]',-106063.4,-166535.1,-85303.82,16279.31,-375000,-375000,-140922.6,-120064.9,0.03,0.00,0.88,-4,0,-2,38,0
'[12:39:02.264 21/01/2026]',-106058.2,-166539.9,-85305.3,16272.07,-375000,-375000,-140921.3,-120065.7,0.03,0.00,0.88,-4,0,-2,38,0
'[12:39:02.268 21/01/2026]',-106053.9,-166542.3,-85301.05,16259.46,-375000,-375000,-140924.1,-120068.8,0.02,0.00,0.88,-4,0,-2,38,0
'[12:39:02.272 21/01/2026]',-106071.6,-166555.1,-85317.63,16247.66,-375000,-375000,-140939.5,-120079.2,0.02,0.00,0.88,-4,0,-2,38,0
'[12:39:02.276 21/01/2026]',-106068.3,-166560.4,-85330.28,16247.75,-375000,-375000,-140946.7,-120085,0.02,0.00,0.88,-4,0,-2,38,0
'[12:39:02.280 21/01/2026]',-106057.1,-166560.9,-85327.38,16248.78,-375000,-375000,-140943.5,-120088.3,0.02,0.00,0.88,-4,0,-2,38,0
'[12:39:02.284 21/01/2026]',-106065.2,-166558.6,-85317.32,16239.97,-375000,-375000,-140937.4,-120084.6,0.02,0.00,0.88,-4,0,-2,38,0
'[12:39:02.288 21/01/2026]',-106069.1,-166556.8,-85314.28,16244.08,-375000,-375000,-140937.5,-120081.2,0.02,0.00,0.88,-4,0,-2,38,0
'[12:39:02.292 21/01/2026]',-106071.8,-166559,-85325.95,16259.51,-375000,-375000,-140940.3,-120083.3,0.02,0.00,0.88,-4,0,-2,38,0
'[12:39:02.296 21/01/2026]',-106075.8,-166564.9,-85327.65,16249.18,-375000,-375000,-140942,-120086.2,0.02,0.00,0.88,-4,0,-2,38,0
'[12:39:02.300 21/01/2026]',-106072.5,-166562.6,-85320.59,16239.61,-375000,-375000,-140943,-120089.8,0.02,0.00,0.88,-4,0,-2,38,0
'[12:39:02.304 21/01/2026]',-106066.7,-166561.3,-85320.05,16236.8,-375000,-375000,-140948.6,-120091.1,0.03,0.00,0.88,-4,0,-2,38,0
'[12:39:02.308 21/01/2026]',-106080.6,-166566.1,-85332.34,16246.45,-375000,-375000,-140954.9,-120094.6,0.03,0.00,0.88,-4,0,-2,38,0
'[12:39:02.312 21/01/2026]',-106079.9,-166569.2,-85340.66,16240.06,-375000,-375000,-140957.6,-120098.6,0.03,0.00,0.88,-4,0,-2,38,0
'[12:39:02.316 21/01/2026]',-106078.9,-166573.4,-85337.35,16225.18,-375000,-375000,-140961.8,-120107.6,0.03,0.00,0.88,-4,0,-2,38,0
'[12:39:02.320 21/01/2026]',-106091.4,-166574.7,-85335.52,16216.73,-375000,-375000,-140964.5,-120108.2,0.03,0.00,0.88,-4,0,-2,38,0
'[12:39:02.324 21/01/2026]',-106102.1,-166577.1,-85345.3,16223.92,-375000,-375000,-140969.5,-120109.7,0.03,0.00,0.88,-4,0,-2,38,0
'[12:39:02.328 21/01/2026]',-106104.8,-166579.3,-85350.4,16223.7,-375000,-375000,-140970.1,-120112.1,0.03,0.00,0.88,-4,0,-2,38,0
'[12:39:02.332 21/01/2026]',-106094.4,-166564.7,-85349.55,16213.11,-375000,-375000,-140974.9,-120119.8,0.03,0.00,0.88,-4,0,-2,38,0
'[12:39:02.336 21/01/2026]',-106072.4,-166542.7,-85341.23,16211.81,-375000,-375000,-140981,-120124.2,0.03,0.00,0.88,-4,0,-2,38,0
'[12:39:02.340 21/01/2026]',-106079.1,-166572.3,-85342.66,16208.72,-375000,-375000,-140987.3,-120126.8,0.03,0.02,0.88,-4,0,-2,38,0
'[12:39:02.344 21/01/2026]',-106114.1,-166616.2,-85360.33,16218.16,-375000,-375000,-140980.1,-120125.2,0.03,0.02,0.88,-4,0,-2,38,0
'[12:39:02.348 21/01/2026]',-106122.3,-166621.8,-85359.97,16201.3,-375000,-375000,-140984.9,-120133.8,0.03,0.02,0.88,-4,0,-2,38,0
'[12:39:02.352 21/01/2026]',-106118.1,-166616.6,-85353.8,16188.88,-375000,-375000,-140991.8,-120139.5,0.03,0.02,0.88,-4,0,-2,38,0
'[12:39:02.356 21/01/2026]',-106130.6,-166647.3,-85364.17,16188.52,-375000,-375000,-141000.3,-120145.4,0.03,0.02,0.88,-4,0,-2,38,0
'[12:39:02.360 21/01/2026]',-106135.2,-166658.4,-85366.31,16197.15,-375000,-375000,-140995.6,-120138.5,0.03,0.02,0.88,-4,0,-2,38,0
'[12:39:02.364 21/01/2026]',-106140.6,-166676.2,-85370.74,16181.37,-375000,-375000,-140997.3,-120144.5,0.03,0.02,0.88,-4,0,-2,38,0
'[12:39:02.368 21/01/2026]',-106136.4,-166678.8,-85365.55,16171.93,-375000,-375000,-140994.5,-120139.6,0.03,0.02,0.88,-4,0,-2,38,0
'[12:39:02.372 21/01/2026]',-106136.1,-166680.3,-85364.7,16175.29,-375000,-375000,-141000.4,-120140.9,0.03,0.02,0.88,-4,0,-2,38,0
'[12:39:02.376 21/01/2026]',-106153.3,-166714.3,-85379.81,16173.1,-375000,-375000,-141002.7,-120145.9,0.03,0.00,0.88,-4,0,-2,38,0
'[12:39:02.380 21/01/2026]',-106151.8,-166710.6,-85376.82,16169.88,-375000,-375000,-141007.4,-120157.7,0.03,0.00,0.88,-4,0,-2,38,0
'[12:39:02.384 21/01/2026]',-106141.5,-166695.8,-85357.87,16160.09,-375000,-375000,-141006.3,-120156.2,0.03,0.00,0.88,-4,0,-2,38,0
'[12:39:02.388 21/01/2026]',-106137.1,-166694.8,-85363.05,16166.35,-375000,-375000,-141002.7,-120149.8,0.03,0.00,0.88,-4,0,-2,38,0
'[12:39:02.392 21/01/2026]',-106149.9,-166697.4,-85375.66,16173.72,-375000,-375000,-141003.7,-120148.3,0.03,0.00,0.88,-4,0,-2,38,0
'[12:39:02.396 21/01/2026]',-106143.1,-166691.6,-85370.48,16177.43,-375000,-375000,-140999.5,-120148,0.03,0.00,0.88,-4,0,-2,38,0
'[12:39:02.400 21/01/2026]',-106135.4,-166695.9,-85361.94,16161.12,-375000,-375000,-141002.4,-120153.4,0.03,0.00,0.88,-4,0,-2,38,0
'[12:39:02.404 21/01/2026]',-106131.9,-166698,-85363.41,16159.68,-375000,-375000,-141009.5,-120157.3,0.03,0.00,0.88,-4,0,-2,38,0
'[12:39:02.408 21/01/2026]',-106138.7,-166702.1,-85371.5,16169.16,-375000,-375000,-141018.5,-120163.3,0.03,0.00,0.88,-4,0,-2,38,0
'[12:39:02.412 21/01/2026]',-106131.1,-166703.3,-85375.88,16172.87,-375000,-375000,-141017.8,-120163.7,0.02,0.00,0.88,-4,0,-2,38,0
'[12:39:02.416 21/01/2026]',-106119,-166699.1,-85366.77,16166.39,-375000,-375000,-141015,-120164.3,0.02,0.00,0.88,-4,0,-2,38,0
'[12:39:02.420 21/01/2026]',-106127.3,-166696,-85362.43,16162.77,-375000,-375000,-141020.1,-120167,0.02,0.00,0.88,-4,0,-2,38,0
'[12:39:02.424 21/01/2026]',-106134.1,-166691.6,-85365.55,16169.21,-375000,-375000,-141025.3,-120167.9,0.02,0.00,0.88,-4,0,-2,38,0
'[12:39:02.428 21/01/2026]',-106144.9,-166693.8,-85373.65,16175.55,-375000,-375000,-141025.4,-120171.9,0.02,0.00,0.88,-4,0,-2,38,0
'[12:39:02.432 21/01/2026]',-106130.8,-166692.4,-85369.09,16166.7,-375000,-375000,-141019.2,-120168.1,0.02,0.00,0.88,-4,0,-2,38,0
'[12:39:02.436 21/01/2026]',-106119.2,-166692.2,-85373.06,16154.63,-375000,-375000,-141021.7,-120169.6,0.02,0.00,0.88,-4,0,-2,38,0
'[12:39:02.440 21/01/2026]',-106141.5,-166686.2,-85374.14,16163.13,-375000,-375000,-141024.8,-120168.9,0.02,0.00,0.88,-4,0,-2,38,0
'[12:39:02.444 21/01/2026]',-106152.3,-166692,-85377.13,16166.08,-375000,-375000,-141026.9,-120170.7,0.02,0.00,0.88,-4,0,-2,38,0
'[12:39:02.448 21/01/2026]',-106151.7,-166697.3,-85373.47,16153.25,-375000,-375000,-141031.5,-120178,0.02,0.00,0.88,-4,0,-2,38,0
'[12:39:02.452 21/01/2026]',-106146.4,-166697.4,-85371.41,16145.38,-375000,-375000,-141035.4,-120183.2,0.02,0.00,0.88,-4,0,-2,38,0
'[12:39:02.456 21/01/2026]',-106145.2,-166700.8,-85371.99,16148.51,-375000,-375000,-141041.4,-120186,0.02,0.00,0.88,-4,0,-2,38,0
'[12:39:02.460 21/01/2026]',-106155.9,-166705.2,-85381.88,16159.73,-375000,-375000,-141044.8,-120187.3,0.02,0.00,0.88,-4,0,-2,38,0
'[12:39:02.464 21/01/2026]',-106152.2,-166707.3,-85382.59,16150.88,-375000,-375000,-141042.9,-120190,0.02,0.00,0.88,-4,0,-2,38,0
'[12:39:02.468 21/01/2026]',-106140.6,-166702.8,-85375.66,16147.66,-375000,-375000,-141034.5,-120182.3,0.02,0.00,0.88,-4,0,-2,38,0
'[12:39:02.472 21/01/2026]',-106150.6,-166706.1,-85384.51,16140.24,-375000,-375000,-141040,-120182.9,0.02,0.00,0.88,-4,0,-2,38,0
'[12:39:02.476 21/01/2026]',-106150.3,-166707.3,-85383.93,16158.88,-375000,-375000,-141034.7,-120178.2,0.02,0.00,0.88,-4,0,-2,38,0
'[12:39:02.480 21/01/2026]',-106145.1,-166702.5,-85377.58,16160.22,-375000,-375000,-141025.7,-120174.5,0.02,0.00,0.88,-4,0,-2,38,0
'[12:39:02.484 21/01/2026]',-106141.9,-166703.4,-85379.05,16146.27,-375000,-375000,-141026.4,-120179.9,0.03,0.00,0.89,-4,0,-2,38,0
'[12:39:02.488 21/01/2026]',-106153.2,-166705.6,-85387.33,16143.23,-375000,-375000,-141031.6,-120184.9,0.03,0.00,0.89,-4,0,-2,38,0
'[12:39:02.492 21/01/2026]',-106154.4,-166710.7,-85389.2,16153.2,-375000,-375000,-141032.8,-120186.6,0.03,0.00,0.89,-4,0,-2,38,0
'[12:39:02.496 21/01/2026]',-106159.3,-166709.9,-85386.21,16156.02,-375000,-375000,-141028.1,-120188,0.03,0.00,0.89,-4,0,-2,38,0
'[12:39:02.500 21/01/2026]',-106153.4,-166706.7,-85381.07,16148.02,-375000,-375000,-141024.3,-120186.9,0.03,0.00,0.89,-4,0,-2,38,0
'[12:39:02.504 21/01/2026]',-106147.5,-166706.7,-85386.39,16148.29,-375000,-375000,-141023.7,-120182.6,0.03,0.00,0.89,-4,0,-2,38,0
'[12:39:02.508 21/01/2026]',-106161.7,-166713.3,-85389.88,16153.29,-375000,-375000,-141033.1,-120185.9,0.03,0.00,0.89,-4,0,-2,38,0
'[12:39:02.512 21/01/2026]',-106171,-166716.5,-85392.29,16154.19,-375000,-375000,-141033.8,-120186.8,0.03,0.00,0.89,-4,0,-2,38,0
'[12:39:02.516 21/01/2026]',-106161,-166713.9,-85388.22,16145.25,-375000,-375000,-141031.3,-120186.9,0.03,0.00,0.89,-4,0,-2,38,0
'[12:39:02.520 21/01/2026]',-106159,-166710.6,-85385.9,16142.74,-375000,-375000,-141032.9,-120184.4,0.03,0.00,0.88,-4,0,-2,38,0
'[12:39:02.524 21/01/2026]',-106171.7,-166714.4,-85400.42,16141.98,-375000,-375000,-141045.5,-120191.3,0.03,0.00,0.88,-4,0,-2,38,0
'[12:39:02.528 21/01/2026]',-106172.6,-166722.4,-85403.11,16144.26,-375000,-375000,-141048,-120196.5,0.03,0.00,0.88,-4,0,-2,38,0
'[12:39:02.532 21/01/2026]',-106146.9,-166725.4,-85402.08,16134.47,-375000,-375000,-141044.6,-120196.9,0.03,0.00,0.88,-4,0,-2,38,0
'[12:39:02.536 21/01/2026]',-106136.8,-166719.5,-85399.84,16127.72,-375000,-375000,-141041,-120192.1,0.03,0.00,0.88,-4,0,-2,38,0
'[12:39:02.540 21/01/2026]',-106162.5,-166718,-85401.5,16139.03,-375000,-375000,-141041.7,-120190.6,0.03,0.00,0.88,-4,0,-2,38,0
'[12:39:02.544 21/01/2026]',-106167.4,-166725.7,-85405.74,16149.54,-375000,-375000,-141040.2,-120190.8,0.03,0.00,0.88,-4,0,-2,38,0
'[12:39:02.548 21/01/2026]',-106175.2,-166724.6,-85399.35,16141.94,-375000,-375000,-141038.4,-120194.7,0.03,0.00,0.88,-4,0,-2,38,0
'[12:39:02.552 21/01/2026]',-106177.7,-166724.6,-85400.16,16131.88,-375000,-375000,-141041.2,-120197.2,0.03,0.00,0.88,-4,0,-2,38,0
'[12:39:02.556 21/01/2026]',-106176.6,-166725,-85400.52,16135.05,-375000,-375000,-141043.5,-120195.9,0.03,0.00,0.88,-4,0,-2,38,0
'[12:39:02.560 21/01/2026]',-106176.5,-166731.9,-85407.58,16148.2,-375000,-375000,-141046.3,-120199.1,0.03,0.00,0.88,-4,0,-2,38,0
'[12:39:02.564 21/01/2026]',-106172.2,-166730.3,-85404.49,16141.8,-375000,-375000,-141044.8,-120201.2,0.03,0.00,0.88,-4,0,-2,38,0
'[12:39:02.568 21/01/2026]',-106165.2,-166726.8,-85399.4,16130.99,-375000,-375000,-141046.6,-120201,0.03,0.00,0.88,-4,0,-2,38,0
'[12:39:02.572 21/01/2026]',-106157.2,-166725.9,-85401.5,16131.7,-375000,-375000,-141048.5,-120198.1,0.03,0.00,0.88,-4,0,-2,38,0
'[12:39:02.576 21/01/2026]',-106160.7,-166723.2,-85402.75,16149.94,-375000,-375000,-141042.8,-120192.8,0.03,0.00,0.88,-4,0,-2,38,0
'[12:39:02.580 21/01/2026]',-106168.2,-166724.6,-85399.27,16142.34,-375000,-375000,-141040.9,-120194.5,0.03,0.00,0.88,-4,0,-2,38,0
'[12:39:02.584 21/01/2026]',-106166.2,-166724.9,-85394.66,16132.5,-375000,-375000,-141039.5,-120195.1,0.03,0.00,0.88,-4,0,-2,38,0
'[12:39:02.588 21/01/2026]',-106170.1,-166724.5,-85400.52,16132.5,-375000,-375000,-141041.2,-120195,0.03,0.00,0.88,-4,0,-2,38,0
'[12:39:02.592 21/01/2026]',-106179.4,-166723.8,-85407.76,16141.98,-375000,-375000,-141042.5,-120194.8,0.02,0.00,0.88,-4,0,-2,38,0
'[12:39:02.596 21/01/2026]',-106175.9,-166727,-85409.99,16143.73,-375000,-375000,-141040.7,-120195.6,0.02,0.00,0.88,-4,0,-2,38,0
'[12:39:02.600 21/01/2026]',-106171.4,-166734.4,-85412.49,16131.61,-375000,-375000,-141044.7,-120204,0.02,0.00,0.88,-4,0,-2,38,0
'[12:39:02.604 21/01/2026]',-106168.6,-166728,-85403.46,16136.89,-375000,-375000,-141042.5,-120199,0.02,0.00,0.88,-4,0,-2,38,0
'[12:39:02.608 21/01/2026]',-106166.7,-166727.9,-85405.03,16135.68,-375000,-375000,-141050,-120200.2,0.02,0.00,0.88,-4,0,-2,38,0
'[12:39:02.612 21/01/2026]',-106164.6,-166728.3,-85409.45,16146.36,-375000,-375000,-141045.4,-120199.7,0.02,0.00,0.88,-4,0,-2,38,0
'[12:39:02.616 21/01/2026]',-106166.6,-166729.7,-85408.56,16134.34,-375000,-375000,-141049.2,-120208.2,0.02,0.00,0.88,-4,0,-2,38,0
'[12:39:02.620 21/01/2026]',-106166.1,-166724.2,-85400.38,16136.35,-375000,-375000,-141049.6,-120205.8,0.02,0.00,0.88,-4,0,-2,38,0
'[12:39:02.624 21/01/2026]',-106170.1,-166724.6,-85404.31,16143.77,-375000,-375000,-141052.8,-120205.4,0.02,0.00,0.88,-4,0,-2,38,0
'[12:39:02.628 21/01/2026]',-106175.2,-166735.5,-85410.53,16150.79,-375000,-375000,-141053.9,-120209.3,0.02,0.00,0.89,-4,0,-2,38,0
'[12:39:02.632 21/01/2026]',-106173.9,-166741,-85408.65,16130.94,-375000,-375000,-141057.9,-120217,0.02,0.00,0.89,-4,0,-2,38,0
'[12:39:02.636 21/01/2026]',-106167,-166737.6,-85408.02,16118.33,-375000,-375000,-141061.8,-120216.5,0.02,0.00,0.89,-4,0,-2,38,0
'[12:39:02.640 21/01/2026]',-106175.3,-166745.3,-85421.62,16127.1,-375000,-375000,-141061.7,-120215.6,0.02,0.00,0.89,-4,0,-2,38,0
'[12:39:02.644 21/01/2026]',-106175.5,-166747,-85420.14,16137.11,-375000,-375000,-141055.3,-120211.8,0.02,0.00,0.89,-4,0,-2,38,0
'[12:39:02.648 21/01/2026]',-106160.5,-166745.9,-85417.05,16131.16,-375000,-375000,-141051.3,-120212.2,0.02,0.00,0.89,-4,0,-2,38,0
'[12:39:02.652 21/01/2026]',-106174.9,-166747.2,-85419.47,16117.17,-375000,-375000,-141054.4,-120215.1,0.02,0.00,0.89,-4,0,-2,38,0
'[12:39:02.656 21/01/2026]',-106193,-166737.9,-85414.95,16127.95,-375000,-375000,-141055.1,-120210.8,0.02,0.00,0.89,-4,0,-2,38,0
'[12:39:02.660 21/01/2026]',-106197.8,-166741.6,-85416.61,16145.51,-375000,-375000,-141051.9,-120208.5,0.02,0.00,0.89,-4,0,-2,38,0
'[12:39:02.664 21/01/2026]',-106195.9,-166746.7,-85416.61,16125.35,-375000,-375000,-141054.6,-120216.6,0.02,0.02,0.89,-4,0,-2,38,0
'[12:39:02.668 21/01/2026]',-106184.3,-166740.5,-85408.52,16126.83,-375000,-375000,-141049,-120214.3,0.02,0.02,0.89,-4,0,-2,38,0
'[12:39:02.672 21/01/2026]',-106189.9,-166745.7,-85413.26,16124.55,-375000,-375000,-141056.7,-120220.3,0.02,0.02,0.89,-4,0,-2,38,0
'[12:39:02.676 21/01/2026]',-106187.3,-166748.5,-85412.36,16132.42,-375000,-375000,-141059.1,-120221.9,0.02,0.02,0.89,-4,0,-2,38,0
'[12:39:02.680 21/01/2026]',-106166.4,-166749.1,-85419.16,16130.94,-375000,-375000,-141055.9,-120222.9,0.02,0.02,0.89,-4,0,-2,38,0
'[12:39:02.684 21/01/2026]',-106160.1,-166740.1,-85414.95,16122.49,-375000,-375000,-141053.2,-120221.5,0.02,0.02,0.89,-4,0,-2,38,0
'[12:39:02.688 21/01/2026]',-106182.2,-166738.1,-85413.03,16118.65,-375000,-375000,-141058.7,-120221.1,0.02,0.02,0.89,-4,0,-2,38,0
'[12:39:02.692 21/01/2026]',-106193.3,-166742.3,-85416.79,16128.93,-375000,-375000,-141061.9,-120221.7,0.02,0.02,0.89,-4,0,-2,38,0
'[12:39:02.696 21/01/2026]',-106200.4,-166745.8,-85419.16,16122.89,-375000,-375000,-141065.6,-120225.6,0.02,0.02,0.89,-4,0,-2,38,0
'[12:39:02.700 21/01/2026]',-106199.2,-166746.3,-85424.07,16110.78,-375000,-375000,-141065.7,-120226.9,0.03,0.00,0.88,-4,0,-2,38,0
'[12:39:02.704 21/01/2026]',-106201,-166747.9,-85425.55,16111.85,-375000,-375000,-141068.8,-120224.4,0.03,0.00,0.88,-4,0,-2,38,0
'[12:39:02.708 21/01/2026]',-106207.1,-166747.9,-85429.08,16119.72,-375000,-375000,-141072.8,-120224.4,0.03,0.00,0.88,-4,0,-2,38,0
'[12:39:02.712 21/01/2026]',-106208,-166748.1,-85431.67,16123.03,-375000,-375000,-141070.9,-120227.7,0.03,0.00,0.88,-4,0,-2,38,0
'[12:39:02.716 21/01/2026]',-106197.8,-166750,-85428.32,16109.75,-375000,-375000,-141068.4,-120229.2,0.03,0.00,0.88,-4,0,-2,38,0
'[12:39:02.720 21/01/2026]',-106190.6,-166749.5,-85427.11,16107.02,-375000,-375000,-141069.5,-120227.6,0.03,0.00,0.88,-4,0,-2,38,0
'[12:39:02.724 21/01/2026]',-106193.8,-166751.3,-85435.7,16119.23,-375000,-375000,-141073,-120229.8,0.03,0.00,0.88,-4,0,-2,38,0
'[12:39:02.728 21/01/2026]',-106201.9,-166757.1,-85438.73,16116.68,-375000,-375000,-141074.8,-120234.4,0.03,0.00,0.88,-4,0,-2,38,0
'[12:39:02.732 21/01/2026]',-106202.9,-166758.4,-85430.64,16108.5,-375000,-375000,-141072.8,-120238,0.03,0.00,0.88,-4,0,-2,38,0
'[12:39:02.736 21/01/2026]',-106200.9,-166755.3,-85426.17,16102.51,-375000,-375000,-141070.3,-120233.5,0.02,-0.02,0.89,-4,0,-2,38,0
'[12:39:02.740 21/01/2026]',-106208.3,-166754,-85426.4,16111.54,-375000,-375000,-141071.6,-120231.7,0.02,-0.02,0.89,-4,0,-2,38,0
'[12:39:02.744 21/01/2026]',-106210.3,-166754.7,-85431.36,16121.15,-375000,-375000,-141071.9,-120234.3,0.02,-0.02,0.89,-4,0,-2,38,0
'[12:39:02.748 21/01/2026]',-106197.6,-166752.8,-85431.76,16112.03,-375000,-375000,-141070.3,-120236.9,0.02,-0.02,0.89,-4,0,-2,38,0
'[12:39:02.752 21/01/2026]',-106194.4,-166750.6,-85426.17,16106.85,-375000,-375000,-141069.1,-120234.7,0.02,-0.02,0.89,-4,0,-2,38,0
'[12:39:02.756 21/01/2026]',-106201.7,-166750.4,-85431.54,16109.44,-375000,-375000,-141075.7,-120236.5,0.02,-0.02,0.89,-4,0,-2,38,0
'[12:39:02.760 21/01/2026]',-106198.5,-166751.8,-85438.6,16118.2,-375000,-375000,-141076.8,-120237.5,0.02,-0.02,0.89,-4,0,-2,38,0
'[12:39:02.764 21/01/2026]',-106170.6,-166753.7,-85433.82,16106.89,-375000,-375000,-141072.7,-120235.6,0.02,-0.02,0.89,-4,0,-2,38,0
'[12:39:02.768 21/01/2026]',-106179.6,-166756.3,-85426.3,16104.61,-375000,-375000,-141071.3,-120234.5,0.02,-0.02,0.89,-4,0,-2,38,0
'[12:39:02.772 21/01/2026]',-106201.6,-166757.9,-85431.45,16106.31,-375000,-375000,-141077.7,-120237.7,0.03,0.00,0.88,-4,0,-2,38,0
'[12:39:02.776 21/01/2026]',-106218.8,-166765.6,-85448.16,16105.06,-375000,-375000,-141088,-120246.3,0.03,0.00,0.88,-4,0,-2,38,0
'[12:39:02.780 21/01/2026]',-106217.9,-166775.4,-85450.76,16100.36,-375000,-375000,-141091.1,-120252.4,0.03,0.00,0.88,-4,0,-2,38,0
'[12:39:02.784 21/01/2026]',-106199.9,-166773.1,-85443.74,16092.27,-375000,-375000,-141089.4,-120251.1,0.03,0.00,0.88,-4,0,-2,38,0
'[12:39:02.788 21/01/2026]',-106189.9,-166766.5,-85443.79,16091.56,-375000,-375000,-141090.5,-120247.1,0.03,0.00,0.88,-4,0,-2,38,0
'[12:39:02.792 21/01/2026]',-106202.6,-166768.5,-85450.63,16100.81,-375000,-375000,-141093,-120245.9,0.03,0.00,0.88,-4,0,-2,38,0
'[12:39:02.796 21/01/2026]',-106213.4,-166772.5,-85448.3,16100.72,-375000,-375000,-141094,-120250.5,0.03,0.00,0.88,-4,0,-2,38,0
'[12:39:02.800 21/01/2026]',-106214.9,-166774.6,-85445.09,16092.05,-375000,-375000,-141094.3,-120252.6,0.03,0.00,0.88,-4,0,-2,38,0
'[12:39:02.804 21/01/2026]',-106192.3,-166770.9,-85439.36,16082.88,-375000,-375000,-141092.8,-120246.8,0.03,0.00,0.88,-4,0,-2,38,0
'[12:39:02.808 21/01/2026]',-106191.1,-166783.4,-85454.07,16087.58,-375000,-375000,-141105.5,-120256.4,0.02,0.00,0.88,-4,0,-2,38,0
'[12:39:02.812 21/01/2026]',-106203.1,-166789.1,-85454.38,16090.93,-375000,-375000,-141107,-120261.2,0.02,0.00,0.88,-4,0,-2,38,0
'[12:39:02.816 21/01/2026]',-106206.4,-166786.1,-85452.02,16081.77,-375000,-375000,-141104.5,-120263.9,0.02,0.00,0.88,-4,0,-2,38,0
'[12:39:02.820 21/01/2026]',-106211.6,-166784.7,-85449.82,16079.67,-375000,-375000,-141102.8,-120260.8,0.02,0.00,0.88,-4,0,-2,38,0
'[12:39:02.824 21/01/2026]',-106220.7,-166784.2,-85454.16,16087.27,-375000,-375000,-141103.6,-120258.1,0.02,0.00,0.88,-4,0,-2,38,0
'[12:39:02.828 21/01/2026]',-106216.7,-166775.6,-85449.82,16097.95,-375000,-375000,-141095.3,-120253.1,0.02,0.00,0.88,-4,0,-2,38,0
'[12:39:02.832 21/01/2026]',-106213.8,-166778.5,-85449.6,16085.03,-375000,-375000,-141097,-120258.9,0.02,0.00,0.88,-4,0,-2,38,0
'[12:39:02.836 21/01/2026]',-106201.9,-166775.1,-85448.3,16069.96,-375000,-375000,-141108.2,-120267.3,0.02,0.00,0.88,-4,0,-2,38,0
'[12:39:02.840 21/01/2026]',-106193.3,-166765.2,-85448.34,16078.32,-375000,-375000,-141110.2,-120266.5,0.02,0.00,0.88,-4,0,-2,38,0
'[12:39:02.844 21/01/2026]',-106208,-166770.2,-85449.87,16100.77,-375000,-375000,-141095.3,-120253.6,0.03,0.00,0.88,-4,0,-2,38,0
'[12:39:02.848 21/01/2026]',-106217.7,-166779.1,-85450.98,16098.22,-375000,-375000,-141081.8,-120247.3,0.03,0.00,0.88,-4,0,-2,38,0
'[12:39:02.852 21/01/2026]',-106207.8,-166769.3,-85445.04,16092.81,-375000,-375000,-141081.4,-120248.5,0.03,0.00,0.88,-4,0,-2,38,0
'[12:39:02.856 21/01/2026]',-106196.9,-166762.4,-85444.41,16097.32,-375000,-375000,-141083.8,-120245.9,0.03,0.00,0.88,-4,0,-2,38,0
'[12:39:02.860 21/01/2026]',-106205.6,-166767.7,-85450.85,16109.39,-375000,-375000,-141079.3,-120242.1,0.03,0.00,0.88,-4,0,-2,38,0
'[12:39:02.864 21/01/2026]',-106203.5,-166762.8,-85445.22,16097.9,-375000,-375000,-141078,-120244.3,0.03,0.00,0.88,-4,0,-2,38,0
'[12:39:02.868 21/01/2026]',-106198,-166753.7,-85437.57,16095.45,-375000,-375000,-141077.3,-120243.2,0.03,0.00,0.88,-4,0,-2,38,0
'[12:39:02.872 21/01/2026]',-106200.2,-166753.6,-85439.72,16102.06,-375000,-375000,-141080.6,-120242.9,0.03,0.00,0.88,-4,0,-2,38,0
'[12:39:02.876 21/01/2026]',-106207.2,-166754.4,-85447.9,16113.19,-375000,-375000,-141080.9,-120241,0.03,0.00,0.88,-4,0,-2,38,0
'[12:39:02.880 21/01/2026]',-106205.5,-166755.2,-85447.95,16107.25,-375000,-375000,-141080,-120242.8,0.03,0.00,0.88,-4,0,0,38,0
'[12:39:02.884 21/01/2026]',-106197.4,-166753.8,-85444.23,16097.23,-375000,-375000,-141082.2,-120246.4,0.03,0.00,0.88,-4,0,0,38,0
'[12:39:02.888 21/01/2026]',-106195.3,-166759.5,-85450.36,16097.68,-375000,-375000,-141091.2,-120248.6,0.03,0.00,0.88,-4,0,0,38,0
'[12:39:02.892 21/01/2026]',-106211.6,-166766.7,-85459.16,16103.89,-375000,-375000,-141095.7,-120250.9,0.03,0.00,0.88,-4,0,0,38,0
'[12:39:02.896 21/01/2026]',-106208.6,-166759.3,-85454.02,16107.96,-375000,-375000,-141090,-120249.7,0.03,0.00,0.88,-4,0,0,38,0
'[12:39:02.900 21/01/2026]',-106184,-166751.1,-85445.22,16101.26,-375000,-375000,-141084.1,-120247.9,0.03,0.00,0.88,-4,0,0,38,0
'[12:39:02.904 21/01/2026]',-106191.8,-166748.9,-85443.48,16105.91,-375000,-375000,-141081.4,-120243.4,0.03,0.00,0.88,-4,0,0,38,0
'[12:39:02.908 21/01/2026]',-106208,-166749.7,-85452.1,16117.31,-375000,-375000,-141085.6,-120243.7,0.03,0.00,0.88,-4,0,0,38,0
'[12:39:02.912 21/01/2026]',-106208,-166755.4,-85448.48,16118.74,-375000,-375000,-141083.5,-120245.7,0.03,0.00,0.88,-4,0,0,38,0
'[12:39:02.916 21/01/2026]',-106201.1,-166755,-85445.89,16107.78,-375000,-375000,-141080,-120245.7,0.02,0.00,0.89,-4,0,-2,38,0
'[12:39:02.920 21/01/2026]',-106198.8,-166751,-85446.42,16109.53,-375000,-375000,-141075.4,-120240.3,0.02,0.00,0.89,-4,0,-2,38,0
'[12:39:02.924 21/01/2026]',-106207.7,-166759.9,-85458.59,16114.58,-375000,-375000,-141080.9,-120244.3,0.02,0.00,0.89,-4,0,-2,38,0
'[12:39:02.928 21/01/2026]',-106203.5,-166764.8,-85461.27,16122.27,-375000,-375000,-141075.3,-120243.4,0.02,0.00,0.89,-4,0,-2,38,0
'[12:39:02.932 21/01/2026]',-106197.5,-166761,-85441.87,16118.74,-375000,-375000,-141065.1,-120241.5,0.02,0.00,0.89,-4,0,-2,38,0
'[12:39:02.936 21/01/2026]',-106202.3,-166756.4,-85443.88,16110.96,-375000,-375000,-141063.5,-120239,0.02,0.00,0.89,-4,0,-2,38,0
'[12:39:02.940 21/01/2026]',-106198.2,-166759.1,-85448.57,16120.48,-375000,-375000,-141064.3,-120234.8,0.02,0.00,0.89,-4,0,-2,38,0
'[12:39:02.944 21/01/2026]',-106192,-166755.9,-85448.3,16135.32,-375000,-375000,-141058.1,-120228.5,0.02,0.00,0.89,-4,0,-2,38,0
'[12:39:02.948 21/01/2026]',-106197,-166756.8,-85447.09,16111.54,-375000,-375000,-141063.7,-120235,0.02,0.00,0.89,-4,0,-2,38,0
'[12:39:02.952 21/01/2026]',-106207.2,-166753.3,-85445.53,16103.49,-375000,-375000,-141066.3,-120235.7,0.03,0.00,0.88,-4,0,-2,38,0
'[12:39:02.956 21/01/2026]',-106214.3,-166757.6,-85455.81,16101.53,-375000,-375000,-141080,-120242.5,0.03,0.00,0.88,-4,0,-2,38,0
'[12:39:02.960 21/01/2026]',-106218.1,-166765.1,-85459.79,16107.02,-375000,-375000,-141083.4,-120243.7,0.03,0.00,0.88,-4,0,-2,38,0
'[12:39:02.964 21/01/2026]',-106225.9,-166769.4,-85463.1,16094.37,-375000,-375000,-141086.7,-120249.4,0.03,0.00,0.88,-4,0,-2,38,0
'[12:39:02.968 21/01/2026]',-106223.2,-166763.4,-85457.38,16082.84,-375000,-375000,-141088,-120248.8,0.03,0.00,0.88,-4,0,-2,38,0
'[12:39:02.972 21/01/2026]',-106230.2,-166768.5,-85461.58,16082.12,-375000,-375000,-141098.1,-120255.4,0.03,0.00,0.88,-4,0,-2,38,0
'[12:39:02.976 21/01/2026]',-106243.5,-166777.8,-85473.96,16082.88,-375000,-375000,-141107.2,-120261.6,0.03,0.00,0.88,-4,0,-2,38,0
'[12:39:02.980 21/01/2026]',-106241.5,-166784.3,-85477.13,16077.16,-375000,-375000,-141110,-120271.4,0.03,0.00,0.88,-4,0,-2,38,0
'[12:39:02.984 21/01/2026]',-106226.1,-166783.7,-85474.01,16060.22,-375000,-375000,-141113.3,-120276.2,0.03,0.00,0.88,-4,0,-2,38,0
'[12:39:02.988 21/01/2026]',-106212.8,-166780,-85472.35,16067.73,-375000,-375000,-141111.2,-120271.3,0.02,0.02,0.88,-4,0,-2,38,0
'[12:39:02.992 21/01/2026]',-106224.7,-166781.9,-85472.94,16080.38,-375000,-375000,-141112.3,-120271.6,0.02,0.02,0.88,-4,0,-2,38,0
'[12:39:02.996 21/01/2026]',-106231,-166788.3,-85470.38,16081.68,-375000,-375000,-141107.9,-120274.4,0.02,0.02,0.88,-4,0,-2,38,0
'[12:39:03.000 21/01/2026]',-106228,-166785.9,-85465.29,16068.27,-375000,-375000,-141106,-120276.3,0.02,0.02,0.88,-4,0,-2,38,0
'[12:39:03.004 21/01/2026]',-106229.4,-166779.9,-85466.81,16068.85,-375000,-375000,-141105.7,-120272.4,0.02,0.02,0.88,-4,0,-2,38,0
'[12:39:03.008 21/01/2026]',-106235.8,-166781.6,-85477.8,16075.87,-375000,-375000,-141110.4,-120271.9,0.02,0.02,0.88,-4,0,-2,38,0
'[12:39:03.012 21/01/2026]',-106235.5,-166782.6,-85474.27,16080.47,-375000,-375000,-141106.5,-120270.3,0.02,0.02,0.88,-4,0,-2,38,0
'[12:39:03.016 21/01/2026]',-106231.1,-166780.4,-85468.95,16069.74,-375000,-375000,-141103.7,-120270.2,0.02,0.02,0.88,-4,0,-2,38,0
'[12:39:03.020 21/01/2026]',-106229.6,-166780.1,-85465.73,16070.14,-375000,-375000,-141102.4,-120266,0.02,0.02,0.88,-4,0,-2,38,0
'[12:39:03.024 21/01/2026]',-106230,-166780.6,-85471.59,16086.15,-375000,-375000,-141104.6,-120264.2,0.03,0.00,0.88,-4,0,-2,38,0
'[12:39:03.028 21/01/2026]',-106229.6,-166781.1,-85475.34,16084.58,-375000,-375000,-141105,-120266.5,0.03,0.00,0.88,-4,0,-2,38,0
'[12:39:03.032 21/01/2026]',-106214.2,-166784.9,-85472.71,16083.82,-375000,-375000,-141099.2,-120266.7,0.03,0.00,0.88,-4,0,-2,38,0
'[12:39:03.036 21/01/2026]',-106211.2,-166782.6,-85467.21,16079.84,-375000,-375000,-141096.8,-120262.9,0.03,0.00,0.88,-4,0,-2,38,0
'[12:39:03.040 21/01/2026]',-106223.4,-166778.6,-85468.11,16084.36,-375000,-375000,-141100,-120260.4,0.03,0.00,0.88,-4,0,-2,38,0
'[12:39:03.044 21/01/2026]',-106231.1,-166780.6,-85474.72,16093.88,-375000,-375000,-141096.3,-120256.5,0.03,0.00,0.88,-4,0,-2,38,0
'[12:39:03.048 21/01/2026]',-106226.5,-166777.6,-85467.44,16092.81,-375000,-375000,-141091.4,-120256.7,0.03,0.00,0.88,-4,0,-2,38,0
'[12:39:03.052 21/01/2026]',-106226.6,-166778.9,-85464.66,16084.54,-375000,-375000,-141096.5,-120261.4,0.03,0.00,0.88,-4,0,-2,38,0
'[12:39:03.056 21/01/2026]',-106233.5,-166783.7,-85474.14,16077.21,-375000,-375000,-141105.7,-120266.1,0.03,0.00,0.88,-4,0,-2,38,0
'[12:39:03.060 21/01/2026]',-106241.4,-166793.5,-85489.2,16076.22,-375000,-375000,-141115.6,-120278.5,0.03,0.00,0.88,-4,0,-2,38,0
'[12:39:03.064 21/01/2026]',-106239,-166798.5,-85487.41,16065.99,-375000,-375000,-141125.6,-120296.3,0.03,0.00,0.88,-4,0,-2,38,0
'[12:39:03.068 21/01/2026]',-106234.3,-166795.2,-85481.02,16053.07,-375000,-375000,-141130.8,-120302,0.03,0.00,0.88,-4,0,-2,38,0
'[12:39:03.072 21/01/2026]',-106247.4,-166811.2,-85499.4,16050.61,-375000,-375000,-141132.2,-120298.5,0.03,0.00,0.88,-4,0,-2,38,0
'[12:39:03.076 21/01/2026]',-106275.6,-166825.3,-85510.8,16063.21,-375000,-375000,-141130.6,-120297.2,0.03,0.00,0.88,-4,0,-2,38,0
'[12:39:03.080 21/01/2026]',-106278.1,-166817.9,-85511.38,16057.22,-375000,-375000,-141137.8,-120310.3,0.03,0.00,0.88,-4,0,-2,38,0
'[12:39:03.084 21/01/2026]',-106271.4,-166822.1,-85511.02,16042.38,-375000,-375000,-141141.3,-120314.1,0.03,0.00,0.88,-4,0,-2,38,0
'[12:39:03.088 21/01/2026]',-106276.4,-166834.9,-85517.91,16032.86,-375000,-375000,-141151.8,-120319.8,0.03,0.00,0.88,-4,0,-2,38,0
'[12:39:03.092 21/01/2026]',-106294,-166842.6,-85529.53,16036.62,-375000,-375000,-141157.7,-120324.5,0.03,0.00,0.88,-4,0,-2,38,0
'[12:39:03.096 21/01/2026]',-106289.2,-166841.4,-85526.76,16046.05,-375000,-375000,-141146.1,-120318.4,0.02,0.00,0.89,-4,0,-2,38,0
'[12:39:03.100 21/01/2026]',-106281.3,-166840.4,-85522.91,16032.82,-375000,-375000,-141147.2,-120322.7,0.02,0.00,0.89,-4,0,-2,38,0
'[12:39:03.104 21/01/2026]',-106297.6,-166852.4,-85534.49,16012.97,-375000,-375000,-141160.8,-120331.8,0.02,0.00,0.89,-4,0,-2,38,0
'[12:39:03.108 21/01/2026]',-106312.3,-166855.4,-85543.84,16027,-375000,-375000,-141166.7,-120334,0.02,0.00,0.89,-4,0,-2,38,0
'[12:39:03.112 21/01/2026]',-106306.5,-166852.1,-85542.72,16031.16,-375000,-375000,-141163.6,-120334.3,0.02,0.00,0.89,-4,0,-2,38,0
'[12:39:03.116 21/01/2026]',-106301.3,-166861.9,-85544.64,16011.85,-375000,-375000,-141170.1,-120344.2,0.02,0.00,0.89,-4,0,-2,38,0
'[12:39:03.120 21/01/2026]',-106297.1,-166865.8,-85550.94,16002.02,-375000,-375000,-141176.3,-120348.1,0.02,0.00,0.89,-4,0,-2,38,0
'[12:39:03.124 21/01/2026]',-106311.4,-166863.9,-85547.23,16013.42,-375000,-375000,-141176.5,-120342.3,0.02,0.00,0.89,-4,0,-2,38,0
'[12:39:03.128 21/01/2026]',-106320.2,-166873.9,-85553.18,16008.14,-375000,-375000,-141183.7,-120349.5,0.02,0.00,0.89,-4,0,-2,38,0
'[12:39:03.132 21/01/2026]',-106319.7,-166872.2,-85562.61,15995.04,-375000,-375000,-141189,-120359.4,0.03,0.00,0.88,-4,0,-2,38,0
'[12:39:03.136 21/01/2026]',-106316.5,-166871.9,-85562.43,15985.79,-375000,-375000,-141192.2,-120361.4,0.03,0.00,0.88,-4,0,-2,38,0
'[12:39:03.140 21/01/2026]',-106332.9,-166883,-85572.4,15975.82,-375000,-375000,-141203.9,-120364.5,0.03,0.00,0.88,-4,0,-2,38,0
'[12:39:03.144 21/01/2026]',-106340.8,-166886,-85577.63,15985.83,-375000,-375000,-141204.3,-120366.3,0.03,0.00,0.88,-4,0,-2,38,0
'[12:39:03.148 21/01/2026]',-106341.8,-166890.4,-85579.2,15971.66,-375000,-375000,-141208,-120374.8,0.03,0.00,0.88,-4,0,-2,38,0
'[12:39:03.152 21/01/2026]',-106342.2,-166887.3,-85576.51,15961.56,-375000,-375000,-141210.4,-120376.3,0.03,0.00,0.88,-4,0,-2,38,0
'[12:39:03.156 21/01/2026]',-106351.3,-166886.8,-85578.84,15965.9,-375000,-375000,-141216.3,-120377.6,0.03,0.00,0.88,-4,0,-2,38,0
'[12:39:03.160 21/01/2026]',-106357.1,-166890.9,-85588.49,15969.52,-375000,-375000,-141222.3,-120382.1,0.03,0.00,0.88,-4,0,-2,38,0
'[12:39:03.164 21/01/2026]',-106338.7,-166891.3,-85583.22,15962.99,-375000,-375000,-141225.4,-120388,0.03,0.00,0.88,-4,0,-2,38,0
'[12:39:03.168 21/01/2026]',-106340.4,-166886,-85575.7,15959.64,-375000,-375000,-141223,-120387.9,0.03,0.00,0.89,-4,0,-2,38,0
'[12:39:03.172 21/01/2026]',-106361.6,-166895.7,-85587.6,15953.92,-375000,-375000,-141234.8,-120397.3,0.03,0.00,0.89,-4,0,-2,38,0
'[12:39:03.176 21/01/2026]',-106376.9,-166908.1,-85605.93,15954,-375000,-375000,-141244.6,-120405.1,0.03,0.00,0.89,-4,0,-2,38,0
'[12:39:03.180 21/01/2026]',-106376.9,-166904.9,-85602.17,15953.15,-375000,-375000,-141242.1,-120404.8,0.03,0.00,0.89,-4,0,-2,38,0
'[12:39:03.184 21/01/2026]',-106370.6,-166903.2,-85593.86,15938.72,-375000,-375000,-141241.4,-120405.5,0.03,0.00,0.89,-4,0,-2,38,0
'[12:39:03.188 21/01/2026]',-106374.9,-166907.1,-85602.13,15934.92,-375000,-375000,-141247.9,-120407.9,0.03,0.00,0.89,-4,0,-2,38,0
'[12:39:03.192 21/01/2026]',-106372.9,-166907.7,-85611.91,15940.91,-375000,-375000,-141254.1,-120409.9,0.03,0.00,0.89,-4,0,-2,38,0
'[12:39:03.196 21/01/2026]',-106371.5,-166907.6,-85613.93,15941.53,-375000,-375000,-141253,-120412.2,0.03,0.00,0.89,-4,0,-2,38,0
'[12:39:03.200 21/01/2026]',-106373.3,-166910.3,-85610.89,15928.08,-375000,-375000,-141253.8,-120416.3,0.03,0.00,0.89,-4,0,-2,38,0
'[12:39:03.204 21/01/2026]',-106372.5,-166915.4,-85613.13,15912.65,-375000,-375000,-141265.9,-120423.3,0.03,0.02,0.88,-4,0,-2,38,0
'[12:39:03.208 21/01/2026]',-106386.3,-166921.9,-85627.43,15920.83,-375000,-375000,-141274.1,-120426.5,0.03,0.02,0.88,-4,0,-2,38,0
'[12:39:03.212 21/01/2026]',-106394.4,-166925,-85626.89,15923.56,-375000,-375000,-141272.8,-120430.1,0.03,0.02,0.88,-4,0,-2,38,0
'[12:39:03.216 21/01/2026]',-106387.3,-166919.4,-85621.84,15914.4,-375000,-375000,-141271.6,-120429.6,0.03,0.02,0.88,-4,0,-2,38,0
'[12:39:03.220 21/01/2026]',-106383.3,-166917.5,-85614.95,15909.12,-375000,-375000,-141272.9,-120427.3,0.03,0.02,0.88,-4,0,-2,38,0
'[12:39:03.224 21/01/2026]',-106396.4,-166924.2,-85624.66,15911.31,-375000,-375000,-141281.3,-120429.5,0.03,0.02,0.88,-4,0,-2,38,0
'[12:39:03.228 21/01/2026]',-106404.9,-166929,-85634.72,15908.81,-375000,-375000,-141283.6,-120432.4,0.03,0.02,0.88,-4,0,-2,38,0
'[12:39:03.232 21/01/2026]',-106395.1,-166927.6,-85631.36,15897.23,-375000,-375000,-141280.5,-120433.1,0.03,0.02,0.88,-4,0,-2,38,0
'[12:39:03.236 21/01/2026]',-106387.5,-166920.8,-85619.96,15896.6,-375000,-375000,-141278.4,-120429.2,0.03,0.02,0.88,-4,0,-2,38,0
'[12:39:03.240 21/01/2026]',-106403.2,-166926.8,-85629.66,15897.59,-375000,-375000,-141289.7,-120434.7,0.02,0.00,0.88,-4,0,-2,38,0
'[12:39:03.244 21/01/2026]',-106404.2,-166929.8,-85637.13,15900.54,-375000,-375000,-141293.6,-120439.1,0.02,0.00,0.88,-4,0,-2,38,0
'[12:39:03.248 21/01/2026]',-106392.2,-166930.7,-85638.88,15888.38,-375000,-375000,-141294,-120442.1,0.02,0.00,0.88,-4,0,-2,38,0
'[12:39:03.252 21/01/2026]',-106387.2,-166936.2,-85640.21,15881.99,-375000,-375000,-141294.2,-120441.7,0.02,0.00,0.88,-4,0,-2,38,0
'[12:39:03.256 21/01/2026]',-106400.4,-166936.5,-85645.66,15884.09,-375000,-375000,-141298.4,-120442.4,0.02,0.00,0.88,-4,0,-2,38,0
'[12:39:03.260 21/01/2026]',-106407.2,-166941.5,-85651.7,15890.12,-375000,-375000,-141300.2,-120444.5,0.02,0.00,0.88,-4,0,-2,38,0
'[12:39:03.264 21/01/2026]',-106404.3,-166944.4,-85649.29,15885.52,-375000,-375000,-141298.8,-120449.4,0.02,0.00,0.88,-4,0,-2,38,0
'[12:39:03.268 21/01/2026]',-106399.8,-166937.8,-85638.91,15877.02,-375000,-375000,-141297.4,-120447.6,0.02,0.00,0.88,-4,0,-2,38,0
'[12:39:03.272 21/01/2026]',-106409.9,-166939.8,-85640.26,15878.05,-375000,-375000,-141303.5,-120449.6,0.02,0.00,0.88,-4,0,-2,38,0
'[12:39:03.276 21/01/2026]',-106414.1,-166948.9,-85649.87,15884,-375000,-375000,-141307.1,-120454,0.02,0.00,0.88,-4,0,-2,38,0
'[12:39:03.280 21/01/2026]',-106400.8,-166951.8,-85653.54,15886.19,-375000,-375000,-141303.2,-120456.3,0.02,0.00,0.88,-4,0,-2,38,0
'[12:39:03.284 21/01/2026]',-106396.9,-166954,-85649.06,15868.67,-375000,-375000,-141303.9,-120458.9,0.02,0.00,0.88,-4,0,-2,38,0
'[12:39:03.288 21/01/2026]',-106404.7,-166954.2,-85651.75,15865.27,-375000,-375000,-141307.7,-120457.9,0.02,0.00,0.88,-4,0,-2,38,0
'[12:39:03.292 21/01/2026]',-106426.1,-166955,-85655.64,15876.71,-375000,-375000,-141308,-120456.9,0.02,0.00,0.88,-4,0,-2,38,0
'[12:39:03.296 21/01/2026]',-106426.1,-166958.9,-85652.51,15875.59,-375000,-375000,-141305,-120459.2,0.02,0.00,0.88,-4,0,-2,38,0
'[12:39:03.300 21/01/2026]',-106413.6,-166956.3,-85651.62,15871.53,-375000,-375000,-141300.2,-120458.8,0.02,0.00,0.88,-4,0,-2,38,0
'[12:39:03.304 21/01/2026]',-106415.8,-166955.1,-85653.18,15859.1,-375000,-375000,-141303.2,-120456.8,0.02,0.00,0.88,-4,0,-2,38,0
'[12:39:03.308 21/01/2026]',-106432.3,-166966.4,-85664.31,15869.25,-375000,-375000,-141309.6,-120460.2,0.02,0.00,0.88,-4,0,-2,38,0
'[12:39:03.312 21/01/2026]',-106430.4,-166965.8,-85663.46,15874.92,-375000,-375000,-141306.9,-120462.1,0.02,0.00,0.88,-4,0,-2,38,0
'[12:39:03.316 21/01/2026]',-106417.8,-166963.2,-85655.37,15871.12,-375000,-375000,-141302.5,-120461.7,0.02,0.00,0.88,-4,0,-2,38,0
'[12:39:03.320 21/01/2026]',-106417.9,-166969.1,-85654.61,15864.06,-375000,-375000,-141308.6,-120464.1,0.02,0.00,0.88,-4,0,-2,38,0
'[12:39:03.324 21/01/2026]',-106425.4,-166968.5,-85661.54,15867.86,-375000,-375000,-141314,-120463.9,0.02,0.00,0.88,-4,0,-2,38,0
'[12:39:03.328 21/01/2026]',-106423.3,-166965.5,-85662.16,15875.46,-375000,-375000,-141309.6,-120461.9,0.02,0.00,0.88,-4,0,-2,38,0
'[12:39:03.332 21/01/2026]',-106420.6,-166969.8,-85665.25,15865.67,-375000,-375000,-141305.1,-120462.5,0.02,0.00,0.88,-4,0,-2,38,0
'[12:39:03.336 21/01/2026]',-106427.4,-166970.3,-85668.69,15852.13,-375000,-375000,-141307.5,-120463.9,0.02,0.00,0.88,-4,0,-2,38,0
'[12:39:03.340 21/01/2026]',-106438.2,-166973.2,-85673.3,15852.84,-375000,-375000,-141318.6,-120467.2,0.02,0.00,0.88,-4,0,-2,38,0
'[12:39:03.344 21/01/2026]',-106442,-166979.6,-85683.48,15853.6,-375000,-375000,-141325.2,-120473.2,0.02,0.00,0.88,-4,0,-2,38,0
'[12:39:03.348 21/01/2026]',-106437.8,-166980.4,-85677.36,15849.76,-375000,-375000,-141323,-120474.1,0.02,0.02,0.88,-4,0,-2,38,0
'[12:39:03.352 21/01/2026]',-106443.4,-166977.2,-85674.68,15844.61,-375000,-375000,-141324.8,-120476.5,0.02,0.02,0.88,-4,0,-2,38,0
'[12:39:03.356 21/01/2026]',-106450.3,-166979.6,-85683.66,15844.21,-375000,-375000,-141335,-120481.1,0.02,0.02,0.88,-4,0,-2,38,0
'[12:39:03.360 21/01/2026]',-106456.3,-166987.1,-85689.48,15847.3,-375000,-375000,-141339.2,-120484.3,0.02,0.02,0.88,-4,0,-2,38,0
'[12:39:03.364 21/01/2026]',-106452.3,-166983.3,-85684.47,15845.2,-375000,-375000,-141333.3,-120485.3,0.02,0.02,0.88,-4,0,-2,38,0
'[12:39:03.368 21/01/2026]',-106442.2,-166980.6,-85682.46,15835.05,-375000,-375000,-141332,-120485.2,0.02,0.02,0.88,-4,0,-2,38,0
'[12:39:03.372 21/01/2026]',-106443.3,-166982.6,-85687.16,15837.01,-375000,-375000,-141337.6,-120487.6,0.02,0.02,0.88,-4,0,-2,38,0
'[12:39:03.376 21/01/2026]',-106439.8,-166986,-85688.59,15846.36,-375000,-375000,-141337.1,-120486.1,0.02,0.02,0.88,-4,0,-2,38,0
'[12:39:03.380 21/01/2026]',-106435.3,-166987.5,-85682.99,15847.88,-375000,-375000,-141329.4,-120484.2,0.02,0.02,0.88,-4,0,-2,38,0
'[12:39:03.384 21/01/2026]',-106439.6,-166986.1,-85678.21,15841.93,-375000,-375000,-141325.7,-120483.1,0.02,0.00,0.88,-4,0,-2,38,0
'[12:39:03.388 21/01/2026]',-106450.7,-166988.8,-85684.2,15840.14,-375000,-375000,-141330.8,-120485.8,0.02,0.00,0.88,-4,0,-2,38,0
'[12:39:03.392 21/01/2026]',-106456.1,-166990.9,-85692.38,15845.82,-375000,-375000,-141335.7,-120488,0.02,0.00,0.88,-4,0,-2,38,0
'[12:39:03.396 21/01/2026]',-106452.6,-166994.4,-85688.18,15848.46,-375000,-375000,-141331.1,-120489.4,0.02,0.00,0.88,-4,0,-2,38,0
'[12:39:03.400 21/01/2026]',-106444.8,-166985.2,-85685.68,15839.61,-375000,-375000,-141329.8,-120489.5,0.02,0.00,0.88,-4,0,-2,38,0
'[12:39:03.404 21/01/2026]',-106445.6,-166984.2,-85686.8,15834.82,-375000,-375000,-141333.3,-120491.7,0.02,0.00,0.88,-4,0,-2,38,0
'[12:39:03.408 21/01/2026]',-106454.9,-166993.1,-85696.41,15842.29,-375000,-375000,-141337.6,-120492.3,0.02,0.00,0.88,-4,0,-2,38,0
'[12:39:03.412 21/01/2026]',-106450,-166990.7,-85696.18,15846.4,-375000,-375000,-141333.9,-120492.4,0.02,0.00,0.88,-4,0,-2,38,0
'[12:39:03.416 21/01/2026]',-106436.1,-166983.4,-85689.52,15845.33,-375000,-375000,-141327.3,-120488.7,0.02,0.00,0.88,-4,0,-2,38,0
'[12:39:03.420 21/01/2026]',-106443.7,-166988.1,-85690.51,15835.27,-375000,-375000,-141334.9,-120492.8,0.02,0.00,0.88,-4,0,-2,38,0
'[12:39:03.424 21/01/2026]',-106458.2,-166991,-85695.06,15841.53,-375000,-375000,-141345,-120497.2,0.02,0.00,0.88,-4,0,-2,38,0
'[12:39:03.428 21/01/2026]',-106460.7,-167000.1,-85699.76,15844.35,-375000,-375000,-141343.1,-120498.7,0.02,0.00,0.88,-4,0,-2,38,0
'[12:39:03.432 21/01/2026]',-106455.2,-167001.6,-85690.28,15840.99,-375000,-375000,-141337.7,-120499,0.02,0.00,0.88,-4,0,-2,38,0
'[12:39:03.436 21/01/2026]',-106444.5,-166989,-85690.2,15836.08,-375000,-375000,-141334.9,-120493.5,0.02,0.00,0.88,-4,0,-2,38,0
'[12:39:03.440 21/01/2026]',-106447.5,-166995.2,-85702.4,15835.72,-375000,-375000,-141339.8,-120493.5,0.02,0.00,0.88,-4,0,-2,38,0
'[12:39:03.444 21/01/2026]',-106453.8,-166999.1,-85700.61,15846.31,-375000,-375000,-141333.7,-120491.1,0.02,0.00,0.88,-4,0,-2,38,0
'[12:39:03.448 21/01/2026]',-106450.1,-166996.2,-85694.3,15834.15,-375000,-375000,-141335.9,-120497.4,0.02,0.00,0.88,-4,0,-2,38,0
'[12:39:03.452 21/01/2026]',-106441.1,-166989.9,-85688,15834.24,-375000,-375000,-141331.7,-120489.8,0.02,0.00,0.88,-4,0,-2,38,0
'[12:39:03.456 21/01/2026]',-106448.1,-166990.5,-85696.77,15836.48,-375000,-375000,-141341,-120494.1,0.03,0.00,0.88,-4,0,-2,38,0
'[12:39:03.460 21/01/2026]',-106466.9,-166995.7,-85706.69,15839.97,-375000,-375000,-141344.3,-120497.3,0.03,0.00,0.88,-4,0,-2,38,0
'[12:39:03.464 21/01/2026]',-106462.8,-166996.3,-85700.12,15835.94,-375000,-375000,-141338.8,-120497.4,0.03,0.00,0.88,-4,0,-2,38,0
'[12:39:03.468 21/01/2026]',-106460.2,-166996.7,-85693.14,15829.77,-375000,-375000,-141338.9,-120499.2,0.03,0.00,0.88,-4,0,-2,38,0
'[12:39:03.472 21/01/2026]',-106470.7,-166998.7,-85695.38,15829.64,-375000,-375000,-141343.8,-120500.3,0.03,0.00,0.88,-4,0,-2,38,0
'[12:39:03.476 21/01/2026]',-106473.5,-166997.2,-85699.71,15842.74,-375000,-375000,-141341.4,-120498.5,0.03,0.00,0.88,-4,0,-2,38,0
'[12:39:03.480 21/01/2026]',-106469.5,-167002.9,-85703.56,15835.32,-375000,-375000,-141340.3,-120503.8,0.03,0.00,0.88,-4,0,-2,38,0
'[12:39:03.484 21/01/2026]',-106453.2,-166998.7,-85697.52,15830.13,-375000,-375000,-141334.2,-120500.8,0.03,0.00,0.88,-4,0,-2,38,0
'[12:39:03.488 21/01/2026]',-106464.7,-166997.7,-85698.1,15822.04,-375000,-375000,-141337.8,-120499,0.03,0.00,0.88,-4,0,-2,38,0
'[12:39:03.492 21/01/2026]',-106476.5,-167002.7,-85704.9,15836.48,-375000,-375000,-141340,-120499.8,0.03,0.00,0.88,-4,0,-2,38,0
'[12:39:03.496 21/01/2026]',-106471.2,-167001.6,-85706.06,15834.82,-375000,-375000,-141337.3,-120501.8,0.03,0.00,0.88,-4,0,-2,38,0
'[12:39:03.500 21/01/2026]',-106462.6,-167002.1,-85698.87,15827.67,-375000,-375000,-141336.4,-120503.9,0.03,0.00,0.88,-4,0,-2,38,0
'[12:39:03.504 21/01/2026]',-106462.5,-167003.6,-85698.38,15823.07,-375000,-375000,-141341.6,-120503.3,0.03,0.00,0.88,-4,0,-2,38,0
'[12:39:03.508 21/01/2026]',-106467.9,-166998.1,-85700.12,15839.47,-375000,-375000,-141339.9,-120498.2,0.03,0.00,0.88,-4,0,-2,38,0
'[12:39:03.512 21/01/2026]',-106462.1,-166995.8,-85706.06,15842.65,-375000,-375000,-141336.6,-120497.8,0.03,0.00,0.88,-4,0,-2,38,0
'[12:39:03.516 21/01/2026]',-106453.6,-166994.3,-85701.46,15835.27,-375000,-375000,-141334.3,-120499.6,0.03,0.00,0.88,-4,0,-2,38,0
'[12:39:03.520 21/01/2026]',-106460.2,-166990.5,-85695.52,15826.29,-375000,-375000,-141338.4,-120501.9,0.03,0.00,0.88,-4,0,-2,38,0
'[12:39:03.524 21/01/2026]',-106474.9,-166994.8,-85699.67,15830.76,-375000,-375000,-141347.5,-120507.2,0.03,0.00,0.88,-4,0,-2,38,0
'[12:39:03.528 21/01/2026]',-106472.4,-166995.8,-85706.91,15836.43,-375000,-375000,-141344.6,-120505.6,0.02,0.00,0.89,-4,0,-2,38,0
'[12:39:03.532 21/01/2026]',-106461.8,-166992.9,-85707.59,15827.9,-375000,-375000,-141347.9,-120510.9,0.02,0.00,0.89,-4,0,-2,38,0
'[12:39:03.536 21/01/2026]',-106438.6,-166973.2,-85691.66,15823.65,-375000,-375000,-141353.4,-120514.7,0.02,0.00,0.89,-4,0,-2,38,0
'[12:39:03.540 21/01/2026]',-106448.7,-166971.1,-85696.72,15833.13,-375000,-375000,-141352.7,-120506.9,0.02,0.00,0.89,-4,0,-2,38,0
'[12:39:03.544 21/01/2026]',-106480,-166997.1,-85709.28,15840.14,-375000,-375000,-141338.8,-120493.8,0.02,0.00,0.89,-4,0,-2,38,0
'[12:39:03.548 21/01/2026]',-106479.2,-167005.8,-85708.03,15826.42,-375000,-375000,-141338.4,-120497.9,0.02,0.00,0.89,-4,0,-2,38,0
'[12:39:03.552 21/01/2026]',-106476.4,-167001.6,-85703.88,15817.26,-375000,-375000,-141342.1,-120501.3,0.02,0.00,0.89,-4,0,-2,38,0
'[12:39:03.556 21/01/2026]',-106487.2,-167012.2,-85707.63,15823.83,-375000,-375000,-141347.2,-120504.5,0.02,0.00,0.89,-4,0,-2,38,0
'[12:39:03.560 21/01/2026]',-106489.7,-167022.5,-85711.61,15832.9,-375000,-375000,-141347.5,-120505.9,0.02,0.00,0.89,-4,0,-2,38,0
'[12:39:03.564 21/01/2026]',-106480.9,-167024.5,-85713.22,15827.22,-375000,-375000,-141345.4,-120507.9,0.02,0.00,0.88,-4,0,-2,38,0
'[12:39:03.568 21/01/2026]',-106476.8,-167022.3,-85706.51,15817.48,-375000,-375000,-141344.5,-120507.8,0.02,0.00,0.88,-4,0,-2,38,0
'[12:39:03.572 21/01/2026]',-106485.5,-167025.5,-85711.16,15813.81,-375000,-375000,-141356.8,-120517,0.02,0.00,0.88,-4,0,-2,38,0
'[12:39:03.576 21/01/2026]',-106488.2,-167025.4,-85716.61,15823.25,-375000,-375000,-141356.9,-120516.8,0.02,0.00,0.88,-4,0,-2,38,0
'[12:39:03.580 21/01/2026]',-106484.5,-167029.1,-85716.34,15821.91,-375000,-375000,-141352.9,-120515.4,0.02,0.00,0.88,-4,0,-2,38,0
'[12:39:03.584 21/01/2026]',-106472.6,-167029.9,-85712.32,15811.31,-375000,-375000,-141351.4,-120514.7,0.02,0.00,0.88,-4,0,-2,38,0
'[12:39:03.588 21/01/2026]',-106471.7,-167031.6,-85714.38,15808.05,-375000,-375000,-141355.2,-120515.9,0.02,0.00,0.88,-4,0,-2,38,0
'[12:39:03.592 21/01/2026]',-106488.8,-167029.8,-85719.7,15822.13,-375000,-375000,-141352.9,-120513,0.02,0.00,0.88,-4,0,-2,38,0
'[12:39:03.596 21/01/2026]',-106488.3,-167032.6,-85720.14,15824.32,-375000,-375000,-141348,-120510.7,0.02,0.00,0.88,-4,0,-2,38,0
'[12:39:03.600 21/01/2026]',-106477.9,-167026.6,-85707.05,15820.3,-375000,-375000,-141341.8,-120507.1,0.02,0.00,0.89,-4,0,-2,38,0
'[12:39:03.604 21/01/2026]',-106482.2,-167024.6,-85706.6,15806.66,-375000,-375000,-141351,-120512.4,0.02,0.00,0.89,-4,0,-2,38,0
'[12:39:03.608 21/01/2026]',-106475,-167029.5,-85720.23,15819.8,-375000,-375000,-141354.8,-120514.2,0.02,0.00,0.89,-4,0,-2,38,0
'[12:39:03.612 21/01/2026]',-106465.6,-167031.9,-85722.6,15818.73,-375000,-375000,-141355.6,-120517.9,0.02,0.00,0.89,-4,0,-2,38,0
'[12:39:03.616 21/01/2026]',-106476.4,-167024.2,-85718.71,15806.84,-375000,-375000,-141355.5,-120519.8,0.02,0.00,0.89,-4,0,-2,38,0
'[12:39:03.620 21/01/2026]',-106477.8,-167018.1,-85721.26,15801.92,-375000,-375000,-141360.1,-120519.5,0.02,0.00,0.89,-4,0,-2,38,0
'[12:39:03.624 21/01/2026]',-106495.3,-167014.8,-85718.89,15813.14,-375000,-375000,-141364.9,-120519.7,0.02,0.00,0.89,-4,0,-2,38,0
'[12:39:03.628 21/01/2026]',-106510.1,-167016.7,-85721.13,15816.14,-375000,-375000,-141364.9,-120521.5,0.02,0.00,0.89,-4,0,-2,38,0
'[12:39:03.632 21/01/2026]',-106499.3,-167015.7,-85720.55,15804.83,-375000,-375000,-141364.3,-120524.2,0.02,0.00,0.89,-4,0,-2,38,0
'[12:39:03.636 21/01/2026]',-106491.7,-167015.1,-85715.05,15804.74,-375000,-375000,-141363.8,-120521.9,0.03,0.02,0.88,-4,0,-2,38,0
'[12:39:03.640 21/01/2026]',-106502.1,-167024.3,-85722.7,15804.38,-375000,-375000,-141374.9,-120530,0.03,0.02,0.88,-4,0,-2,38,0
'[12:39:03.644 21/01/2026]',-106509.6,-167030.6,-85731.95,15806.3,-375000,-375000,-141378.8,-120535.8,0.03,0.02,0.88,-4,0,-2,38,0
'[12:39:03.648 21/01/2026]',-106502.8,-167028.9,-85724.7,15806.66,-375000,-375000,-141372.1,-120535.6,0.03,0.02,0.88,-4,0,-2,38,0
'[12:39:03.652 21/01/2026]',-106492.9,-167024.6,-85716.39,15800.36,-375000,-375000,-141367.5,-120531.5,0.03,0.02,0.88,-4,0,-2,38,0
'[12:39:03.656 21/01/2026]',-106500.4,-167032.8,-85728.64,15802.01,-375000,-375000,-141372.2,-120534.1,0.03,0.02,0.88,-4,0,-2,38,0
'[12:39:03.660 21/01/2026]',-106501,-167034.5,-85729.09,15815.29,-375000,-375000,-141366.3,-120528.7,0.03,0.02,0.88,-4,0,-2,38,0
'[12:39:03.664 21/01/2026]',-106495.1,-167033.5,-85727.38,15811.53,-375000,-375000,-141364.9,-120532,0.03,0.02,0.88,-4,0,-2,38,0
'[12:39:03.668 21/01/2026]',-106487.8,-167031.1,-85722.38,15806.17,-375000,-375000,-141359.2,-120527.3,0.03,0.02,0.88,-4,0,-2,38,0
'[12:39:03.672 21/01/2026]',-106493.4,-167036.3,-85727.61,15798.79,-375000,-375000,-141362.7,-120523.9,0.03,0.00,0.88,-4,0,-2,38,0
'[12:39:03.676 21/01/2026]',-106505.3,-167040,-85731.55,15812.56,-375000,-375000,-141363.3,-120526.3,0.03,0.00,0.88,-4,0,-2,38,0
'[12:39:03.680 21/01/2026]',-106504,-167035.1,-85727.84,15818.11,-375000,-375000,-141356,-120524.3,0.03,0.00,0.88,-4,0,-2,38,0
