'Time and date','Fp1','Fp2','F3','Fz','F4','P3','Pz','P4','AccX','AccY','AccZ','GyroX','GyroY','GyroZ','Battery','Event'
'[hh:mm:ss.mmm dd/mm/yyyy]','uV','uV','uV','uV','uV','uV','uV','uV','G','G','G','Deg/s','Deg/s','Deg/s','%','Button'
'[11:48:00.000 21/01/2026]',-130146.3,-184471.3,-140140.8,-16872.88,-375000,-375000,-151936.3,-147073.9,0.02,0.00,0.89,-4,0,-2,44,0
'[11:48:00.004 21/01/2026]',-130150.6,-184490.7,-140157.2,-16885.04,-375000,-375000,-151957.9,-147138.7,0.02,0.00,0.89,-4,0,-2,44,0
'[11:48:00.008 21/01/2026]',-130142.2,-184494.9,-140155.1,-16882.27,-375000,-375000,-151955.5,-147148.9,0.02,0.00,0.89,-4,0,-2,44,0
'[11:48:00.012 21/01/2026]',-130150.9,-184482.2,-140142,-16875.79,-375000,-375000,-151943.4,-147094,0.02,0.00,0.89,-4,0,-2,44,0
'[11:48:00.016 21/01/2026]',-130140.2,-184467.5,-140133.9,-16870.65,-375000,-375000,-151930.3,-147063.9,0.02,0.00,0.89,-4,0,-2,44,0
'[11:48:00.020 21/01/2026]',-130123,-184478.9,-140145.5,-16884.78,-375000,-375000,-151947.2,-147125.6,0.02,0.00,0.89,-4,0,-2,44,0
'[11:48:00.024 21/01/2026]',-130114.4,-184479.8,-140142.3,-16873.51,-375000,-375000,-151942.8,-147146.9,0.02,0.00,0.89,-4,0,-2,44,0
'[11:48:00.028 21/01/2026]',-130115.4,-184478.5,-140142.8,-16865.55,-375000,-375000,-151930.7,-147105.7,0.02,0.00,0.89,-4,0,-2,44,0
'[11:48:00.032 21/01/2026]',-130136.4,-184473.2,-140141.3,-16867.7,-375000,-375000,-151933.9,-147074,0.02,0.00,0.89,-4,0,-2,44,0
'[11:48:00.036 21/01/2026]',-130143.9,-184489.2,-140154.4,-16891.17,-375000,-375000,-151963.7,-147131.3,0.03,0.00,0.88,-4,0,-2,44,0
'[11:48:00.040 21/01/2026]',-130129.5,-184485.7,-140153.8,-16883.03,-375000,-375000,-151952.7,-147160.8,0.03,0.00,0.88,-4,0,-2,44,0
'[11:48:00.044 21/01/2026]',-130140.5,-184477.7,-140158.7,-16888.89,-375000,-375000,-151948.6,-147118.2,0.03,0.00,0.88,-4,0,-2,44,0
'[11:48:00.048 21/01/2026]',-130157.8,-184479.3,-140149.5,-16879.19,-375000,-375000,-151937.1,-147070.9,0.03,0.00,0.88,-4,0,-2,44,0
'[11:48:00.052 21/01/2026]',-130142,-184493.1,-140140.5,-16881.02,-375000,-375000,-151945.4,-147103.9,0.03,0.00,0.88,-4,0,-2,44,0
'[11:48:00.056 21/01/2026]',-130103.6,-184493.3,-140143.7,-16883.84,-375000,-375000,-151955.6,-147162,0.03,0.00,0.88,-4,0,-2,44,0
'[11:48:00.060 21/01/2026]',-130127.2,-184484.6,-140142,-16877.98,-375000,-375000,-151939.8,-147128.5,0.03,0.00,0.88,-4,0,-2,44,0
'[11:48:00.064 21/01/2026]',-130153.1,-184482.2,-140129,-16862.6,-375000,-375000,-151919.9,-147066.6,0.03,0.00,0.88,-4,0,-2,44,0
'[11:48:00.068 21/01/2026]',-130139.8,-184499.4,-140151.2,-16877.44,-375000,-375000,-151934.4,-147086.4,0.03,0.00,0.88,-4,0,-2,44,0
'[11:48:00.072 21/01/2026]',-130118.3,-184494.1,-140159.3,-16880.89,-375000,-375000,-151935.8,-147151,0.02,0.02,0.88,-4,0,-2,44,0
'[11:48:00.076 21/01/2026]',-130154.2,-184488,-140147.5,-16881.56,-375000,-375000,-151934.8,-147133.2,0.02,0.02,0.88,-4,0,-2,44,0
'[11:48:00.080 21/01/2026]',-130161.4,-184480.7,-140138.4,-16870.34,-375000,-375000,-151925.3,-147077.4,0.02,0.02,0.88,-4,0,-2,44,0
'[11:48:00.084 21/01/2026]',-130132.3,-184482.3,-140150.3,-16874.76,-375000,-375000,-151931.4,-147082.8,0.02,0.02,0.88,-4,0,-2,44,0
'[11:48:00.088 21/01/2026]',-130114.1,-184500.5,-140158.7,-16896.04,-375000,-375000,-151955.6,-147152.1,0.02,0.02,0.88,-4,0,-2,44,0
'[11:48:00.092 21/01/2026]',-130129.9,-184501.3,-140146,-16892.96,-375000,-375000,-151950.9,-147155.7,0.02,0.02,0.88,-4,0,-2,44,0
'[11:48:00.096 21/01/2026]',-130146.8,-184481.8,-140132.8,-16876.19,-375000,-375000,-151930,-147096.6,0.02,0.02,0.88,-4,0,-2,44,0
'[11:48:00.100 21/01/2026]',-130139.4,-184481.8,-140139.4,-16881.6,-375000,-375000,-151940.5,-147102.3,0.02,0.02,0.88,-4,0,-2,44,0
'[11:48:00.104 21/01/2026]',-130116.6,-184493.9,-140157.2,-16896,-375000,-375000,-151954,-147160.7,0.02,0.02,0.88,-4,0,-2,44,0
'[11:48:00.108 21/01/2026]',-130142.5,-184490.3,-140157.3,-16892.29,-375000,-375000,-151949.9,-147168.1,0.03,0.00,0.88,-4,0,-2,44,0
'[11:48:00.112 21/01/2026]',-130155.9,-184485.4,-140154.8,-16892.51,-375000,-375000,-151947,-147117.7,0.03,0.00,0.88,-4,0,-2,44,0
'[11:48:00.116 21/01/2026]',-130162.8,-184486.5,-140150.6,-16894.25,-375000,-375000,-151949.9,-147101.3,0.03,0.00,0.88,-4,0,-2,44,0
'[11:48:00.120 21/01/2026]',-130143.6,-184489.3,-140143.9,-16896.53,-375000,-375000,-151956.9,-147147.8,0.03,0.00,0.88,-4,0,-2,44,0
'[11:48:00.124 21/01/2026]',-130125.3,-184483.9,-140143.9,-16893.09,-375000,-375000,-151949.9,-147159.2,0.03,0.00,0.88,-4,0,-2,44,0
'[11:48:00.128 21/01/2026]',-130134.4,-184488.9,-140152.8,-16891.48,-375000,-375000,-151948.4,-147112.6,0.03,0.00,0.88,-4,0,-2,44,0
'[11:48:00.132 21/01/2026]',-130143.3,-184473.6,-140135.2,-16876.24,-375000,-375000,-151940.9,-147084,0.03,0.00,0.88,-4,0,-2,44,0
'[11:48:00.136 21/01/2026]',-130116.5,-184476.6,-140147.6,-16887.37,-375000,-375000,-151956.1,-147124.2,0.03,0.00,0.88,-4,0,-2,44,0
'[11:48:00.140 21/01/2026]',-130115.3,-184489.6,-140161.9,-16896.8,-375000,-375000,-151969.7,-147176.6,0.03,0.00,0.88,-4,0,-2,44,0
'[11:48:00.144 21/01/2026]',-130149,-184494.3,-140155.1,-16894.39,-375000,-375000,-151964,-147148.4,0.03,0.00,0.88,-4,0,-2,44,0
'[11:48:00.148 21/01/2026]',-130166.3,-184491.9,-140153,-16890.95,-375000,-375000,-151956.7,-147111,0.03,0.00,0.88,-4,0,-2,44,0
'[11:48:00.152 21/01/2026]',-130157.2,-184495.9,-140154.5,-16896.17,-375000,-375000,-151962.8,-147128.5,0.03,0.00,0.88,-4,0,-2,44,0
'[11:48:00.156 21/01/2026]',-130135.8,-184492.1,-140159.5,-16899.75,-375000,-375000,-151965.6,-147171.3,0.03,0.00,0.88,-4,0,-2,44,0
'[11:48:00.160 21/01/2026]',-130140.9,-184496.8,-140157.9,-16898.95,-375000,-375000,-151957.4,-147152.1,0.03,0.00,0.88,-4,0,-2,44,0
'[11:48:00.164 21/01/2026]',-130161,-184489.9,-140137.4,-16878.43,-375000,-375000,-151933.4,-147088,0.03,0.00,0.88,-4,0,-2,44,0
'[11:48:00.168 21/01/2026]',-130150,-184496.8,-140144.9,-16885.8,-375000,-375000,-151946.4,-147102.5,0.03,0.00,0.88,-4,0,-2,44,0
'[11:48:00.172 21/01/2026]',-130115.9,-184486.9,-140149.2,-16884.91,-375000,-375000,-151949,-147151.1,0.03,0.00,0.88,-4,0,-2,44,0
'[11:48:00.176 21/01/2026]',-130117.5,-184480,-140147.8,-16885.27,-375000,-375000,-151946.9,-147147.5,0.03,0.00,0.88,-4,0,-2,44,0
'[11:48:00.180 21/01/2026]',-130140.7,-184475.2,-140151.5,-16888.4,-375000,-375000,-151946.7,-147107.4,0.03,0.00,0.88,-4,0,-2,44,0
'[11:48:00.184 21/01/2026]',-130144.4,-184487.4,-140148.9,-16893.63,-375000,-375000,-151950.6,-147101.3,0.03,0.00,0.88,-4,0,-2,44,0
'[11:48:00.188 21/01/2026]',-130132,-184490.9,-140147.2,-16895.33,-375000,-375000,-151959.1,-147148,0.03,0.00,0.88,-4,0,-2,44,0
'[11:48:00.192 21/01/2026]',-130138.2,-184479.9,-140146,-16892.06,-375000,-375000,-151948.6,-147157.3,0.03,0.00,0.88,-4,0,-2,44,0
'[11:48:00.196 21/01/2026]',-130162,-184482.8,-140144.3,-16887.37,-375000,-375000,-151937.1,-147098.4,0.03,0.00,0.88,-4,0,-2,44,0
'[11:48:00.200 21/01/2026]',-130151,-184487.4,-140147,-16887.14,-375000,-375000,-151938.8,-147092,0.03,0.00,0.88,-4,0,-2,44,0
'[11:48:00.204 21/01/2026]',-130120.7,-184483.9,-140150,-16892.96,-375000,-375000,-151947.4,-147134.4,0.03,0.00,0.88,-4,0,-2,44,0
'[11:48:00.208 21/01/2026]',-130129.4,-184486.1,-140153.6,-16896.17,-375000,-375000,-151952.3,-147158.3,0.03,0.00,0.88,-4,0,-2,44,0
'[11:48:00.212 21/01/2026]',-130133.1,-184486.6,-140139.1,-16884.55,-375000,-375000,-151939.9,-147103.6,0.03,0.00,0.88,-4,0,-2,44,0
'[11:48:00.216 21/01/2026]',-130120.2,-184485.2,-140147.8,-16879.63,-375000,-375000,-151934,-147072,0.03,0.00,0.88,-4,0,0,44,0
'[11:48:00.220 21/01/2026]',-130127.2,-184501.1,-140165.4,-16895.1,-375000,-375000,-151957.8,-147136.5,0.03,0.00,0.88,-4,0,0,44,0
'[11:48:00.224 21/01/2026]',-130149.5,-184493.7,-140141.3,-16888.4,-375000,-375000,-151950.6,-147171.6,0.03,0.00,0.88,-4,0,0,44,0
'[11:48:00.228 21/01/2026]',-130166.5,-184490.6,-140133.1,-16882.14,-375000,-375000,-151942,-147130.6,0.03,0.00,0.88,-4,0,0,44,0
'[11:48:00.232 21/01/2026]',-130166,-184480.8,-140125.4,-16872.26,-375000,-375000,-151929.6,-147084.2,0.03,0.00,0.88,-4,0,0,44,0
'[11:48:00.236 21/01/2026]',-130130.1,-184477.7,-140135.6,-16880.21,-375000,-375000,-151940,-147120.3,0.03,0.00,0.88,-4,0,0,44,0
'[11:48:00.240 21/01/2026]',-130107.7,-184474,-140138.8,-16882.76,-375000,-375000,-151941,-147147.3,0.03,0.00,0.88,-4,0,0,44,0
'[11:48:00.244 21/01/2026]',-130111.9,-184463.5,-140140.3,-16880.97,-375000,-375000,-151936.1,-147100.4,0.03,0.00,0.88,-4,0,0,44,0
'[11:48:00.248 21/01/2026]',-130126.1,-184458.1,-140135.9,-16870.16,-375000,-375000,-151923.8,-147048.8,0.03,0.00,0.88,-4,0,0,44,0
'[11:48:00.252 21/01/2026]',-130120.9,-184469.8,-140143.4,-16877.49,-375000,-375000,-151935.8,-147074.6,0.03,-0.02,0.88,-4,0,-2,44,0
'[11:48:00.256 21/01/2026]',-130103,-184469.6,-140155.8,-16883.52,-375000,-375000,-151942.7,-147129.6,0.03,-0.02,0.88,-4,0,-2,44,0
'[11:48:00.260 21/01/2026]',-130134.1,-184474,-140145,-16883.03,-375000,-375000,-151943.3,-147110.6,0.03,-0.02,0.88,-4,0,-2,44,0
'[11:48:00.264 21/01/2026]',-130155.4,-184468.8,-140131.5,-16875.43,-375000,-375000,-151934.7,-147051.5,0.03,-0.02,0.88,-4,0,-2,44,0
'[11:48:00.268 21/01/2026]',-130143,-184466.4,-140136.1,-16883.61,-375000,-375000,-151944.5,-147064.3,0.03,-0.02,0.88,-4,0,-2,44,0
'[11:48:00.272 21/01/2026]',-130126.2,-184463.5,-140137.7,-16884.82,-375000,-375000,-151945,-147113.2,0.03,-0.02,0.88,-4,0,-2,44,0
'[11:48:00.276 21/01/2026]',-130113.3,-184459.2,-140134.2,-16874.9,-375000,-375000,-151924.6,-147087.3,0.03,-0.02,0.88,-4,0,-2,44,0
'[11:48:00.280 21/01/2026]',-130124.4,-184449.1,-140132.3,-16869.62,-375000,-375000,-151914.5,-147039.9,0.03,-0.02,0.88,-4,0,-2,44,0
'[11:48:00.284 21/01/2026]',-130112.8,-184439.8,-140128.6,-16873.06,-375000,-375000,-151925.7,-147052.6,0.03,-0.02,0.88,-4,0,-2,44,0
'[11:48:00.288 21/01/2026]',-130093.7,-184457.6,-140140.9,-16888.71,-375000,-375000,-151953,-147123.4,0.03,0.00,0.88,-4,0,-2,44,0
'[11:48:00.292 21/01/2026]',-130086.2,-184458,-140145,-16882.09,-375000,-375000,-151941.3,-147114.1,0.03,0.00,0.88,-4,0,-2,44,0
'[11:48:00.296 21/01/2026]',-130124.9,-184465.2,-140149,-16878.79,-375000,-375000,-151926.1,-147055.7,0.03,0.00,0.88,-4,0,-2,44,0
'[11:48:00.300 21/01/2026]',-130139.5,-184473.1,-140141.1,-16878.56,-375000,-375000,-151933,-147049.8,0.03,0.00,0.88,-4,0,-2,44,0
'[11:48:00.304 21/01/2026]',-130134.9,-184487.1,-140138.7,-16886.7,-375000,-375000,-151955.2,-147128.2,0.03,0.00,0.88,-4,0,-2,44,0
'[11:48:00.308 21/01/2026]',-130133.3,-184480.3,-140128.2,-16873.73,-375000,-375000,-151940.2,-147124.4,0.03,0.00,0.88,-4,0,-2,44,0
'[11:48:00.312 21/01/2026]',-130141.5,-184477.4,-140136.2,-16872.3,-375000,-375000,-151928.9,-147076.6,0.03,0.00,0.88,-4,0,-2,44,0
'[11:48:00.316 21/01/2026]',-130136.1,-184463.7,-140129.4,-16865.6,-375000,-375000,-151924.1,-147043.5,0.03,0.00,0.88,-4,0,-2,44,0
'[11:48:00.320 21/01/2026]',-130116.4,-184469.3,-140137.9,-16872.26,-375000,-375000,-151927.5,-147070.9,0.03,0.00,0.88,-4,0,-2,44,0
'[11:48:00.324 21/01/2026]',-130105,-184466.9,-140139.7,-16876.64,-375000,-375000,-151931.6,-147103.5,0.03,0.00,0.88,-4,0,-2,44,0
'[11:48:00.328 21/01/2026]',-130121.2,-184467.3,-140136.5,-16875.66,-375000,-375000,-151932.1,-147079.6,0.03,0.00,0.88,-4,0,-2,44,0
'[11:48:00.332 21/01/2026]',-130130.5,-184467.5,-140134.8,-16870.78,-375000,-375000,-151933.1,-147072.3,0.03,0.00,0.88,-4,0,-2,44,0
'[11:48:00.336 21/01/2026]',-130139.5,-184488.8,-140138.4,-16879.32,-375000,-375000,-151951.5,-147115.3,0.03,0.00,0.88,-4,0,-2,44,0
'[11:48:00.340 21/01/2026]',-130134.4,-184499.1,-140142.7,-16883.35,-375000,-375000,-151954.8,-147152.3,0.03,0.00,0.88,-4,0,-2,44,0
'[11:48:00.344 21/01/2026]',-130129.3,-184470.1,-140124.4,-16871.99,-375000,-375000,-151936.4,-147098.1,0.03,0.00,0.88,-4,0,-2,44,0
'[11:48:00.348 21/01/2026]',-130133,-184455.7,-140121,-16860.01,-375000,-375000,-151928.6,-147050.4,0.03,0.00,0.88,-4,0,-2,44,0
'[11:48:00.352 21/01/2026]',-130111.2,-184468.8,-140131,-16868.82,-375000,-375000,-151942.1,-147078.6,0.03,0.00,0.88,-4,0,-2,44,0
'[11:48:00.356 21/01/2026]',-130111.6,-184472.2,-140132.8,-16871.72,-375000,-375000,-151943.1,-147120.9,0.03,0.00,0.88,-4,0,-2,44,0
'[11:48:00.360 21/01/2026]',-130135.5,-184464.6,-140128.9,-16870.47,-375000,-375000,-151938,-147105.5,0.02,0.00,0.88,-4,0,-2,44,0
'[11:48:00.364 21/01/2026]',-130141.8,-184451.6,-140132.3,-16867.56,-375000,-375000,-151933.3,-147068.9,0.02,0.00,0.88,-4,0,-2,44,0
'[11:48:00.368 21/01/2026]',-130122.2,-184466.7,-140137.9,-16871.63,-375000,-375000,-151948.9,-147088.8,0.02,0.00,0.88,-4,0,-2,44,0
'[11:48:00.372 21/01/2026]',-130112.8,-184486.8,-140140.3,-16883.21,-375000,-375000,-151958.2,-147154.1,0.02,0.00,0.88,-4,0,-2,44,0
'[11:48:00.376 21/01/2026]',-130120,-184469.7,-140120.9,-16857.95,-375000,-375000,-151931,-147128.4,0.02,0.00,0.88,-4,0,-2,44,0
'[11:48:00.380 21/01/2026]',-130121.7,-184455.5,-140120.3,-16850.31,-375000,-375000,-151921.1,-147066.9,0.02,0.00,0.88,-4,0,-2,44,0
'[11:48:00.384 21/01/2026]',-130106.8,-184455.6,-140121.7,-16852.01,-375000,-375000,-151925.3,-147064.2,0.02,0.00,0.88,-4,0,-2,44,0
'[11:48:00.388 21/01/2026]',-130109.2,-184464.6,-140120.6,-16861.8,-375000,-375000,-151945.1,-147131.6,0.02,0.00,0.88,-4,0,-2,44,0
'[11:48:00.392 21/01/2026]',-130123.7,-184455.5,-140114.4,-16858.09,-375000,-375000,-151939.1,-147138.9,0.02,0.00,0.88,-4,0,-2,44,0
'[11:48:00.396 21/01/2026]',-130126.4,-184445.3,-140112.3,-16848.39,-375000,-375000,-151923.5,-147079.2,0.03,0.00,0.88,-4,0,-2,44,0
'[11:48:00.400 21/01/2026]',-130121.9,-184434.8,-140115.8,-16844.1,-375000,-375000,-151925.2,-147058.3,0.03,0.00,0.88,-4,0,-2,44,0
'[11:48:00.404 21/01/2026]',-130090.9,-184442,-140124,-16851.52,-375000,-375000,-151938.2,-147120.5,0.03,0.00,0.88,-4,0,-2,44,0
'[11:48:00.408 21/01/2026]',-130119.3,-184464.1,-140135,-16865.64,-375000,-375000,-151951.7,-147153.3,0.03,0.00,0.88,-4,0,-2,44,0
'[11:48:00.412 21/01/2026]',-130122.8,-184447.3,-140117.7,-16847.94,-375000,-375000,-151932.8,-147103.2,0.03,0.00,0.88,-4,0,-2,44,0
'[11:48:00.416 21/01/2026]',-130109.9,-184431,-140108.9,-16834.17,-375000,-375000,-151919.4,-147062.2,0.03,0.00,0.88,-4,0,-2,44,0
'[11:48:00.420 21/01/2026]',-130103.7,-184451,-140119.4,-16853.57,-375000,-375000,-151939.8,-147117.7,0.03,0.00,0.88,-4,0,-2,44,0
'[11:48:00.424 21/01/2026]',-130106.7,-184456.2,-140128.3,-16862.16,-375000,-375000,-151945.4,-147142.6,0.03,0.00,0.88,-4,0,-2,44,0
'[11:48:00.428 21/01/2026]',-130130.6,-184454.4,-140127.6,-16859.29,-375000,-375000,-151934.3,-147098.3,0.03,0.00,0.88,-4,0,-2,44,0
'[11:48:00.432 21/01/2026]',-130135.1,-184435,-140120.5,-16847,-375000,-375000,-151914.3,-147038.5,0.02,0.00,0.88,-4,0,-2,44,0
'[11:48:00.436 21/01/2026]',-130108.6,-184445.2,-140129.2,-16862.92,-375000,-375000,-151938.3,-147076.4,0.02,0.00,0.88,-4,0,-2,44,0
'[11:48:00.440 21/01/2026]',-130109.8,-184449.8,-140121.3,-16860.01,-375000,-375000,-151940,-147124.2,0.02,0.00,0.88,-4,0,-2,44,0
'[11:48:00.444 21/01/2026]',-130131.9,-184456.7,-140119.1,-16854.42,-375000,-375000,-151925.3,-147094.6,0.02,0.00,0.88,-4,0,-2,44,0
'[11:48:00.448 21/01/2026]',-130130.8,-184450.1,-140119.8,-16846.91,-375000,-375000,-151916.6,-147045.4,0.02,0.00,0.88,-4,0,-2,44,0
'[11:48:00.452 21/01/2026]',-130103.1,-184456,-140138.1,-16860.32,-375000,-375000,-151936,-147079.6,0.02,0.00,0.88,-4,0,-2,44,0
'[11:48:00.456 21/01/2026]',-130104.2,-184459.1,-140136,-16864.35,-375000,-375000,-151940.3,-147124.1,0.02,0.00,0.88,-4,0,-2,44,0
'[11:48:00.460 21/01/2026]',-130127.8,-184448.4,-140120.4,-16857.55,-375000,-375000,-151929.9,-147097.9,0.02,0.00,0.88,-4,0,-2,44,0
'[11:48:00.464 21/01/2026]',-130134.1,-184439.4,-140119.1,-16855.49,-375000,-375000,-151921.7,-147049.5,0.02,0.00,0.88,-4,0,-2,44,0
'[11:48:00.468 21/01/2026]',-130098.2,-184446.8,-140121.5,-16857.86,-375000,-375000,-151926.5,-147069.2,0.03,0.02,0.88,-4,0,-2,44,0
'[11:48:00.472 21/01/2026]',-130106.7,-184455.3,-140130.5,-16864.57,-375000,-375000,-151940.5,-147141.3,0.03,0.02,0.88,-4,0,-2,44,0
'[11:48:00.476 21/01/2026]',-130116.3,-184452.8,-140128.8,-16864.03,-375000,-375000,-151942.3,-147128.8,0.03,0.02,0.88,-4,0,-2,44,0
'[11:48:00.480 21/01/2026]',-130134.3,-184447.7,-140127.3,-16858.85,-375000,-375000,-151934.4,-147074.1,0.03,0.02,0.88,-4,0,-2,44,0
'[11:48:00.484 21/01/2026]',-130138,-184451.9,-140132.5,-16864.03,-375000,-375000,-151934.4,-147068.3,0.03,0.02,0.88,-4,0,-2,44,0
'[11:48:00.488 21/01/2026]',-130124.5,-184460.5,-140134.4,-16871.59,-375000,-375000,-151949.2,-147121.6,0.03,0.02,0.88,-4,0,-2,44,0
'[11:48:00.492 21/01/2026]',-130122.9,-184443.3,-140126.8,-16863.99,-375000,-375000,-151943.7,-147130,0.03,0.02,0.88,-4,0,-2,44,0
'[11:48:00.496 21/01/2026]',-130128.1,-184448.1,-140138.2,-16868.23,-375000,-375000,-151942.3,-147088.6,0.03,0.02,0.88,-4,0,-2,44,0
'[11:48:00.500 21/01/2026]',-130128.1,-184447,-140141.9,-16869.17,-375000,-375000,-151947.6,-147072.3,0.03,0.02,0.88,-4,0,-2,44,0
'[11:48:00.504 21/01/2026]',-130120.6,-184454.1,-140144.2,-16882.5,-375000,-375000,-151973.5,-147147,0.03,0.00,0.89,-4,0,-2,44,0
'[11:48:00.508 21/01/2026]',-130118.8,-184465,-140140.2,-16871.5,-375000,-375000,-151960,-147158.4,0.03,0.00,0.89,-4,0,-2,44,0
'[11:48:00.512 21/01/2026]',-130127.3,-184466.6,-140140.4,-16863.05,-375000,-375000,-151943.8,-147100.7,0.03,0.00,0.89,-4,0,-2,44,0
'[11:48:00.516 21/01/2026]',-130118.9,-184445.6,-140124.7,-16853.3,-375000,-375000,-151935.1,-147073.1,0.03,0.00,0.89,-4,0,-2,44,0
'[11:48:00.520 21/01/2026]',-130100.9,-184441.2,-140120,-16852.37,-375000,-375000,-151938.2,-147116.1,0.03,0.00,0.89,-4,0,-2,44,0
'[11:48:00.524 21/01/2026]',-130105.8,-184443.3,-140129.9,-16859.07,-375000,-375000,-151944.3,-147153.2,0.03,0.00,0.89,-4,0,-2,44,0
'[11:48:00.528 21/01/2026]',-130114,-184438.5,-140137.8,-16866,-375000,-375000,-151940,-147104.9,0.03,0.00,0.89,-4,0,-2,44,0
'[11:48:00.532 21/01/2026]',-130123.1,-184437.6,-140134.8,-16860.32,-375000,-375000,-151929.4,-147066.6,0.03,0.00,0.89,-4,0,-2,44,0
'[11:48:00.536 21/01/2026]',-130103.9,-184449.8,-140139.8,-16867.25,-375000,-375000,-151951.1,-147110.9,0.03,0.00,0.89,-4,0,-2,44,0
'[11:48:00.540 21/01/2026]',-130098.5,-184442.7,-140131.3,-16856.7,-375000,-375000,-151942.5,-147145.6,0.03,0.00,0.88,-4,0,-2,44,0
'[11:48:00.544 21/01/2026]',-130127.4,-184443.1,-140127.8,-16855.67,-375000,-375000,-151938.8,-147108.5,0.03,0.00,0.88,-4,0,-2,44,0
'[11:48:00.548 21/01/2026]',-130126.1,-184430.9,-140121,-16845.44,-375000,-375000,-151925.4,-147063.7,0.03,0.00,0.88,-4,0,-2,44,0
'[11:48:00.552 21/01/2026]',-130101.4,-184434.7,-140122.5,-16848.3,-375000,-375000,-151927.5,-147100.5,0.03,0.00,0.88,-4,0,-2,44,0
'[11:48:00.556 21/01/2026]',-130103.7,-184443.5,-140129.9,-16856.21,-375000,-375000,-151925.5,-147158.8,0.03,0.00,0.88,-4,0,-2,44,0
'[11:48:00.560 21/01/2026]',-130134.8,-184443.1,-140122.7,-16853.79,-375000,-375000,-151917.5,-147125.3,0.03,0.00,0.88,-4,0,-2,44,0
'[11:48:00.564 21/01/2026]',-130140.7,-184443.8,-140120.8,-16851.47,-375000,-375000,-151916.4,-147073.4,0.03,0.00,0.88,-4,0,-2,44,0
'[11:48:00.568 21/01/2026]',-130123.9,-184443.5,-140124.6,-16851.83,-375000,-375000,-151924.2,-147079.2,0.03,0.00,0.88,-4,0,-2,44,0
'[11:48:00.572 21/01/2026]',-130097.5,-184446.4,-140122.7,-16851.61,-375000,-375000,-151930.5,-147131.7,0.03,0.00,0.88,-4,0,-2,44,0
'[11:48:00.576 21/01/2026]',-130112.9,-184440.2,-140119.5,-16848.48,-375000,-375000,-151923.9,-147119.2,0.02,0.00,0.88,-4,0,-2,44,0
'[11:48:00.580 21/01/2026]',-130127.8,-184418.5,-140104.7,-16834.39,-375000,-375000,-151908.3,-147059,0.02,0.00,0.88,-4,0,-2,44,0
'[11:48:00.584 21/01/2026]',-130122.8,-184423.2,-140112.3,-16840.21,-375000,-375000,-151926.5,-147078.1,0.02,0.00,0.88,-4,0,-2,44,0
'[11:48:00.588 21/01/2026]',-130107.7,-184437.7,-140122.4,-16845.84,-375000,-375000,-151937.9,-147143.4,0.02,0.00,0.88,-4,0,-2,44,0
'[11:48:00.592 21/01/2026]',-130104.2,-184435.4,-140121.6,-16842.31,-375000,-375000,-151926.2,-147133.4,0.02,0.00,0.88,-4,0,-2,44,0
'[11:48:00.596 21/01/2026]',-130099.8,-184430.3,-140127.4,-16844.05,-375000,-375000,-151918.8,-147077.6,0.02,0.00,0.88,-4,0,-2,44,0
'[11:48:00.600 21/01/2026]',-130107.7,-184435.7,-140135.1,-16851.25,-375000,-375000,-151927.8,-147080.1,0.02,0.00,0.88,-4,0,-2,44,0
'[11:48:00.604 21/01/2026]',-130110.7,-184442.2,-140125.3,-16856.12,-375000,-375000,-151937,-147120.8,0.02,0.00,0.88,-4,0,-2,44,0
'[11:48:00.608 21/01/2026]',-130092.1,-184430.6,-140121.6,-16850.4,-375000,-375000,-151929.7,-147136.6,0.02,0.00,0.88,-4,0,-2,44,0
'[11:48:00.612 21/01/2026]',-130104.4,-184427.1,-140131.1,-16854.15,-375000,-375000,-151929,-147106.3,0.03,-0.02,0.89,-4,0,-2,44,0
'[11:48:00.616 21/01/2026]',-130138.2,-184436.9,-140137.8,-16862.92,-375000,-375000,-151937.4,-147091.3,0.03,-0.02,0.89,-4,0,-2,44,0
'[11:48:00.620 21/01/2026]',-130131.9,-184435.4,-140129.8,-16867.47,-375000,-375000,-151949.5,-147143,0.03,-0.02,0.89,-4,0,-2,44,0
'[11:48:00.624 21/01/2026]',-130107.1,-184435.2,-140134.5,-16858.18,-375000,-375000,-151937.3,-147161.3,0.03,-0.02,0.89,-4,0,-2,44,0
'[11:48:00.628 21/01/2026]',-130120.8,-184447.8,-140127.5,-16859.29,-375000,-375000,-151932.1,-147109.4,0.03,-0.02,0.89,-4,0,-2,44,0
'[11:48:00.632 21/01/2026]',-130122.7,-184436.7,-140117.8,-16855.99,-375000,-375000,-151922.2,-147063,0.03,-0.02,0.89,-4,0,-2,44,0
'[11:48:00.636 21/01/2026]',-130108,-184437.4,-140120.5,-16861.75,-375000,-375000,-151930.5,-147093.9,0.03,-0.02,0.89,-4,0,-2,44,0
'[11:48:00.640 21/01/2026]',-130109.9,-184442.6,-140127.9,-16869.76,-375000,-375000,-151931.4,-147136,0.03,-0.02,0.89,-4,0,-2,44,0
'[11:48:00.644 21/01/2026]',-130108.8,-184432,-140140.2,-16868.5,-375000,-375000,-151918.5,-147102.8,0.03,-0.02,0.89,-4,0,-2,44,0
'[11:48:00.648 21/01/2026]',-130105.8,-184411.8,-140128,-16853.39,-375000,-375000,-151897.4,-147062.9,0.02,-0.02,0.88,-4,0,-2,44,0
'[11:48:00.652 21/01/2026]',-130116.5,-184429.8,-140132.4,-16870.34,-375000,-375000,-151924.1,-147096.3,0.02,-0.02,0.88,-4,0,-2,44,0
'[11:48:00.656 21/01/2026]',-130105.3,-184433.9,-140142.5,-16880.84,-375000,-375000,-151939.6,-147152.2,0.02,-0.02,0.88,-4,0,-2,44,0
'[11:48:00.660 21/01/2026]',-130121.4,-184436.6,-140130.6,-16868.91,-375000,-375000,-151923.2,-147129,0.02,-0.02,0.88,-4,0,-2,44,0
'[11:48:00.664 21/01/2026]',-130141.7,-184438.6,-140123.9,-16864.26,-375000,-375000,-151916.3,-147075.5,0.02,-0.02,0.88,-4,0,-2,44,0
'[11:48:00.668 21/01/2026]',-130124,-184446.4,-140138.4,-16874.58,-375000,-375000,-151926.9,-147083.5,0.02,-0.02,0.88,-4,0,-2,44,0
'[11:48:00.672 21/01/2026]',-130104,-184448.6,-140136.6,-16876.82,-375000,-375000,-151935.3,-147136.5,0.02,-0.02,0.88,-4,0,-2,44,0
'[11:48:00.676 21/01/2026]',-130103.3,-184436,-140120.9,-16862.24,-375000,-375000,-151920.6,-147127.7,0.02,-0.02,0.88,-4,0,-2,44,0
'[11:48:00.680 21/01/2026]',-130113.1,-184421.4,-140108.7,-16847.72,-375000,-375000,-151908.4,-147080.2,0.02,-0.02,0.88,-4,0,-2,44,0
'[11:48:00.684 21/01/2026]',-130095.9,-184417.1,-140114.5,-16851.07,-375000,-375000,-151922,-147071.6,0.02,0.00,0.88,-4,0,-2,44,0
'[11:48:00.688 21/01/2026]',-130073.3,-184426.6,-140138.2,-16863.32,-375000,-375000,-151945.9,-147143.7,0.02,0.00,0.88,-4,0,-2,44,0
'[11:48:00.692 21/01/2026]',-130084.8,-184419.8,-140140.1,-16864.97,-375000,-375000,-151943.8,-147150.9,0.02,0.00,0.88,-4,0,-2,44,0
'[11:48:00.696 21/01/2026]',-130110.2,-184412.9,-140123,-16857.06,-375000,-375000,-151931.4,-147096.2,0.02,0.00,0.88,-4,0,-2,44,0
'[11:48:00.700 21/01/2026]',-130101.5,-184421.1,-140110.5,-16843.11,-375000,-375000,-151922.9,-147072.5,0.02,0.00,0.88,-4,0,-2,44,0
'[11:48:00.704 21/01/2026]',-130105.5,-184443.7,-140115.1,-16851.74,-375000,-375000,-151940.3,-147131.1,0.02,0.00,0.88,-4,0,-2,44,0
'[11:48:00.708 21/01/2026]',-130106.7,-184439.1,-140121.2,-16855.05,-375000,-375000,-151939.7,-147142.3,0.02,0.00,0.88,-4,0,-2,44,0
'[11:48:00.712 21/01/2026]',-130111.6,-184422,-140115.3,-16850.71,-375000,-375000,-151921.9,-147081.3,0.02,0.00,0.88,-4,0,-2,44,0
'[11:48:00.716 21/01/2026]',-130115.3,-184424.5,-140119.7,-16850.58,-375000,-375000,-151920,-147068,0.02,0.00,0.88,-4,0,-2,44,0
'[11:48:00.720 21/01/2026]',-130100.8,-184434.3,-140119.1,-16857.64,-375000,-375000,-151931,-147119.4,0.03,0.00,0.88,-4,0,-2,44,0
'[11:48:00.724 21/01/2026]',-130098.2,-184430.1,-140120.5,-16855.32,-375000,-375000,-151927.6,-147149.8,0.03,0.00,0.88,-4,0,-2,44,0
'[11:48:00.728 21/01/2026]',-130106.1,-184421,-140118.5,-16858.45,-375000,-375000,-151930.4,-147112.4,0.03,0.00,0.88,-4,0,-2,44,0
'[11:48:00.732 21/01/2026]',-130121.4,-184429.6,-140111.5,-16852.63,-375000,-375000,-151922.8,-147080.8,0.03,0.00,0.88,-4,0,-2,44,0
'[11:48:00.736 21/01/2026]',-130113.6,-184445,-140120.7,-16863.54,-375000,-375000,-151933.6,-147123.5,0.03,0.00,0.88,-4,0,-2,44,0
'[11:48:00.740 21/01/2026]',-130099,-184446,-140138.2,-16872.26,-375000,-375000,-151943,-147162.4,0.03,0.00,0.88,-4,0,-2,44,0
'[11:48:00.744 21/01/2026]',-130111.9,-184438.5,-140134.7,-16866.45,-375000,-375000,-151930.9,-147123.5,0.03,0.00,0.88,-4,0,-2,44,0
'[11:48:00.748 21/01/2026]',-130139,-184431,-140116,-16855.99,-375000,-375000,-151917.8,-147069.2,0.03,0.00,0.88,-4,0,-2,44,0
'[11:48:00.752 21/01/2026]',-130126.3,-184439.4,-140125.2,-16863.41,-375000,-375000,-151929.3,-147102.4,0.03,0.00,0.88,-4,0,-2,44,0
'[11:48:00.756 21/01/2026]',-130119.9,-184444.8,-140133.2,-16865.96,-375000,-375000,-151932.6,-147144.6,0.02,0.00,0.88,-4,0,-2,44,0
'[11:48:00.760 21/01/2026]',-130127.1,-184442.1,-140139.3,-16868.15,-375000,-375000,-151930,-147131.2,0.02,0.00,0.88,-4,0,-2,44,0
'[11:48:00.764 21/01/2026]',-130127.9,-184434.9,-140144.2,-16868.46,-375000,-375000,-151924,-147085.4,0.02,0.00,0.88,-4,0,-2,44,0
'[11:48:00.768 21/01/2026]',-130110.9,-184419.8,-140141,-16871.14,-375000,-375000,-151928.2,-147094.1,0.02,0.00,0.88,-4,0,-2,44,0
'[11:48:00.772 21/01/2026]',-130112,-184435.6,-140141.5,-16878.34,-375000,-375000,-151937.8,-147154.2,0.02,0.00,0.88,-4,0,-2,44,0
'[11:48:00.776 21/01/2026]',-130126.2,-184449.5,-140153,-16879.86,-375000,-375000,-151937.2,-147153.4,0.02,0.00,0.88,-4,0,-2,44,0
'[11:48:00.780 21/01/2026]',-130126.8,-184435.4,-140147.8,-16877.62,-375000,-375000,-151931.2,-147095.3,0.02,0.00,0.88,-4,0,-2,44,0
'[11:48:00.784 21/01/2026]',-130138.5,-184446,-140130,-16874,-375000,-375000,-151927,-147097,0.02,0.00,0.88,-4,0,-2,44,0
'[11:48:00.788 21/01/2026]',-130144.5,-184474.9,-140134.1,-16880.66,-375000,-375000,-151937.3,-147152.7,0.02,0.00,0.88,-4,0,-2,44,0
'[11:48:00.792 21/01/2026]',-130126.8,-184458.7,-140128.8,-16871.01,-375000,-375000,-151934.4,-147147.4,0.03,0.00,0.88,-4,0,-2,44,0
'[11:48:00.796 21/01/2026]',-130130.9,-184449,-140131.8,-16866,-375000,-375000,-151923.6,-147098.3,0.03,0.00,0.88,-4,0,-2,44,0
'[11:48:00.800 21/01/2026]',-130115,-184447.8,-140140,-16867.65,-375000,-375000,-151920.8,-147079.4,0.03,0.00,0.88,-4,0,-2,44,0
'[11:48:00.804 21/01/2026]',-130094.5,-184458.5,-140158.4,-16883.48,-375000,-375000,-151941.9,-147134.8,0.03,0.00,0.88,-4,0,-2,44,0
'[11:48:00.808 21/01/2026]',-130103.8,-184439.3,-140139.4,-16872.97,-375000,-375000,-151934.6,-147151.4,0.03,0.00,0.88,-4,0,-2,44,0
'[11:48:00.812 21/01/2026]',-130125.7,-184429.1,-140131.3,-16868.73,-375000,-375000,-151931.2,-147105.6,0.03,0.00,0.88,-4,0,-2,44,0
'[11:48:00.816 21/01/2026]',-130119.5,-184428.1,-140126.3,-16866.8,-375000,-375000,-151937.1,-147081.6,0.03,0.00,0.88,-4,0,-2,44,0
'[11:48:00.820 21/01/2026]',-130090.1,-184439.4,-140143.2,-16881.87,-375000,-375000,-151957.5,-147140.2,0.03,0.00,0.88,-4,0,-2,44,0
'[11:48:00.824 21/01/2026]',-130104.3,-184439.7,-140142.3,-16879.14,-375000,-375000,-151953.1,-147176.8,0.03,0.00,0.88,-4,0,-2,44,0
'[11:48:00.828 21/01/2026]',-130129.9,-184435.1,-140120.8,-16861.89,-375000,-375000,-151932.2,-147122.9,0.03,0.02,0.86,-4,0,-2,44,0
'[11:48:00.832 21/01/2026]',-130136.6,-184438.3,-140125.9,-16858.67,-375000,-375000,-151934,-147083,0.03,0.02,0.86,-4,0,-2,44,0
'[11:48:00.836 21/01/2026]',-130115.4,-184452.4,-140138.2,-16868.41,-375000,-375000,-151953.7,-147131.3,0.03,0.02,0.86,-4,0,-2,44,0
'[11:48:00.840 21/01/2026]',-130105.1,-184445.4,-140130.1,-16866.13,-375000,-375000,-151946,-147172.1,0.03,0.02,0.86,-4,0,-2,44,0
'[11:48:00.844 21/01/2026]',-130110,-184437.5,-140132.6,-16863.9,-375000,-375000,-151938.6,-147139.5,0.03,0.02,0.86,-4,0,-2,44,0
'[11:48:00.848 21/01/2026]',-130128.4,-184435.3,-140145.3,-16865.64,-375000,-375000,-151942.2,-147095,0.03,0.02,0.86,-4,0,-2,44,0
'[11:48:00.852 21/01/2026]',-130120.9,-184428.2,-140137.1,-16868.06,-375000,-375000,-151943.3,-147104.6,0.03,0.02,0.86,-4,0,-2,44,0
'[11:48:00.856 21/01/2026]',-130105.8,-184423.3,-140132.3,-16867.47,-375000,-375000,-151942.3,-147157,0.03,0.02,0.86,-4,0,-2,44,0
'[11:48:00.860 21/01/2026]',-130104.7,-184419.5,-140130.4,-16862.65,-375000,-375000,-151931.6,-147127,0.03,0.02,0.86,-4,0,-2,44,0
'[11:48:00.864 21/01/2026]',-130095.8,-184420.4,-140128.1,-16860.99,-375000,-375000,-151928.9,-147079.8,0.03,0.02,0.88,-4,0,-2,44,0
'[11:48:00.868 21/01/2026]',-130109.1,-184441.9,-140131.9,-16869.08,-375000,-375000,-151941.1,-147099.7,0.03,0.02,0.88,-4,0,-2,44,0
'[11:48:00.872 21/01/2026]',-130142.8,-184461.4,-140135.1,-16874.22,-375000,-375000,-151949.3,-147154.1,0.03,0.02,0.88,-4,0,-2,44,0
'[11:48:00.876 21/01/2026]',-130135.1,-184452.4,-140138.5,-16871.19,-375000,-375000,-151945,-147146.8,0.03,0.02,0.88,-4,0,-2,44,0
'[11:48:00.880 21/01/2026]',-130136,-184437.3,-140141.1,-16871.37,-375000,-375000,-151940.9,-147102.1,0.03,0.02,0.88,-4,0,-2,44,0
'[11:48:00.884 21/01/2026]',-130124.6,-184440,-140145.4,-16876.73,-375000,-375000,-151949.9,-147107.4,0.03,0.02,0.88,-4,0,-2,44,0
'[11:48:00.888 21/01/2026]',-130114,-184453.5,-140155.1,-16885.45,-375000,-375000,-151966.4,-147167.9,0.03,0.02,0.88,-4,0,-2,44,0
'[11:48:00.892 21/01/2026]',-130112.3,-184445.8,-140149,-16874.31,-375000,-375000,-151954,-147170.6,0.03,0.02,0.88,-4,0,-2,44,0
'[11:48:00.896 21/01/2026]',-130112.8,-184438.2,-140136.8,-16865.02,-375000,-375000,-151942.9,-147131.6,0.03,0.02,0.88,-4,0,-2,44,0
'[11:48:00.900 21/01/2026]',-130103.3,-184427,-140125.5,-16858.62,-375000,-375000,-151936.3,-147103.4,0.03,0.02,0.89,-4,0,-2,44,0
'[11:48:00.904 21/01/2026]',-130104.5,-184436.5,-140127,-16867.03,-375000,-375000,-151950.9,-147148.9,0.03,0.02,0.89,-4,0,-2,44,0
'[11:48:00.908 21/01/2026]',-130102.4,-184438.9,-140139.7,-16866.31,-375000,-375000,-151948,-147164.6,0.03,0.02,0.89,-4,0,-2,44,0
'[11:48:00.912 21/01/2026]',-130100,-184437.1,-140149.6,-16868.82,-375000,-375000,-151942.1,-147127.3,0.03,0.02,0.89,-4,0,-2,44,0
'[11:48:00.916 21/01/2026]',-130128.8,-184425.8,-140141.5,-16868.15,-375000,-375000,-151945.5,-147104,0.03,0.02,0.89,-4,0,-2,44,0
'[11:48:00.920 21/01/2026]',-130115.1,-184430.1,-140132.1,-16869.62,-375000,-375000,-151950.3,-147138.3,0.03,0.02,0.89,-4,0,-2,44,0
'[11:48:00.924 21/01/2026]',-130098.1,-184429.5,-140115.5,-16857.06,-375000,-375000,-151940.4,-147154.8,0.03,0.02,0.89,-4,0,-2,44,0
'[11:48:00.928 21/01/2026]',-130127.8,-184434.7,-140117.2,-16854.11,-375000,-375000,-151937.8,-147121.2,0.03,0.02,0.89,-4,0,-2,44,0
'[11:48:00.932 21/01/2026]',-130132.1,-184430,-140121,-16850.44,-375000,-375000,-151927.6,-147077.6,0.03,0.02,0.89,-4,0,-2,44,0
'[11:48:00.936 21/01/2026]',-130107.2,-184432.4,-140138.8,-16865.87,-375000,-375000,-151948.7,-147113.6,0.02,0.00,0.89,-4,0,-2,44,0
'[11:48:00.940 21/01/2026]',-130092.1,-184430.1,-140144,-16868.91,-375000,-375000,-151950.3,-147160.7,0.02,0.00,0.89,-4,0,-2,44,0
'[11:48:00.944 21/01/2026]',-130097.2,-184419.4,-140131.6,-16856.52,-375000,-375000,-151931,-147127.4,0.02,0.00,0.89,-4,0,-2,44,0
'[11:48:00.948 21/01/2026]',-130094.2,-184403.5,-140134.9,-16850.53,-375000,-375000,-151924.2,-147082.7,0.02,0.00,0.89,-4,0,-2,44,0
'[11:48:00.952 21/01/2026]',-130109.1,-184417.9,-140140.7,-16866.22,-375000,-375000,-151938.3,-147107.8,0.02,0.00,0.89,-4,0,-2,44,0
'[11:48:00.956 21/01/2026]',-130098,-184419.4,-140135.1,-16868.1,-375000,-375000,-151941.8,-147148.4,0.02,0.00,0.89,-4,0,-2,44,0
'[11:48:00.960 21/01/2026]',-130113.6,-184431,-140130.8,-16869.93,-375000,-375000,-151943.5,-147135.6,0.02,0.00,0.89,-4,0,-2,44,0
'[11:48:00.964 21/01/2026]',-130130.3,-184424.3,-140126.5,-16859.56,-375000,-375000,-151932.2,-147082.1,0.02,0.00,0.89,-4,0,-2,44,0
'[11:48:00.968 21/01/2026]',-130109.8,-184423.3,-140122.2,-16859.25,-375000,-375000,-151939.1,-147097.5,0.02,0.00,0.89,-4,0,-2,44,0
'[11:48:00.972 21/01/2026]',-130095.3,-184440.2,-140139,-16868.95,-375000,-375000,-151953.9,-147165,0.02,0.00,0.88,-4,0,-2,44,0
'[11:48:00.976 21/01/2026]',-130133.8,-184434.8,-140126.3,-16858.67,-375000,-375000,-151952.8,-147163.8,0.02,0.00,0.88,-4,0,-2,44,0
'[11:48:00.980 21/01/2026]',-130129.2,-184413.5,-140113.7,-16846.82,-375000,-375000,-151937.2,-147107.1,0.02,0.00,0.88,-4,0,-2,44,0
'[11:48:00.984 21/01/2026]',-130107,-184406.3,-140123.8,-16854.24,-375000,-375000,-151939.2,-147094.9,0.02,0.00,0.88,-4,0,-2,44,0
'[11:48:00.988 21/01/2026]',-130080.9,-184406.2,-140132.8,-16867.97,-375000,-375000,-151959.9,-147162.7,0.02,0.00,0.88,-4,0,-2,44,0
'[11:48:00.992 21/01/2026]',-130083.8,-184406.2,-140129.7,-16862.78,-375000,-375000,-151953.1,-147169.3,0.02,0.00,0.88,-4,0,-2,44,0
'[11:48:00.996 21/01/2026]',-130109,-184423.5,-140127.9,-16857.73,-375000,-375000,-151938.4,-147108.7,0.02,0.00,0.88,-4,0,-2,44,0
'[11:48:01.000 21/01/2026]',-130105.1,-184431.4,-140123.8,-16850.76,-375000,-375000,-151930.1,-147087.9,0.02,0.00,0.88,-4,0,-2,44,0
'[11:48:01.004 21/01/2026]',-130122.6,-184455.8,-140144.4,-16870.78,-375000,-375000,-151957.9,-147177.9,0.02,0.00,0.88,-4,0,-2,44,0
'[11:48:01.008 21/01/2026]',-130137.1,-184455.6,-140142.8,-16872.93,-375000,-375000,-151958.1,-147203.3,0.05,0.00,0.88,-4,0,-2,44,0
'[11:48:01.012 21/01/2026]',-130140.1,-184455.9,-140143.6,-16869.4,-375000,-375000,-151945.2,-147151.3,0.05,0.00,0.88,-4,0,-2,44,0
'[11:48:01.016 21/01/2026]',-130165.6,-184454.5,-140136.9,-16867.16,-375000,-375000,-151938.9,-147115.3,0.05,0.00,0.88,-4,0,-2,44,0
'[11:48:01.020 21/01/2026]',-130169.5,-184477.1,-140154.5,-16884.42,-375000,-375000,-151963.3,-147163.2,0.05,0.00,0.88,-4,0,-2,44,0
'[11:48:01.024 21/01/2026]',-130158.9,-184469.9,-140143.8,-16877.94,-375000,-375000,-151956.4,-147187.8,0.05,0.00,0.88,-4,0,-2,44,0
'[11:48:01.028 21/01/2026]',-130150.9,-184466.7,-140155.1,-16879.99,-375000,-375000,-151949.3,-147142.5,0.05,0.00,0.88,-4,0,-2,44,0
'[11:48:01.032 21/01/2026]',-130152.9,-184461.2,-140150.2,-16878.74,-375000,-375000,-151939.1,-147086.6,0.05,0.00,0.88,-4,0,-2,44,0
'[11:48:01.036 21/01/2026]',-130130.9,-184461.7,-140162.6,-16891.88,-375000,-375000,-151959.9,-147112.6,0.05,0.00,0.88,-4,0,-2,44,0
'[11:48:01.040 21/01/2026]',-130130.1,-184463.7,-140158.5,-16888.17,-375000,-375000,-151966.9,-147165,0.05,0.00,0.88,-4,0,-2,44,0
'[11:48:01.044 21/01/2026]',-130149.6,-184457.2,-140141,-16876.42,-375000,-375000,-151949.4,-147131.1,0.02,0.00,0.88,-4,0,-2,44,0
'[11:48:01.048 21/01/2026]',-130169.2,-184448.6,-140134.7,-16867.47,-375000,-375000,-151934.6,-147100.7,0.02,0.00,0.88,-4,0,-2,44,0
'[11:48:01.052 21/01/2026]',-130181.2,-184463.6,-140146.7,-16883.48,-375000,-375000,-151959.5,-147158.7,0.02,0.00,0.88,-4,0,-2,44,0
'[11:48:01.056 21/01/2026]',-130163.7,-184468.6,-140149.9,-16878.79,-375000,-375000,-151959.8,-147209.8,0.02,0.00,0.88,-4,0,-2,44,0
'[11:48:01.060 21/01/2026]',-130164.5,-184461.9,-140145.5,-16864.57,-375000,-375000,-151937.3,-147178.4,0.02,0.00,0.88,-4,0,-2,44,0
'[11:48:01.064 21/01/2026]',-130161.1,-184452.2,-140134.4,-16860.19,-375000,-375000,-151929.5,-147105.8,0.02,0.00,0.88,-4,0,-2,44,0
'[11:48:01.068 21/01/2026]',-130151.2,-184445,-140125.7,-16859.52,-375000,-375000,-151932.5,-147102.5,0.02,0.00,0.88,-4,0,-2,44,0
'[11:48:01.072 21/01/2026]',-130113.8,-184451.4,-140139.8,-16866.04,-375000,-375000,-151937.9,-147136,0.02,0.00,0.88,-4,0,-2,44,0
'[11:48:01.076 21/01/2026]',-130116.3,-184443,-140143.3,-16865.82,-375000,-375000,-151932.4,-147121.8,0.02,0.00,0.88,-4,0,-2,44,0
'[11:48:01.080 21/01/2026]',-130139.6,-184425.3,-140136.6,-16860.46,-375000,-375000,-151917,-147072.3,0.03,0.00,0.88,-4,0,-2,44,0
'[11:48:01.084 21/01/2026]',-130150.9,-184431.5,-140137.6,-16867.56,-375000,-375000,-151928.3,-147061.5,0.03,0.00,0.88,-4,0,-2,44,0
'[11:48:01.088 21/01/2026]',-130135,-184456.5,-140151.6,-16876.06,-375000,-375000,-151949.6,-147135.9,0.03,0.00,0.88,-4,0,-2,44,0
'[11:48:01.092 21/01/2026]',-130151.7,-184457.1,-140141.2,-16863.59,-375000,-375000,-151942.8,-147168.3,0.03,0.00,0.88,-4,0,-2,44,0
'[11:48:01.096 21/01/2026]',-130169.1,-184450,-140140.4,-16864.35,-375000,-375000,-151941.3,-147141.6,0.03,0.00,0.88,-4,0,-2,44,0
'[11:48:01.100 21/01/2026]',-130150.9,-184446.2,-140152.5,-16868.82,-375000,-375000,-151940.9,-147126.6,0.03,0.00,0.88,-4,0,-2,44,0
'[11:48:01.104 21/01/2026]',-130158.5,-184462.1,-140162.4,-16887.05,-375000,-375000,-151960,-147176.8,0.03,0.00,0.88,-4,0,-2,44,0
'[11:48:01.108 21/01/2026]',-130156.5,-184446.5,-140154.8,-16882.94,-375000,-375000,-151956.9,-147209.4,0.03,0.00,0.88,-4,0,-2,44,0
'[11:48:01.112 21/01/2026]',-130157.4,-184439.3,-140136.4,-16867.16,-375000,-375000,-151933.4,-147163.3,0.03,0.00,0.88,-4,0,-2,44,0
'[11:48:01.116 21/01/2026]',-130153,-184444.5,-140128.8,-16852.14,-375000,-375000,-151909.9,-147083.8,0.03,0.00,0.88,-4,0,-2,44,0
'[11:48:01.120 21/01/2026]',-130123.7,-184447.3,-140139.6,-16863.5,-375000,-375000,-151925.1,-147094.6,0.03,0.00,0.88,-4,0,-2,44,0
'[11:48:01.124 21/01/2026]',-130118.6,-184444.1,-140143.7,-16864.66,-375000,-375000,-151927,-147129.3,0.03,0.00,0.88,-4,0,-2,44,0
'[11:48:01.128 21/01/2026]',-130142,-184443.7,-140147.3,-16867.12,-375000,-375000,-151919.8,-147095.5,0.03,0.00,0.88,-4,0,-2,44,0
'[11:48:01.132 21/01/2026]',-130146.4,-184427.9,-140146.7,-16866.36,-375000,-375000,-151914.8,-147050.3,0.03,0.00,0.88,-4,0,-2,44,0
'[11:48:01.136 21/01/2026]',-130125.4,-184433.9,-140154.4,-16875.57,-375000,-375000,-151927.1,-147085.5,0.03,0.00,0.88,-4,0,-2,44,0
'[11:48:01.140 21/01/2026]',-130133.1,-184428.1,-140149.8,-16870.92,-375000,-375000,-151926,-147127.9,0.03,0.00,0.88,-4,0,-2,44,0
'[11:48:01.144 21/01/2026]',-130120.7,-184419.4,-140156.5,-16872.62,-375000,-375000,-151924,-147106.7,0.03,0.00,0.88,-4,0,-2,44,0
'[11:48:01.148 21/01/2026]',-130130.2,-184426.5,-140160.5,-16866.94,-375000,-375000,-151917.3,-147053.9,0.03,0.00,0.88,-4,0,-2,44,0
'[11:48:01.152 21/01/2026]',-130155.9,-184450.9,-140158.2,-16876.1,-375000,-375000,-151937.6,-147079,0.02,0.00,0.88,-4,0,-2,44,0
'[11:48:01.156 21/01/2026]',-130144.5,-184456.5,-140142.9,-16873.51,-375000,-375000,-151941.6,-147123.9,0.02,0.00,0.88,-4,0,-2,44,0
'[11:48:01.160 21/01/2026]',-130147.1,-184449.4,-140136.9,-16867.25,-375000,-375000,-151938.2,-147130.7,0.02,0.00,0.88,-4,0,-2,44,0
'[11:48:01.164 21/01/2026]',-130163.9,-184439.2,-140144.1,-16864.79,-375000,-375000,-151934.7,-147115,0.02,0.00,0.88,-4,0,-2,44,0
'[11:48:01.168 21/01/2026]',-130177.3,-184439,-140153.9,-16871.63,-375000,-375000,-151943.1,-147144.5,0.02,0.00,0.88,-4,0,-2,44,0
'[11:48:01.172 21/01/2026]',-130146.9,-184447.5,-140172.3,-16883.48,-375000,-375000,-151959.5,-147188.1,0.02,0.00,0.88,-4,0,-2,44,0
'[11:48:01.176 21/01/2026]',-130132,-184451.5,-140156.6,-16870.47,-375000,-375000,-151950.9,-147173.3,0.02,0.00,0.88,-4,0,-2,44,0
'[11:48:01.180 21/01/2026]',-130156.7,-184438.8,-140141.7,-16854.78,-375000,-375000,-151928.3,-147114.8,0.02,0.00,0.88,-4,0,-2,44,0
'[11:48:01.184 21/01/2026]',-130161.2,-184428.8,-140138,-16860.55,-375000,-375000,-151935.7,-147110.5,0.02,0.00,0.88,-4,0,-2,44,0
'[11:48:01.188 21/01/2026]',-130148.9,-184442.4,-140144.2,-16877.22,-375000,-375000,-151960.4,-147173.3,0.02,0.00,0.88,-4,0,-2,44,0
'[11:48:01.192 21/01/2026]',-130158,-184449.7,-140153,-16877.98,-375000,-375000,-151962,-147189.3,0.02,0.00,0.88,-4,0,-2,44,0
'[11:48:01.196 21/01/2026]',-130188.8,-184450.3,-140154.7,-16870.47,-375000,-375000,-151957.4,-147143.7,0.02,0.00,0.88,-4,0,-2,44,0
'[11:48:01.200 21/01/2026]',-130175.8,-184454.3,-140162.4,-16868.01,-375000,-375000,-151957.2,-147124,0.02,0.00,0.88,-4,0,-2,44,0
'[11:48:01.204 21/01/2026]',-130153.4,-184467.6,-140160.9,-16876.19,-375000,-375000,-151964.9,-147167.9,0.02,0.00,0.88,-4,0,-2,44,0
'[11:48:01.208 21/01/2026]',-130145.9,-184453.5,-140147.4,-16866.22,-375000,-375000,-151948.6,-147184.9,0.02,0.00,0.88,-4,0,-2,44,0
'[11:48:01.212 21/01/2026]',-130154.3,-184448.1,-140155.6,-16870.78,-375000,-375000,-151942.1,-147153.5,0.02,0.00,0.88,-4,0,-2,44,0
'[11:48:01.216 21/01/2026]',-130170.6,-184441.5,-140154.1,-16870.47,-375000,-375000,-151934,-147113.6,0.02,0.00,0.88,-4,0,-2,44,0
'[11:48:01.220 21/01/2026]',-130179.7,-184451.3,-140161.2,-16883.93,-375000,-375000,-151951.9,-147150.1,0.02,0.00,0.88,-4,0,-2,44,0
'[11:48:01.224 21/01/2026]',-130175.1,-184450.7,-140155.5,-16884.6,-375000,-375000,-151955.5,-147204.7,0.03,0.00,0.88,-4,0,-2,44,0
'[11:48:01.228 21/01/2026]',-130165.2,-184435.2,-140143.1,-16873.11,-375000,-375000,-151940.4,-147148.8,0.03,0.00,0.88,-4,0,-2,44,0
'[11:48:01.232 21/01/2026]',-130159,-184439,-140145.1,-16868.5,-375000,-375000,-151933.5,-147090.3,0.03,0.00,0.88,-4,0,-2,44,0
'[11:48:01.236 21/01/2026]',-130142.5,-184456.9,-140160.5,-16879.86,-375000,-375000,-151943.7,-147119.8,0.03,0.00,0.88,-4,0,-2,44,0
'[11:48:01.240 21/01/2026]',-130117.4,-184451.3,-140167.2,-16880.3,-375000,-375000,-151944.3,-147161.9,0.03,0.00,0.88,-4,0,-2,44,0
'[11:48:01.244 21/01/2026]',-130151.2,-184448.2,-140162.4,-16876.51,-375000,-375000,-151937.6,-147128.6,0.03,0.00,0.88,-4,0,-2,44,0
'[11:48:01.248 21/01/2026]',-130174.1,-184445.7,-140143.2,-16868.82,-375000,-375000,-151921,-147060.9,0.03,0.00,0.88,-4,0,-2,44,0
'[11:48:01.252 21/01/2026]',-130152.4,-184445.2,-140152.5,-16878.07,-375000,-375000,-151928.6,-147089.3,0.03,0.00,0.88,-4,0,-2,44,0
'[11:48:01.256 21/01/2026]',-130125.6,-184443.6,-140163.1,-16884.69,-375000,-375000,-151935.9,-147125.6,0.03,0.00,0.88,-4,0,-2,44,0
'[11:48:01.260 21/01/2026]',-130135.8,-184445.1,-140162,-16887.23,-375000,-375000,-151938.1,-147107.3,0.03,0.00,0.88,-4,0,-2,44,0
'[11:48:01.264 21/01/2026]',-130145.7,-184438,-140154.2,-16879.01,-375000,-375000,-151935.5,-147061.5,0.03,0.00,0.88,-4,0,-2,44,0
'[11:48:01.268 21/01/2026]',-130139,-184440.6,-140152.6,-16875.39,-375000,-375000,-151943.4,-147085.2,0.03,0.00,0.88,-4,0,-2,44,0
'[11:48:01.272 21/01/2026]',-130138.6,-184452.9,-140158.4,-16882.09,-375000,-375000,-151951.9,-147135.3,0.03,0.00,0.88,-4,0,-2,44,0
'[11:48:01.276 21/01/2026]',-130135.8,-184442.5,-140160.5,-16878.52,-375000,-375000,-151943.6,-147125.3,0.03,0.00,0.88,-4,0,-2,44,0
'[11:48:01.280 21/01/2026]',-130132.8,-184435,-140148.2,-16871.86,-375000,-375000,-151934.4,-147077.3,0.03,0.00,0.88,-4,0,-2,44,0
'[11:48:01.284 21/01/2026]',-130135.7,-184430.2,-140143.6,-16874.36,-375000,-375000,-151935.3,-147069.5,0.03,0.00,0.88,-4,0,-2,44,0
'[11:48:01.288 21/01/2026]',-130121.4,-184444.4,-140160.3,-16885.45,-375000,-375000,-151947.4,-147113,0.03,0.00,0.88,-4,0,-2,44,0
'[11:48:01.292 21/01/2026]',-130139.3,-184440.6,-140163.8,-16884.96,-375000,-375000,-151948.5,-147139,0.03,0.00,0.88,-4,0,-2,44,0
'[11:48:01.296 21/01/2026]',-130169.3,-184440.5,-140159.8,-16891.39,-375000,-375000,-151960.1,-147159.7,0.03,0.00,0.88,-4,0,-2,44,0
'[11:48:01.300 21/01/2026]',-130169.8,-184437.7,-140158.8,-16884.87,-375000,-375000,-151958.9,-147160,0.03,0.00,0.88,-4,0,-2,44,0
'[11:48:01.304 21/01/2026]',-130152.7,-184455.2,-140160.2,-16885.89,-375000,-375000,-151961.1,-147164.2,0.03,0.00,0.88,-4,0,-2,44,0
'[11:48:01.308 21/01/2026]',-130143.6,-184459.8,-140157.7,-16880.44,-375000,-375000,-151960.4,-147187.8,0.03,0.00,0.88,-4,0,-2,44,0
'[11:48:01.312 21/01/2026]',-130150.4,-184456.3,-140157.2,-16879.37,-375000,-375000,-151953.3,-147141.4,0.03,0.00,0.88,-4,0,-2,44,0
'[11:48:01.316 21/01/2026]',-130143.3,-184444.4,-140152.6,-16874.85,-375000,-375000,-151948.7,-147089.9,0.03,0.00,0.88,-4,0,-2,44,0
'[11:48:01.320 21/01/2026]',-130138.6,-184451.8,-140150.5,-16878.34,-375000,-375000,-151951,-147133.9,0.03,0.00,0.88,-4,0,-2,44,0
'[11:48:01.324 21/01/2026]',-130130.8,-184441.8,-140144.2,-16867.21,-375000,-375000,-151938.5,-147156.6,0.03,0.00,0.88,-4,0,-2,44,0
'[11:48:01.328 21/01/2026]',-130114.9,-184428.8,-140164.8,-16869.35,-375000,-375000,-151941.5,-147115.7,0.03,0.00,0.88,-4,0,-2,44,0
'[11:48:01.332 21/01/2026]',-130123.1,-184414.5,-140148.3,-16862.24,-375000,-375000,-151931.3,-147072,0.03,0.00,0.89,-4,0,-2,44,0
'[11:48:01.336 21/01/2026]',-130129.7,-184425.9,-140128.5,-16862.47,-375000,-375000,-151943.9,-147113.9,0.03,0.00,0.89,-4,0,-2,44,0
'[11:48:01.340 21/01/2026]',-130153.2,-184435.7,-140138.4,-16872.17,-375000,-375000,-151961,-147211.9,0.03,0.00,0.89,-4,0,-2,44,0
'[11:48:01.344 21/01/2026]',-130149.3,-184441.2,-140152.7,-16866,-375000,-375000,-151951.8,-147193.5,0.03,0.00,0.89,-4,0,-2,44,0
'[11:48:01.348 21/01/2026]',-130156.6,-184445,-140145,-16856.75,-375000,-375000,-151941.8,-147139.5,0.03,0.00,0.89,-4,0,-2,44,0
'[11:48:01.352 21/01/2026]',-130141.6,-184438.9,-140135,-16857.78,-375000,-375000,-151945.6,-147154.2,0.03,0.00,0.89,-4,0,-2,44,0
'[11:48:01.356 21/01/2026]',-130118,-184441.3,-140138,-16865.42,-375000,-375000,-151951.7,-147188.7,0.03,0.00,0.89,-4,0,-2,44,0
'[11:48:01.360 21/01/2026]',-130154.3,-184428.1,-140131.1,-16861.89,-375000,-375000,-151945.5,-147175.7,0.03,0.00,0.89,-4,0,-2,44,0
'[11:48:01.364 21/01/2026]',-130174.6,-184425.6,-140116.8,-16852.63,-375000,-375000,-151926.5,-147126.1,0.03,0.00,0.89,-4,0,-2,44,0
'[11:48:01.368 21/01/2026]',-130152.7,-184430.9,-140135.3,-16860.05,-375000,-375000,-151937.9,-147132.9,0.03,0.00,0.88,-4,0,-2,44,0
'[11:48:01.372 21/01/2026]',-130116.4,-184432.8,-140152.2,-16867.83,-375000,-375000,-151949.6,-147182.8,0.03,0.00,0.88,-4,0,-2,44,0
'[11:48:01.376 21/01/2026]',-130129.6,-184432,-140143.3,-16863.23,-375000,-375000,-151943.9,-147171.7,0.03,0.00,0.88,-4,0,-2,44,0
'[11:48:01.380 21/01/2026]',-130147.5,-184427.5,-140149.8,-16871.01,-375000,-375000,-151944.7,-147138.9,0.03,0.00,0.88,-4,0,-2,44,0
'[11:48:01.384 21/01/2026]',-130161.8,-184427.3,-140132.7,-16865.82,-375000,-375000,-151945.8,-147122.7,0.03,0.00,0.88,-4,0,-2,44,0
'[11:48:01.388 21/01/2026]',-130156.5,-184432.3,-140111.8,-16856.3,-375000,-375000,-151947.8,-147160.8,0.03,0.00,0.88,-4,0,-2,44,0
'[11:48:01.392 21/01/2026]',-130142.9,-184436.8,-140125.7,-16860.23,-375000,-375000,-151948.7,-147179.1,0.03,0.00,0.88,-4,0,-2,44,0
'[11:48:01.396 21/01/2026]',-130131.4,-184428.1,-140131.4,-16859.52,-375000,-375000,-151941.2,-147131.7,0.03,0.00,0.88,-4,0,-2,44,0
'[11:48:01.400 21/01/2026]',-130138.9,-184413.8,-140134.3,-16854.87,-375000,-375000,-151937.5,-147104.2,0.03,0.00,0.88,-4,0,-2,44,0
'[11:48:01.404 21/01/2026]',-130127.4,-184432,-140154.6,-16868.41,-375000,-375000,-151958.1,-147154.8,0.03,0.02,0.89,-4,0,-2,44,0
'[11:48:01.408 21/01/2026]',-130126.3,-184434.8,-140144.7,-16862.92,-375000,-375000,-151954,-147178,0.03,0.02,0.89,-4,0,-2,44,0
'[11:48:01.412 21/01/2026]',-130151.8,-184418.8,-140140.8,-16854.47,-375000,-375000,-151941.3,-147147.1,0.03,0.02,0.89,-4,0,-2,44,0
'[11:48:01.416 21/01/2026]',-130158.7,-184402.7,-140122.5,-16839.63,-375000,-375000,-151928.6,-147102,0.03,0.02,0.89,-4,0,-2,44,0
'[11:48:01.420 21/01/2026]',-130124,-184428.6,-140129,-16852.59,-375000,-375000,-151943.3,-147135,0.03,0.02,0.89,-4,0,-2,44,0
'[11:48:01.424 21/01/2026]',-130102.9,-184428.6,-140129.9,-16853.3,-375000,-375000,-151939.5,-147174.3,0.03,0.02,0.89,-4,0,-2,44,0
'[11:48:01.428 21/01/2026]',-130112.1,-184412,-140133.2,-16854.38,-375000,-375000,-151931.9,-147139.6,0.03,0.02,0.89,-4,0,-2,44,0
'[11:48:01.432 21/01/2026]',-130127.8,-184403.3,-140136.4,-16854.2,-375000,-375000,-151932,-147106.8,0.03,0.02,0.89,-4,0,-2,44,0
'[11:48:01.436 21/01/2026]',-130149.8,-184435.6,-140157.3,-16873.78,-375000,-375000,-151963.3,-147151.3,0.03,0.02,0.89,-4,0,-2,44,0
'[11:48:01.440 21/01/2026]',-130142.9,-184429.2,-140139.8,-16863.14,-375000,-375000,-151958.6,-147200.1,0.03,0.00,0.88,-4,0,-2,44,0
'[11:48:01.444 21/01/2026]',-130131.2,-184410.6,-140126.3,-16847.31,-375000,-375000,-151939.5,-147164.6,0.03,0.00,0.88,-4,0,-2,44,0
'[11:48:01.448 21/01/2026]',-130119.1,-184400.3,-140131.8,-16843.11,-375000,-375000,-151923.9,-147105.3,0.03,0.00,0.88,-4,0,-2,44,0
'[11:48:01.452 21/01/2026]',-130111.2,-184409.1,-140135.4,-16853.21,-375000,-375000,-151941.4,-147116,0.03,0.00,0.88,-4,0,-2,44,0
'[11:48:01.456 21/01/2026]',-130108,-184415.1,-140122.8,-16847.67,-375000,-375000,-151940.5,-147176,0.03,0.00,0.88,-4,0,-2,44,0
'[11:48:01.460 21/01/2026]',-130131.9,-184420.3,-140112.7,-16840.97,-375000,-375000,-151933.4,-147162,0.03,0.00,0.88,-4,0,-2,44,0
'[11:48:01.464 21/01/2026]',-130135.4,-184416.2,-140133.5,-16846.42,-375000,-375000,-151928.6,-147090.8,0.03,0.00,0.88,-4,0,-2,44,0
'[11:48:01.468 21/01/2026]',-130111.5,-184420.1,-140144.4,-16857.95,-375000,-375000,-151941,-147093.3,0.03,0.00,0.88,-4,0,-2,44,0
'[11:48:01.472 21/01/2026]',-130106.3,-184414.2,-140130.1,-16862.42,-375000,-375000,-151949.2,-147144.8,0.03,0.00,0.88,-4,0,-2,44,0
'[11:48:01.476 21/01/2026]',-130132.6,-184407.9,-140123.8,-16856.88,-375000,-375000,-151946.3,-147145.2,0.03,0.00,0.88,-4,0,-2,44,0
'[11:48:01.480 21/01/2026]',-130122.8,-184414.8,-140145.9,-16857.42,-375000,-375000,-151945,-147105.8,0.03,0.00,0.88,-4,0,-2,44,0
'[11:48:01.484 21/01/2026]',-130105.7,-184409.1,-140152.1,-16862.11,-375000,-375000,-151946.2,-147104.3,0.03,0.00,0.88,-4,0,-2,44,0
'[11:48:01.488 21/01/2026]',-130117.6,-184411.5,-140130.9,-16863.94,-375000,-375000,-151948,-147157.7,0.03,0.00,0.88,-4,0,-2,44,0
'[11:48:01.492 21/01/2026]',-130117.1,-184418.6,-140130.1,-16859.65,-375000,-375000,-151944.7,-147165.6,0.03,0.00,0.88,-4,0,-2,44,0
'[11:48:01.496 21/01/2026]',-130124.3,-184417.9,-140145.8,-16869.35,-375000,-375000,-151948.6,-147133.5,0.03,0.00,0.88,-4,0,-2,44,0
'[11:48:01.500 21/01/2026]',-130100.8,-184404.9,-140147.5,-16862.78,-375000,-375000,-151934.9,-147093.1,0.03,0.00,0.88,-4,0,-2,44,0
'[11:48:01.504 21/01/2026]',-130126.7,-184420.9,-140130.3,-16861.22,-375000,-375000,-151949.5,-147140.8,0.03,0.00,0.88,-4,0,-2,44,0
'[11:48:01.508 21/01/2026]',-130136.4,-184431.2,-140115,-16858.22,-375000,-375000,-151951.6,-147173.6,0.03,0.00,0.88,-4,0,-2,44,0
'[11:48:01.512 21/01/2026]',-130129.3,-184406.7,-140118.7,-16850.94,-375000,-375000,-151938.3,-147135.2,0.03,0.00,0.88,-4,0,-2,44,0
'[11:48:01.516 21/01/2026]',-130126.6,-184390.1,-140134.4,-16852.01,-375000,-375000,-151943,-147118.5,0.03,0.00,0.88,-4,0,-2,44,0
'[11:48:01.520 21/01/2026]',-130109.8,-184411,-140139.4,-16860.32,-375000,-375000,-151955.5,-147149.3,0.03,0.00,0.88,-4,0,-2,44,0
'[11:48:01.524 21/01/2026]',-130085.4,-184407,-140138.4,-16855.4,-375000,-375000,-151941.5,-147165.6,0.03,0.00,0.88,-4,0,-2,44,0
'[11:48:01.528 21/01/2026]',-130112.7,-184401.9,-140133.4,-16856.61,-375000,-375000,-151937.3,-147120.6,0.03,0.00,0.88,-4,0,-2,44,0
'[11:48:01.532 21/01/2026]',-130129.4,-184393.6,-140115.2,-16833.28,-375000,-375000,-151919.4,-147069.1,0.03,0.00,0.88,-4,0,-2,44,0
'[11:48:01.536 21/01/2026]',-130112,-184396.5,-140124.3,-16834.93,-375000,-375000,-151922.1,-147094.6,0.03,0.00,0.88,-4,0,-2,44,0
'[11:48:01.540 21/01/2026]',-130131.2,-184419,-140119.5,-16846.73,-375000,-375000,-151938.5,-147151.7,0.03,0.00,0.88,-4,0,-2,44,0
'[11:48:01.544 21/01/2026]',-130128.7,-184410.4,-140120.7,-16851.38,-375000,-375000,-151938.6,-147133,0.03,0.00,0.88,-4,0,-2,44,0
'[11:48:01.548 21/01/2026]',-130116.8,-184386.7,-140120.4,-16839.4,-375000,-375000,-151916.6,-147066.9,0.02,0.00,0.88,-4,0,-2,44,0
'[11:48:01.552 21/01/2026]',-130089.3,-184393.9,-140154.5,-16862.24,-375000,-375000,-151933.7,-147078.2,0.02,0.00,0.88,-4,0,-2,44,0
'[11:48:01.556 21/01/2026]',-130130.8,-184409.5,-140131,-16861.44,-375000,-375000,-151943.3,-147138.4,0.02,0.00,0.88,-4,0,-2,44,0
'[11:48:01.560 21/01/2026]',-130144.9,-184416.6,-140106.5,-16845.88,-375000,-375000,-151935.8,-147130.1,0.02,0.00,0.88,-4,0,-2,44,0
'[11:48:01.564 21/01/2026]',-130129.3,-184398.6,-140128.2,-16847.58,-375000,-375000,-151931,-147089,0.02,0.00,0.88,-4,0,-2,44,0
'[11:48:01.568 21/01/2026]',-130127.1,-184399.9,-140150.4,-16855.67,-375000,-375000,-151939.7,-147092.4,0.02,0.00,0.88,-4,0,-2,44,0
'[11:48:01.572 21/01/2026]',-130129.8,-184429.1,-140125.9,-16862.96,-375000,-375000,-151956.6,-147156.6,0.02,0.00,0.88,-4,0,-2,44,0
'[11:48:01.576 21/01/2026]',-130126.3,-184412.3,-140124.5,-16857.51,-375000,-375000,-151952.3,-147154.1,0.02,0.00,0.88,-4,0,-2,44,0
'[11:48:01.580 21/01/2026]',-130115,-184411.6,-140144.9,-16856.75,-375000,-375000,-151936.5,-147090.5,0.02,0.00,0.88,-4,0,-2,44,0
'[11:48:01.584 21/01/2026]',-130144.9,-184420.7,-140140.5,-16856.52,-375000,-375000,-151928.5,-147068.1,0.03,0.00,0.88,-4,0,-2,44,0
'[11:48:01.588 21/01/2026]',-130122.5,-184433.5,-140130.4,-16866.94,-375000,-375000,-151947.8,-147123,0.03,0.00,0.88,-4,0,-2,44,0
'[11:48:01.592 21/01/2026]',-130107.9,-184406.4,-140121.1,-16849.37,-375000,-375000,-151923.4,-147128.8,0.03,0.00,0.88,-4,0,-2,44,0
'[11:48:01.596 21/01/2026]',-130123.7,-184411.8,-140143.2,-16852.37,-375000,-375000,-151916,-147080.2,0.03,0.00,0.88,-4,0,-2,44,0
'[11:48:01.600 21/01/2026]',-130161,-184433.8,-140128.5,-16846.24,-375000,-375000,-151920.2,-147054.5,0.03,0.00,0.88,-4,0,-2,44,0
'[11:48:01.604 21/01/2026]',-130157.9,-184437.3,-140135.7,-16858.54,-375000,-375000,-151938.5,-147103.3,0.03,0.00,0.88,-4,0,-2,44,0
'[11:48:01.608 21/01/2026]',-130098.1,-184408.4,-140167.8,-16874.94,-375000,-375000,-151941.3,-147135.1,0.03,0.00,0.88,-4,0,-2,44,0
'[11:48:01.612 21/01/2026]',-130151.9,-184420.4,-140134.6,-16864.21,-375000,-375000,-151934.4,-147095,0.03,0.00,0.88,-4,0,-2,44,0
'[11:48:01.616 21/01/2026]',-130144.8,-184423.9,-140131,-16854.51,-375000,-375000,-151927,-147048,0.03,0.00,0.88,-4,0,-2,44,0
'[11:48:01.620 21/01/2026]',-130137.8,-184438.7,-140149.8,-16866.31,-375000,-375000,-151950,-147106.5,0.03,0.00,0.88,-4,0,-2,44,0
'[11:48:01.624 21/01/2026]',-130135.3,-184424.4,-140140.9,-16862.65,-375000,-375000,-151947.3,-147146,0.03,0.00,0.88,-4,0,-2,44,0
'[11:48:01.628 21/01/2026]',-130170.2,-184421.6,-140138.9,-16864.12,-375000,-375000,-151940.9,-147107.2,0.03,0.00,0.88,-4,0,-2,44,0
'[11:48:01.632 21/01/2026]',-130193.9,-184425.6,-140139.4,-16858.71,-375000,-375000,-151936.6,-147083.1,0.03,0.00,0.88,-4,0,-2,44,0
'[11:48:01.636 21/01/2026]',-130148.9,-184435.9,-140141.1,-16871.19,-375000,-375000,-151951.4,-147112.7,0.03,0.00,0.88,-4,0,-2,44,0
'[11:48:01.640 21/01/2026]',-130121.2,-184448.3,-140150.3,-16889.78,-375000,-375000,-151973,-147162.7,0.03,0.00,0.88,-4,0,-2,44,0
'[11:48:01.644 21/01/2026]',-130174.1,-184445.1,-140154.4,-16892.6,-375000,-375000,-151966.9,-147135.9,0.03,0.00,0.88,-4,0,-2,44,0
'[11:48:01.648 21/01/2026]',-130187.1,-184439.2,-140149.5,-16881.42,-375000,-375000,-151947,-147077.4,0.03,0.00,0.88,-4,0,-2,44,0
'[11:48:01.652 21/01/2026]',-130145.2,-184427.2,-140151.7,-16872.08,-375000,-375000,-151951,-147086.3,0.03,0.00,0.88,-4,0,-2,44,0
'[11:48:01.656 21/01/2026]',-130117.4,-184417.4,-140157.3,-16877.85,-375000,-375000,-151958.7,-147133.7,0.03,0.00,0.89,-4,0,-2,44,0
'[11:48:01.660 21/01/2026]',-130117.6,-184424.5,-140178.5,-16884.15,-375000,-375000,-151966.3,-147141,0.03,0.00,0.89,-4,0,-2,44,0
'[11:48:01.664 21/01/2026]',-130153.8,-184416.5,-140144.5,-16861.75,-375000,-375000,-151944.7,-147085.2,0.03,0.00,0.89,-4,0,-2,44,0
'[11:48:01.668 21/01/2026]',-130160.3,-184414.4,-140126.4,-16865.06,-375000,-375000,-151951.3,-147077.9,0.03,0.00,0.89,-4,0,-2,44,0
'[11:48:01.672 21/01/2026]',-130149.8,-184425.2,-140134.6,-16876.46,-375000,-375000,-151970.1,-147151.4,0.03,0.00,0.89,-4,0,-2,44,0
'[11:48:01.676 21/01/2026]',-130130.6,-184430.4,-140140.3,-16869.8,-375000,-375000,-151968.7,-147173.8,0.03,0.00,0.89,-4,0,-2,44,0
'[11:48:01.680 21/01/2026]',-130155.9,-184432.8,-140138.9,-16862.11,-375000,-375000,-151961.2,-147130.8,0.03,0.00,0.89,-4,0,-2,44,0
'[11:48:01.684 21/01/2026]',-130162.2,-184427.9,-140130.6,-16859.38,-375000,-375000,-151959.1,-147106.4,0.03,0.00,0.89,-4,0,-2,44,0
'[11:48:01.688 21/01/2026]',-130136.8,-184420.6,-140130.4,-16859.96,-375000,-375000,-151965.3,-147148.3,0.03,0.00,0.89,-4,0,-2,44,0
'[11:48:01.692 21/01/2026]',-130128.7,-184416.1,-140135.3,-16858.22,-375000,-375000,-151956.4,-147163.1,0.02,0.00,0.88,-4,0,-2,44,0
'[11:48:01.696 21/01/2026]',-130119.9,-184418.4,-140156.5,-16864.61,-375000,-375000,-151954.9,-147106.8,0.02,0.00,0.88,-4,0,-2,44,0
'[11:48:01.700 21/01/2026]',-130147.6,-184422.7,-140157.1,-16862.92,-375000,-375000,-151950.8,-147081.8,0.02,0.00,0.88,-4,0,-2,44,0
'[11:48:01.704 21/01/2026]',-130161.4,-184429.6,-140136.6,-16862.87,-375000,-375000,-151953.9,-147117.5,0.02,0.00,0.88,-4,0,-2,44,0
'[11:48:01.708 21/01/2026]',-130142.5,-184413.1,-140122.7,-16853.97,-375000,-375000,-151942.7,-147143.1,0.02,0.00,0.88,-4,0,-2,44,0
'[11:48:01.712 21/01/2026]',-130135.9,-184401.5,-140125.9,-16852.77,-375000,-375000,-151934.7,-147110.5,0.02,0.00,0.88,-4,0,-2,44,0
'[11:48:01.716 21/01/2026]',-130125.9,-184400.5,-140123.1,-16838.96,-375000,-375000,-151919,-147076.6,0.02,0.00,0.88,-4,0,-2,44,0
'[11:48:01.720 21/01/2026]',-130122.8,-184427.9,-140123,-16849.68,-375000,-375000,-151932.1,-147106.3,0.02,0.00,0.88,-4,0,-2,44,0
'[11:48:01.724 21/01/2026]',-130138.5,-184432.1,-140121.8,-16853.17,-375000,-375000,-151934.1,-147167.7,0.02,0.00,0.88,-4,0,-2,44,0
'[11:48:01.728 21/01/2026]',-130140.2,-184427.5,-140145.5,-16858.54,-375000,-375000,-151934.2,-147152.1,0.03,0.00,0.86,-4,0,-2,44,0
'[11:48:01.732 21/01/2026]',-130135.3,-184423.1,-140158.9,-16861.44,-375000,-375000,-151937.5,-147132,0.03,0.00,0.86,-4,0,-2,44,0
'[11:48:01.736 21/01/2026]',-130178.4,-184440.8,-140151.5,-16872.93,-375000,-375000,-151958.2,-147155.4,0.03,0.00,0.86,-4,0,-2,44,0
'[11:48:01.740 21/01/2026]',-130146,-184420.2,-140121.3,-16855.54,-375000,-375000,-151943,-147174.1,0.03,0.00,0.86,-4,0,-2,44,0
'[11:48:01.744 21/01/2026]',-130160.9,-184424,-140126.8,-16861.22,-375000,-375000,-151941.8,-147144.9,0.03,0.00,0.86,-4,0,-2,44,0
'[11:48:01.748 21/01/2026]',-130172.7,-184428.8,-140138.5,-16864.7,-375000,-375000,-151940,-147097.5,0.03,0.00,0.86,-4,0,-2,44,0
'[11:48:01.752 21/01/2026]',-130159.1,-184424.5,-140125.9,-16855.67,-375000,-375000,-151940.8,-147117.6,0.03,0.00,0.86,-4,0,-2,44,0
'[11:48:01.756 21/01/2026]',-130139,-184419.4,-140135.9,-16858.76,-375000,-375000,-151944.8,-147159.2,0.03,0.00,0.86,-4,0,-2,44,0
'[11:48:01.760 21/01/2026]',-130140.8,-184429.5,-140146.6,-16870.74,-375000,-375000,-151948.6,-147152.3,0.03,0.00,0.86,-4,0,-2,44,0
'[11:48:01.764 21/01/2026]',-130151.3,-184426,-140136.5,-16859.92,-375000,-375000,-151937.7,-147117.9,0.02,0.02,0.88,-4,0,-2,44,0
'[11:48:01.768 21/01/2026]',-130144.7,-184419.5,-140138,-16852.37,-375000,-375000,-151934.7,-147128.1,0.02,0.02,0.88,-4,0,-2,44,0
'[11:48:01.772 21/01/2026]',-130107.6,-184432.5,-140161.2,-16868.68,-375000,-375000,-151954.8,-147177.3,0.02,0.02,0.88,-4,0,-2,44,0
'[11:48:01.776 21/01/2026]',-130132.6,-184445,-140169.1,-16877.53,-375000,-375000,-151959.8,-147189,0.02,0.02,0.88,-4,0,-2,44,0
'[11:48:01.780 21/01/2026]',-130182.1,-184450,-140154.2,-16876.51,-375000,-375000,-151951.4,-147141.3,0.02,0.02,0.88,-4,0,-2,44,0
'[11:48:01.784 21/01/2026]',-130188.5,-184457.4,-140150.6,-16882.58,-375000,-375000,-151958.8,-147135.6,0.02,0.02,0.88,-4,0,-2,44,0
'[11:48:01.788 21/01/2026]',-130170.6,-184467.2,-140168.3,-16893.85,-375000,-375000,-151976.1,-147190.1,0.02,0.02,0.88,-4,0,-2,44,0
'[11:48:01.792 21/01/2026]',-130186,-184481.5,-140183.2,-16893.58,-375000,-375000,-151962.1,-147208.2,0.02,0.02,0.88,-4,0,-2,44,0
'[11:48:01.796 21/01/2026]',-130175.2,-184502,-140215.7,-16903.46,-375000,-375000,-151951.4,-147160.9,0.02,0.02,0.88,-4,0,-2,44,0
'[11:48:01.800 21/01/2026]',-130242.8,-184521.6,-140188.7,-16906.14,-375000,-375000,-151949.3,-147126.8,0.03,0.00,0.88,-4,0,-2,44,0
'[11:48:01.804 21/01/2026]',-130281.7,-184532.6,-140182.3,-16913.21,-375000,-375000,-151966.1,-147171.2,0.03,0.00,0.88,-4,0,-2,44,0
'[11:48:01.808 21/01/2026]',-130265.6,-184535.1,-140213.8,-16923.62,-375000,-375000,-151967,-147205,0.03,0.00,0.88,-4,0,-2,44,0
'[11:48:01.812 21/01/2026]',-130286.3,-184556.2,-140232.9,-16934.98,-375000,-375000,-151969.9,-147174.3,0.03,0.00,0.88,-4,0,-2,44,0
'[11:48:01.816 21/01/2026]',-130312.9,-184544,-140209.8,-16926.13,-375000,-375000,-151958.6,-147131.7,0.03,0.00,0.88,-4,0,-2,44,0
'[11:48:01.820 21/01/2026]',-130279.6,-184553,-140210.8,-16926.93,-375000,-375000,-151960.7,-147160.5,0.03,0.00,0.88,-4,0,-2,44,0
'[11:48:01.824 21/01/2026]',-130290,-184566.9,-140212.4,-16920.76,-375000,-375000,-151961.1,-147196.2,0.03,0.00,0.88,-4,0,-2,44,0
'[11:48:01.828 21/01/2026]',-130316.9,-184552.8,-140205.6,-16921.12,-375000,-375000,-151960.9,-147161.5,0.03,0.00,0.88,-4,0,-2,44,0
'[11:48:01.832 21/01/2026]',-130327.8,-184535.9,-140205.1,-16919.64,-375000,-375000,-151953.5,-147125.6,0.03,0.00,0.88,-4,0,-2,44,0
'[11:48:01.836 21/01/2026]',-130274.2,-184538,-140219.3,-16930.28,-375000,-375000,-151962.9,-147142.5,0.02,0.00,0.88,-4,0,-2,44,0
'[11:48:01.840 21/01/2026]',-130268.8,-184542.1,-140220.3,-16935.29,-375000,-375000,-151978.5,-147199.9,0.02,0.00,0.88,-4,0,-2,44,0
'[11:48:01.844 21/01/2026]',-130275.1,-184536.1,-140212.8,-16923.22,-375000,-375000,-151970.6,-147183,0.02,0.00,0.88,-4,0,-2,44,0
'[11:48:01.848 21/01/2026]',-130274.8,-184508,-140198.7,-16898.37,-375000,-375000,-151943,-147117.7,0.02,0.00,0.88,-4,0,-2,44,0
'[11:48:01.852 21/01/2026]',-130253.8,-184498.7,-140194.8,-16901.05,-375000,-375000,-151949,-147121.3,0.02,0.00,0.88,-4,0,-2,44,0
'[11:48:01.856 21/01/2026]',-130253.6,-184515,-140185.1,-16914.06,-375000,-375000,-151963.1,-147176.3,0.02,0.00,0.88,-4,0,-2,44,0
'[11:48:01.860 21/01/2026]',-130251,-184513.1,-140176.8,-16905.29,-375000,-375000,-151954.3,-147175.6,0.02,0.00,0.88,-4,0,-2,44,0
'[11:48:01.864 21/01/2026]',-130247.5,-184498.7,-140175.3,-16898.72,-375000,-375000,-151947.3,-147130.7,0.02,0.00,0.88,-4,0,-2,44,0
'[11:48:01.868 21/01/2026]',-130233.6,-184487.8,-140181.6,-16907.35,-375000,-375000,-151961.3,-147133.2,0.02,0.00,0.88,-4,0,-2,44,0
'[11:48:01.872 21/01/2026]',-130227.8,-184498.7,-140193,-16915.84,-375000,-375000,-151979.4,-147193.7,0.02,0.00,0.88,-4,0,-2,44,0
'[11:48:01.876 21/01/2026]',-130220.2,-184479.8,-140194.7,-16906.9,-375000,-375000,-151967.7,-147196.2,0.02,0.00,0.88,-4,0,-2,44,0
'[11:48:01.880 21/01/2026]',-130206.5,-184467.8,-140202.5,-16890.72,-375000,-375000,-151948.5,-147147.7,0.02,0.00,0.88,-4,0,-2,44,0
'[11:48:01.884 21/01/2026]',-130224.2,-184478.2,-140184.3,-16888.22,-375000,-375000,-151951.8,-147134.3,0.02,0.00,0.88,-4,0,-2,44,0
'[11:48:01.888 21/01/2026]',-130207.4,-184481.6,-140173.9,-16897.7,-375000,-375000,-151959.2,-147177.5,0.02,0.00,0.88,-4,0,-2,44,0
'[11:48:01.892 21/01/2026]',-130201.8,-184470,-140168.6,-16891.53,-375000,-375000,-151947,-147183,0.02,0.00,0.88,-4,0,-2,44,0
'[11:48:01.896 21/01/2026]',-130228.9,-184459.4,-140167.2,-16891.88,-375000,-375000,-151936.3,-147125.5,0.02,0.00,0.88,-4,0,-2,44,0
'[11:48:01.900 21/01/2026]',-130233.2,-184460.3,-140181.6,-16899.21,-375000,-375000,-151945.5,-147099.8,0.02,0.00,0.88,-4,0,-2,44,0
'[11:48:01.904 21/01/2026]',-130203.3,-184470.2,-140196.3,-16910.93,-375000,-375000,-151967.2,-147152,0.02,0.00,0.88,-4,0,-2,44,0
'[11:48:01.908 21/01/2026]',-130182.9,-184461,-140198.9,-16906.81,-375000,-375000,-151967,-147180.7,0.02,0.00,0.88,-4,0,-2,44,0
'[11:48:01.912 21/01/2026]',-130196.3,-184450.8,-140186.7,-16898.14,-375000,-375000,-151959.3,-147156.8,0.02,0.00,0.88,-4,0,-2,44,0
'[11:48:01.916 21/01/2026]',-130192.8,-184421.7,-140165.6,-16879.77,-375000,-375000,-151945.8,-147116.4,0.02,0.00,0.88,-4,0,-2,44,0
'[11:48:01.920 21/01/2026]',-130164.6,-184433.1,-140170.1,-16888.8,-375000,-375000,-151956.6,-147142.4,0.02,0.00,0.88,-4,0,-2,44,0
'[11:48:01.924 21/01/2026]',-130163.9,-184429.8,-140159.7,-16880.13,-375000,-375000,-151949.2,-147181.1,0.02,0.00,0.88,-4,0,-2,44,0
'[11:48:01.928 21/01/2026]',-130186.2,-184445.5,-140164.8,-16879.59,-375000,-375000,-151943.2,-147152.8,0.02,0.00,0.88,-4,0,-2,44,0
'[11:48:01.932 21/01/2026]',-130194.4,-184445,-140162.7,-16874.18,-375000,-375000,-151931.5,-147094.6,0.02,0.00,0.88,-4,0,-2,44,0
'[11:48:01.936 21/01/2026]',-130174,-184439.5,-140149.1,-16873.46,-375000,-375000,-151929.7,-147102.9,0.02,0.00,0.88,-4,0,-2,44,0
'[11:48:01.940 21/01/2026]',-130136.1,-184436.7,-140149.5,-16875.83,-375000,-375000,-151935.8,-147142.4,0.02,0.00,0.88,-4,0,-2,44,0
'[11:48:01.944 21/01/2026]',-130139.9,-184428.3,-140156.7,-16872.62,-375000,-375000,-151927.2,-147127.8,0.02,0.00,0.88,-4,0,-2,44,0
'[11:48:01.948 21/01/2026]',-130167.1,-184418.3,-140151.6,-16868.77,-375000,-375000,-151924.1,-147088.7,0.02,0.00,0.88,-4,0,-2,44,0
'[11:48:01.952 21/01/2026]',-130149.3,-184424.5,-140161.6,-16881.02,-375000,-375000,-151941.1,-147103.4,0.02,0.00,0.88,-4,0,-2,44,0
'[11:48:01.956 21/01/2026]',-130154.1,-184431.3,-140172.1,-16888.17,-375000,-375000,-151958.7,-147163.5,0.02,0.00,0.88,-4,0,-2,44,0
'[11:48:01.960 21/01/2026]',-130160.2,-184416.1,-140154.3,-16870.74,-375000,-375000,-151937.9,-147140.2,0.02,0.00,0.88,-4,0,-2,44,0
'[11:48:01.964 21/01/2026]',-130162.7,-184406,-140152.5,-16860.59,-375000,-375000,-151929.8,-147090.3,0.02,0.00,0.88,-4,0,-2,44,0
'[11:48:01.968 21/01/2026]',-130138.6,-184399.1,-140146.5,-16850.13,-375000,-375000,-151922.1,-147067.8,0.02,0.00,0.88,-4,0,-2,44,0
'[11:48:01.972 21/01/2026]',-130112.3,-184407.8,-140149.2,-16860.63,-375000,-375000,-151935.4,-147134.6,0.02,0.00,0.88,-4,0,-2,44,0
'[11:48:01.976 21/01/2026]',-130108,-184405.5,-140152.6,-16861.53,-375000,-375000,-151927.5,-147136.6,0.02,0.00,0.88,-4,0,-2,44,0
'[11:48:01.980 21/01/2026]',-130133.5,-184398.1,-140154.2,-16859.43,-375000,-375000,-151917.3,-147087.6,0.03,0.00,0.88,-4,0,-2,44,0
'[11:48:01.984 21/01/2026]',-130157,-184397.5,-140136.9,-16850.89,-375000,-375000,-151916.9,-147069.7,0.03,0.00,0.88,-4,0,-2,44,0
'[11:48:01.988 21/01/2026]',-130124.2,-184411.5,-140149,-16863.81,-375000,-375000,-151940.3,-147126.9,0.03,0.00,0.88,-4,0,-2,44,0
'[11:48:01.992 21/01/2026]',-130130.4,-184395.2,-140142.8,-16855.36,-375000,-375000,-151929.1,-147134.3,0.03,0.00,0.88,-4,0,-2,44,0
'[11:48:01.996 21/01/2026]',-130137.2,-184391.3,-140148.7,-16854.64,-375000,-375000,-151919.2,-147084.4,0.03,0.00,0.88,-4,0,-2,44,0
'[11:48:02.000 21/01/2026]',-130138.1,-184383.7,-140157.8,-16852.5,-375000,-375000,-151915.1,-147060.2,0.03,0.00,0.88,-4,0,-2,44,0
'[11:48:02.004 21/01/2026]',-130120.9,-184391,-140150.6,-16855.36,-375000,-375000,-151930.7,-147102.7,0.03,0.00,0.88,-4,0,-2,44,0
'[11:48:02.008 21/01/2026]',-130103.1,-184397.5,-140165.6,-16862.16,-375000,-375000,-151938.8,-147155.4,0.03,0.00,0.88,-4,0,-2,44,0
'[11:48:02.012 21/01/2026]',-130134,-184386.4,-140151.4,-16856.21,-375000,-375000,-151926.8,-147115.3,0.03,0.00,0.88,-4,0,-2,44,0
'[11:48:02.016 21/01/2026]',-130151.8,-184379.4,-140130.7,-16844.27,-375000,-375000,-151915.2,-147074.7,0.03,0.00,0.88,-4,0,-2,44,0
'[11:48:02.020 21/01/2026]',-130148.2,-184411.8,-140140.2,-16861.66,-375000,-375000,-151942.3,-147123,0.03,0.00,0.88,-4,0,-2,44,0
'[11:48:02.024 21/01/2026]',-130138.2,-184419.5,-140145.7,-16863.77,-375000,-375000,-151946.8,-147156.9,0.03,0.00,0.88,-4,0,-2,44,0
'[11:48:02.028 21/01/2026]',-130138.4,-184405,-140138.8,-16853.04,-375000,-375000,-151933.6,-147125.2,0.03,0.00,0.88,-4,0,-2,44,0
'[11:48:02.032 21/01/2026]',-130124.6,-184380.4,-140128.1,-16839.67,-375000,-375000,-151913.5,-147082.1,0.03,0.00,0.88,-4,0,-2,44,0
'[11:48:02.036 21/01/2026]',-130112.1,-184395.8,-140147.6,-16857.82,-375000,-375000,-151935.9,-147121.3,0.03,0.00,0.88,-4,0,-2,44,0
'[11:48:02.040 21/01/2026]',-130116.9,-184406.4,-140150.8,-16863.09,-375000,-375000,-151948.5,-147182.1,0.03,0.00,0.88,-4,0,-2,44,0
'[11:48:02.044 21/01/2026]',-130138.2,-184397,-140146,-16860.99,-375000,-375000,-151945.3,-147172.2,0.03,0.00,0.88,-4,0,-2,44,0
'[11:48:02.048 21/01/2026]',-130135.4,-184384.8,-140134.5,-16848.48,-375000,-375000,-151925.4,-147115,0.03,0.00,0.88,-4,0,-2,44,0
'[11:48:02.052 21/01/2026]',-130130.7,-184390.8,-140129.2,-16844.54,-375000,-375000,-151925.2,-147126.2,0.02,0.00,0.89,-4,0,-2,44,0
'[11:48:02.056 21/01/2026]',-130131.2,-184402.3,-140135.2,-16849.28,-375000,-375000,-151936.8,-147177.6,0.02,0.00,0.89,-4,0,-2,44,0
'[11:48:02.060 21/01/2026]',-130121.2,-184401.1,-140136.5,-16847.94,-375000,-375000,-151931.2,-147167.3,0.02,0.00,0.89,-4,0,-2,44,0
'[11:48:02.064 21/01/2026]',-130135.2,-184394.7,-140133,-16842.49,-375000,-375000,-151923.3,-147117.7,0.02,0.00,0.89,-4,0,-2,44,0
'[11:48:02.068 21/01/2026]',-130141.5,-184402.1,-140143.9,-16846.82,-375000,-375000,-151929.1,-147123.3,0.02,0.00,0.89,-4,0,-2,44,0
'[11:48:02.072 21/01/2026]',-130125.5,-184398.8,-140132.1,-16846.78,-375000,-375000,-151934.1,-147168.4,0.02,0.00,0.89,-4,0,-2,44,0
'[11:48:02.076 21/01/2026]',-130123.1,-184379.7,-140120.8,-16835.69,-375000,-375000,-151919.4,-147170,0.02,0.00,0.89,-4,0,-2,44,0
'[11:48:02.080 21/01/2026]',-130124.7,-184373.5,-140133.2,-16839.98,-375000,-375000,-151914.5,-147126.5,0.02,0.00,0.89,-4,0,-2,44,0
'[11:48:02.084 21/01/2026]',-130140.4,-184380,-140140.9,-16848.7,-375000,-375000,-151918.4,-147124.6,0.02,0.00,0.89,-4,0,-2,44,0
'[11:48:02.088 21/01/2026]',-130128.6,-184403.3,-140150,-16860.9,-375000,-375000,-151928.7,-147180.3,0.03,0.00,0.88,-4,0,-2,44,0
'[11:48:02.092 21/01/2026]',-130145.1,-184400.9,-140131.5,-16844.59,-375000,-375000,-151918.4,-147198.3,0.03,0.00,0.88,-4,0,-2,44,0
'[11:48:02.096 21/01/2026]',-130171,-184409.7,-140140.5,-16849.73,-375000,-375000,-151922.4,-147168.4,0.03,0.00,0.88,-4,0,-2,44,0
'[11:48:02.100 21/01/2026]',-130165.5,-184416.1,-140146.3,-16849.46,-375000,-375000,-151910.4,-147139.3,0.03,0.00,0.88,-4,0,-2,44,0
'[11:48:02.104 21/01/2026]',-130138.6,-184408.9,-140139.5,-16850.62,-375000,-375000,-151915.2,-147175.3,0.03,0.00,0.88,-4,0,-2,44,0
'[11:48:02.108 21/01/2026]',-130124.2,-184403.2,-140134.1,-16846.02,-375000,-375000,-151914.3,-147205.3,0.03,0.00,0.88,-4,0,-2,44,0
'[11:48:02.112 21/01/2026]',-130140.3,-184392.3,-140131.3,-16840.88,-375000,-375000,-151906.9,-147162.9,0.03,0.00,0.88,-4,0,-2,44,0
'[11:48:02.116 21/01/2026]',-130138.2,-184388.1,-140130.1,-16835.82,-375000,-375000,-151900,-147127.5,0.03,0.00,0.88,-4,0,-2,44,0
'[11:48:02.120 21/01/2026]',-130142.7,-184401.2,-140150.7,-16854.64,-375000,-375000,-151928.3,-147166.9,0.03,0.00,0.88,-4,0,-2,44,0
'[11:48:02.124 21/01/2026]',-130140.2,-184399,-140150.8,-16854.96,-375000,-375000,-151935.8,-147216.6,0.03,0.00,0.89,-4,0,-2,44,0
'[11:48:02.128 21/01/2026]',-130135.4,-184386.5,-140136.4,-16845.75,-375000,-375000,-151915.7,-147178,0.03,0.00,0.89,-4,0,-2,44,0
'[11:48:02.132 21/01/2026]',-130136.9,-184383.5,-140134.1,-16843.96,-375000,-375000,-151912.5,-147137,0.03,0.00,0.89,-4,0,-2,44,0
'[11:48:02.136 21/01/2026]',-130115.4,-184396.8,-140145,-16851.07,-375000,-375000,-151923.1,-147155.2,0.03,0.00,0.89,-4,0,-2,44,0
'[11:48:02.140 21/01/2026]',-130126.5,-184404.3,-140151.3,-16854.15,-375000,-375000,-151926.1,-147206.7,0.03,0.00,0.89,-4,0,-2,44,0
'[11:48:02.144 21/01/2026]',-130154.4,-184407.8,-140147.6,-16857.33,-375000,-375000,-151925.6,-147197,0.03,0.00,0.89,-4,0,-2,44,0
'[11:48:02.148 21/01/2026]',-130150.4,-184397.7,-140153.6,-16851.56,-375000,-375000,-151915.9,-147142.3,0.03,0.00,0.89,-4,0,-2,44,0
'[11:48:02.152 21/01/2026]',-130136.1,-184405,-140162,-16863.54,-375000,-375000,-151926.2,-147158.4,0.03,0.00,0.89,-4,0,-2,44,0
'[11:48:02.156 21/01/2026]',-130144.5,-184405.3,-140152.4,-16863.99,-375000,-375000,-151931.8,-147209.8,0.03,0.00,0.89,-4,0,-2,44,0
'[11:48:02.160 21/01/2026]',-130152.6,-184397.9,-140145.4,-16857.73,-375000,-375000,-151925.8,-147203,0.03,0.02,0.88,-4,0,-2,44,0
'[11:48:02.164 21/01/2026]',-130159.9,-184399.5,-140142.6,-16854.69,-375000,-375000,-151917.2,-147156.6,0.03,0.02,0.88,-4,0,-2,44,0
'[11:48:02.168 21/01/2026]',-130155.7,-184416.8,-140150.5,-16863.72,-375000,-375000,-151927.8,-147154.9,0.03,0.02,0.88,-4,0,-2,44,0
'[11:48:02.172 21/01/2026]',-130151.2,-184424.6,-140161.8,-16877,-375000,-375000,-151950.2,-147209.3,0.03,0.02,0.88,-4,0,-2,44,0
'[11:48:02.176 21/01/2026]',-130142.2,-184404.7,-140159.1,-16863.59,-375000,-375000,-151932,-147216.5,0.03,0.02,0.88,-4,0,-2,44,0
'[11:48:02.180 21/01/2026]',-130157.9,-184393.1,-140148.3,-16854.38,-375000,-375000,-151916.3,-147165,0.03,0.02,0.88,-4,0,-2,44,0
'[11:48:02.184 21/01/2026]',-130147,-184399.8,-140141.4,-16855.99,-375000,-375000,-151917.3,-147147.2,0.03,0.02,0.88,-4,0,-2,44,0
'[11:48:02.188 21/01/2026]',-130135.3,-184408.6,-140161.9,-16880.3,-375000,-375000,-151945.5,-147201.1,0.03,0.02,0.88,-4,0,-2,44,0
'[11:48:02.192 21/01/2026]',-130123.8,-184396.9,-140150,-16872.62,-375000,-375000,-151942.9,-147214.8,0.03,0.02,0.88,-4,0,-2,44,0
'[11:48:02.196 21/01/2026]',-130146.4,-184399.7,-140137,-16862.42,-375000,-375000,-151932.1,-147172.2,0.02,-0.02,0.88,-4,0,-2,44,0
'[11:48:02.200 21/01/2026]',-130132.6,-184398.5,-140126.5,-16844.41,-375000,-375000,-151902.7,-147128.9,0.02,-0.02,0.88,-4,0,-2,44,0
'[11:48:02.204 21/01/2026]',-130099.8,-184405.4,-140136.5,-16856.12,-375000,-375000,-151925.7,-147185,0.02,-0.02,0.88,-4,0,-2,44,0
'[11:48:02.208 21/01/2026]',-130126,-184407.8,-140140.6,-16856.34,-375000,-375000,-151936.8,-147229.9,0.02,-0.02,0.88,-4,0,-2,44,0
'[11:48:02.212 21/01/2026]',-130134.6,-184392.5,-140137.9,-16840.29,-375000,-375000,-151913.6,-147181.1,0.02,-0.02,0.88,-4,0,-2,44,0
'[11:48:02.216 21/01/2026]',-130117.6,-184371.8,-140120.7,-16824.2,-375000,-375000,-151896.7,-147136.5,0.02,-0.02,0.88,-4,0,-2,44,0
'[11:48:02.220 21/01/2026]',-130114.5,-184381,-140126.7,-16841.1,-375000,-375000,-151918.4,-147160,0.02,-0.02,0.88,-4,0,-2,44,0
'[11:48:02.224 21/01/2026]',-130084.2,-184369.9,-140126.7,-16836.76,-375000,-375000,-151909.6,-147183.9,0.02,-0.02,0.88,-4,0,-2,44,0
'[11:48:02.228 21/01/2026]',-130082.3,-184368.1,-140138.2,-16837.66,-375000,-375000,-151903.1,-147165.2,0.02,-0.02,0.88,-4,0,-2,44,0
'[11:48:02.232 21/01/2026]',-130093.9,-184381.1,-140150.8,-16843.78,-375000,-375000,-151905.8,-147103.1,0.02,0.00,0.88,-4,0,-2,44,0
'[11:48:02.236 21/01/2026]',-130075.3,-184392.1,-140145.8,-16850.26,-375000,-375000,-151918.4,-147120.4,0.02,0.00,0.88,-4,0,-2,44,0
'[11:48:02.240 21/01/2026]',-130108.2,-184404.2,-140142.9,-16857.01,-375000,-375000,-151938.4,-147203.5,0.02,0.00,0.88,-4,0,-2,44,0
'[11:48:02.244 21/01/2026]',-130123.7,-184394.8,-140134.8,-16848.03,-375000,-375000,-151931.7,-147182.1,0.02,0.00,0.88,-4,0,-2,44,0
'[11:48:02.248 21/01/2026]',-130117.4,-184383.4,-140135.2,-16843.78,-375000,-375000,-151919.3,-147124.7,0.02,0.00,0.88,-4,0,-2,44,0
'[11:48:02.252 21/01/2026]',-130096.4,-184388.2,-140146.4,-16853.84,-375000,-375000,-151929.8,-147150,0.02,0.00,0.88,-4,0,-2,44,0
'[11:48:02.256 21/01/2026]',-130077.6,-184392.5,-140153.7,-16856.25,-375000,-375000,-151934.3,-147210.9,0.02,0.00,0.88,-4,0,-2,44,0
'[11:48:02.260 21/01/2026]',-130060.2,-184385.3,-140147.5,-16851.38,-375000,-375000,-151927.2,-147195.2,0.02,0.00,0.88,-4,0,-2,44,0
'[11:48:02.264 21/01/2026]',-130069.8,-184366.7,-140154.3,-16849.5,-375000,-375000,-151920.5,-147131,0.02,0.00,0.88,-4,0,-2,44,0
'[11:48:02.268 21/01/2026]',-130076.2,-184370.7,-140136.3,-16841.01,-375000,-375000,-151912.1,-147124.2,0.03,0.00,0.88,-4,0,-2,44,0
'[11:48:02.272 21/01/2026]',-130062.4,-184392.5,-140133,-16841.55,-375000,-375000,-151926.9,-147171.6,0.03,0.00,0.88,-4,0,-2,44,0
'[11:48:02.276 21/01/2026]',-130049.3,-184398.3,-140134,-16838.96,-375000,-375000,-151930.1,-147184,0.03,0.00,0.88,-4,0,-2,44,0
'[11:48:02.280 21/01/2026]',-130062.8,-184388.7,-140132.9,-16832.74,-375000,-375000,-151917.2,-147142.6,0.03,0.00,0.88,-4,0,-2,44,0
'[11:48:02.284 21/01/2026]',-130058.4,-184375.4,-140127,-16825.05,-375000,-375000,-151905.3,-147112,0.03,0.00,0.88,-4,0,-2,44,0
'[11:48:02.288 21/01/2026]',-130044.1,-184380.6,-140134.5,-16830.91,-375000,-375000,-151916.7,-147165.8,0.03,0.00,0.88,-4,0,-2,44,0
'[11:48:02.292 21/01/2026]',-130026.8,-184381.2,-140137.6,-16830.19,-375000,-375000,-151913.3,-147185.2,0.03,0.00,0.88,-4,0,-2,44,0
'[11:48:02.296 21/01/2026]',-130025.8,-184378.6,-140134.9,-16834.39,-375000,-375000,-151909.4,-147143.2,0.03,0.00,0.88,-4,0,-2,44,0
'[11:48:02.300 21/01/2026]',-130031.3,-184372.5,-140129.8,-16830.28,-375000,-375000,-151907.3,-147109.4,0.03,0.00,0.88,-4,0,-2,44,0
'[11:48:02.304 21/01/2026]',-130030.3,-184380.9,-140143.1,-16846.24,-375000,-375000,-151930.2,-147180.5,0.03,-0.02,0.88,-4,0,-2,44,0
'[11:48:02.308 21/01/2026]',-130027.3,-184389.6,-140127,-16843.42,-375000,-375000,-151928.6,-147203.6,0.03,-0.02,0.88,-4,0,-2,44,0
'[11:48:02.312 21/01/2026]',-130037.8,-184388.6,-140129.6,-16837.79,-375000,-375000,-151923.3,-147154.8,0.03,-0.02,0.88,-4,0,-2,44,0
'[11:48:02.316 21/01/2026]',-130037.8,-184382.7,-140133.4,-16834.48,-375000,-375000,-151917.6,-147110.2,0.03,-0.02,0.88,-4,0,-2,44,0
'[11:48:02.320 21/01/2026]',-130016.3,-184386.4,-140141.8,-16845.75,-375000,-375000,-151927.5,-147138.9,0.03,-0.02,0.88,-4,0,-2,44,0
'[11:48:02.324 21/01/2026]',-130017.9,-184389,-140142.6,-16849.46,-375000,-375000,-151934.7,-147195.3,0.03,-0.02,0.88,-4,0,-2,44,0
'[11:48:02.328 21/01/2026]',-130028.2,-184389.9,-140139,-16840.21,-375000,-375000,-151933.1,-147175.7,0.03,-0.02,0.88,-4,0,-2,44,0
'[11:48:02.332 21/01/2026]',-130025.9,-184382.1,-140132.1,-16826.35,-375000,-375000,-151917.9,-147129.3,0.03,-0.02,0.88,-4,0,-2,44,0
'[11:48:02.336 21/01/2026]',-130024.6,-184386.5,-140137.9,-16837.17,-375000,-375000,-151930.2,-147150.4,0.03,-0.02,0.88,-4,0,-2,44,0
'[11:48:02.340 21/01/2026]',-130017.3,-184387.5,-140136.4,-16841.14,-375000,-375000,-151933.8,-147201.8,0.02,0.00,0.88,-4,0,-2,44,0
'[11:48:02.344 21/01/2026]',-129989.6,-184379.7,-140141.7,-16834.53,-375000,-375000,-151922.4,-147178,0.02,0.00,0.88,-4,0,-2,44,0
'[11:48:02.348 21/01/2026]',-129982.8,-184371.1,-140138.5,-16834.26,-375000,-375000,-151914.7,-147129.8,0.02,0.00,0.88,-4,0,-2,44,0
'[11:48:02.352 21/01/2026]',-130000.2,-184383.6,-140121,-16834.3,-375000,-375000,-151924.4,-147134.7,0.02,0.00,0.88,-4,0,-2,44,0
'[11:48:02.356 21/01/2026]',-130004.2,-184395.1,-140117.1,-16836.36,-375000,-375000,-151933.7,-147197.5,0.02,0.00,0.88,-4,0,-2,44,0
'[11:48:02.360 21/01/2026]',-130028.3,-184391.2,-140113.7,-16833.95,-375000,-375000,-151927.1,-147192.3,0.02,0.00,0.88,-4,0,-2,44,0
'[11:48:02.364 21/01/2026]',-130031,-184378.4,-140117.7,-16827.91,-375000,-375000,-151915.9,-147133.3,0.02,0.00,0.88,-4,0,-2,44,0
'[11:48:02.368 21/01/2026]',-130024.8,-184373.3,-140123.8,-16826.57,-375000,-375000,-151913.8,-147117.4,0.02,0.00,0.88,-4,0,-2,44,0
'[11:48:02.372 21/01/2026]',-130006,-184381.3,-140130.1,-16836.5,-375000,-375000,-151925.6,-147181.6,0.02,0.00,0.88,-4,0,-2,44,0
'[11:48:02.376 21/01/2026]',-129990.1,-184379,-140127,-16837.39,-375000,-375000,-151924.4,-147198.3,0.03,0.00,0.88,-4,0,-2,44,0
'[11:48:02.380 21/01/2026]',-129996.4,-184376.7,-140124.5,-16829.03,-375000,-375000,-151915.1,-147143.7,0.03,0.00,0.88,-4,0,-2,44,0
'[11:48:02.384 21/01/2026]',-129993.7,-184377.8,-140124.2,-16823.13,-375000,-375000,-151910.9,-147118.6,0.03,0.00,0.88,-4,0,-2,44,0
'[11:48:02.388 21/01/2026]',-129986.7,-184388.8,-140137.1,-16838.11,-375000,-375000,-151934.6,-147174.2,0.03,0.00,0.88,-4,0,-2,44,0
'[11:48:02.392 21/01/2026]',-129976.9,-184375.1,-140129.6,-16831.27,-375000,-375000,-151924,-147189.8,0.03,0.00,0.88,-4,0,-2,44,0
'[11:48:02.396 21/01/2026]',-129994.7,-184368.8,-140132.9,-16830.06,-375000,-375000,-151916.4,-147147.7,0.03,0.00,0.88,-4,0,-2,44,0
'[11:48:02.400 21/01/2026]',-129998.5,-184366.9,-140129.6,-16828.36,-375000,-375000,-151914.1,-147116.5,0.03,0.00,0.88,-4,0,-2,44,0
'[11:48:02.404 21/01/2026]',-130007,-184373.7,-140124.4,-16835.87,-375000,-375000,-151923.5,-147148.3,0.03,0.00,0.88,-4,0,-2,44,0
'[11:48:02.408 21/01/2026]',-130012.1,-184372.7,-140113.3,-16821.88,-375000,-375000,-151919.6,-147191.5,0.03,0.00,0.88,-4,0,-2,44,0
'[11:48:02.412 21/01/2026]',-130010.3,-184374.6,-140113.4,-16817.5,-375000,-375000,-151910.8,-147150.6,0.03,0.00,0.88,-4,0,-2,44,0
'[11:48:02.416 21/01/2026]',-130008.6,-184370,-140117.7,-16816.33,-375000,-375000,-151907,-147106,0.03,0.00,0.88,-4,0,-2,44,0
'[11:48:02.420 21/01/2026]',-130006.5,-184382.7,-140128.4,-16831.53,-375000,-375000,-151927.4,-147141.8,0.03,0.00,0.88,-4,0,-2,44,0
'[11:48:02.424 21/01/2026]',-130000.1,-184376.7,-140123.8,-16827.78,-375000,-375000,-151920.6,-147181.3,0.03,0.00,0.88,-4,0,-2,44,0
'[11:48:02.428 21/01/2026]',-129992.3,-184373.8,-140126.8,-16825.77,-375000,-375000,-151912.2,-147155,0.03,0.00,0.88,-4,0,-2,44,0
'[11:48:02.432 21/01/2026]',-130007.8,-184372.2,-140124.7,-16821.03,-375000,-375000,-151903.1,-147110.1,0.03,0.00,0.88,-4,0,-2,44,0
'[11:48:02.436 21/01/2026]',-130013.2,-184378.8,-140131.5,-16833.99,-375000,-375000,-151914.3,-147135.5,0.03,0.00,0.88,-4,0,-2,44,0
'[11:48:02.440 21/01/2026]',-130017,-184379,-140133.5,-16841.55,-375000,-375000,-151919.3,-147195.9,0.03,0.00,0.88,-4,0,-2,44,0
'[11:48:02.444 21/01/2026]',-130007.1,-184366.7,-140120.8,-16826.97,-375000,-375000,-151904.5,-147158.9,0.03,0.00,0.88,-4,0,-2,44,0
'[11:48:02.448 21/01/2026]',-130020.1,-184361.7,-140112.9,-16817.09,-375000,-375000,-151895.2,-147113,0.03,0.00,0.88,-4,0,-2,44,0
'[11:48:02.452 21/01/2026]',-130018.8,-184374.8,-140121.5,-16829.12,-375000,-375000,-151916,-147125.7,0.03,0.00,0.88,-4,0,-2,44,0
'[11:48:02.456 21/01/2026]',-130001.2,-184383.3,-140129.9,-16836.32,-375000,-375000,-151928.6,-147189,0.03,0.00,0.88,-4,0,-2,44,0
'[11:48:02.460 21/01/2026]',-129996.1,-184375,-140128,-16831.04,-375000,-375000,-151918.5,-147189.3,0.03,0.00,0.88,-4,0,-2,44,0
'[11:48:02.464 21/01/2026]',-130004.6,-184352.5,-140118.1,-16817.77,-375000,-375000,-151897.8,-147132,0.03,0.00,0.88,-4,0,-2,44,0
'[11:48:02.468 21/01/2026]',-130004.6,-184352.7,-140112.2,-16812.8,-375000,-375000,-151897.2,-147108.5,0.03,0.00,0.88,-4,0,-2,44,0
'[11:48:02.472 21/01/2026]',-129999.4,-184370.1,-140124.3,-16829.57,-375000,-375000,-151919.2,-147166.8,0.03,0.00,0.88,-4,0,-2,44,0
'[11:48:02.476 21/01/2026]',-129998.2,-184358.3,-140120.8,-16825.9,-375000,-375000,-151913.4,-147169.9,0.03,0.00,0.88,-4,0,-2,44,0
'[11:48:02.480 21/01/2026]',-130020.7,-184357.9,-140117.9,-16824.69,-375000,-375000,-151911.1,-147119.7,0.03,0.00,0.88,-4,0,-2,44,0
'[11:48:02.484 21/01/2026]',-130024.8,-184363.8,-140113.2,-16821.52,-375000,-375000,-151915.5,-147114.4,0.03,0.00,0.88,-4,0,-2,44,0
'[11:48:02.488 21/01/2026]',-130029,-184374.9,-140112.4,-16826.93,-375000,-375000,-151928.6,-147176.5,0.03,0.00,0.88,-4,0,-2,44,0
'[11:48:02.492 21/01/2026]',-130021.6,-184370.8,-140114.4,-16820.67,-375000,-375000,-151919.8,-147190.6,0.03,0.00,0.88,-4,0,-2,44,0
'[11:48:02.496 21/01/2026]',-130023,-184370.2,-140119.8,-16817.27,-375000,-375000,-151907.4,-147136.4,0.03,0.00,0.88,-4,0,-2,44,0
'[11:48:02.500 21/01/2026]',-130024.8,-184360.8,-140108.7,-16807.93,-375000,-375000,-151894.4,-147096,0.03,0.00,0.88,-4,0,-2,44,0
'[11:48:02.504 21/01/2026]',-130012.9,-184370.6,-140124.5,-16825.54,-375000,-375000,-151909.6,-147140,0.03,0.00,0.88,-4,0,-2,44,0
'[11:48:02.508 21/01/2026]',-130004.7,-184363.2,-140121.8,-16819.82,-375000,-375000,-151902,-147172.3,0.03,0.00,0.88,-4,0,-2,44,0
'[11:48:02.512 21/01/2026]',-130003,-184353.3,-140112.8,-16808.47,-375000,-375000,-151887.1,-147119.7,0.03,0.00,0.88,-4,0,-2,44,0
'[11:48:02.516 21/01/2026]',-130026.4,-184354.3,-140108.9,-16808.11,-375000,-375000,-151891.8,-147074.6,0.03,0.00,0.88,-4,0,-2,44,0
'[11:48:02.520 21/01/2026]',-130027.3,-184368,-140118,-16824.25,-375000,-375000,-151916,-147119.4,0.02,0.00,0.89,-4,0,-2,44,0
'[11:48:02.524 21/01/2026]',-130016.2,-184377.1,-140125,-16827.91,-375000,-375000,-151918.3,-147175.5,0.02,0.00,0.89,-4,0,-2,44,0
'[11:48:02.528 21/01/2026]',-130013.9,-184371.1,-140133.3,-16828.63,-375000,-375000,-151915,-147150.1,0.02,0.00,0.89,-4,0,-2,44,0
'[11:48:02.532 21/01/2026]',-130022,-184353.2,-140128.2,-16818.26,-375000,-375000,-151903.5,-147085,0.02,0.00,0.89,-4,0,-2,44,0
'[11:48:02.536 21/01/2026]',-130021.2,-184355.1,-140131.5,-16824.78,-375000,-375000,-151909,-147106.6,0.02,0.00,0.89,-4,0,-2,44,0
'[11:48:02.540 21/01/2026]',-130018.9,-184365.7,-140132.2,-16829.12,-375000,-375000,-151917.3,-147165.8,0.02,0.00,0.89,-4,0,-2,44,0
'[11:48:02.544 21/01/2026]',-130037.8,-184366.2,-140120.9,-16823.26,-375000,-375000,-151914.9,-147149.6,0.02,0.00,0.89,-4,0,-2,44,0
'[11:48:02.548 21/01/2026]',-130049.5,-184355.6,-140116.3,-16817.85,-375000,-375000,-151910.9,-147099.3,0.02,0.00,0.89,-4,0,-2,44,0
'[11:48:02.552 21/01/2026]',-130038.2,-184370.3,-140121.7,-16822.23,-375000,-375000,-151917.4,-147100,0.02,0.00,0.89,-4,0,-2,44,0
'[11:48:02.556 21/01/2026]',-130037.2,-184382.5,-140130.3,-16830.51,-375000,-375000,-151930.6,-147171.8,0.03,0.00,0.88,-4,0,-2,44,0
'[11:48:02.560 21/01/2026]',-130040.5,-184363.8,-140117.8,-16818.08,-375000,-375000,-151913.4,-147162,0.03,0.00,0.88,-4,0,-2,44,0
'[11:48:02.564 21/01/2026]',-130044.8,-184355.4,-140118.5,-16813.7,-375000,-375000,-151906.7,-147111.2,0.03,0.00,0.88,-4,0,-2,44,0
'[11:48:02.568 21/01/2026]',-130046.8,-184358.3,-140132.1,-16819.38,-375000,-375000,-151911.9,-147102.9,0.03,0.00,0.88,-4,0,-2,44,0
'[11:48:02.572 21/01/2026]',-130026.7,-184358.9,-140123.6,-16819.69,-375000,-375000,-151909.8,-147146.9,0.03,0.00,0.88,-4,0,-2,44,0
'[11:48:02.576 21/01/2026]',-130006.7,-184347.8,-140115,-16810.7,-375000,-375000,-151897.1,-147149.8,0.03,0.00,0.88,-4,0,-2,44,0
'[11:48:02.580 21/01/2026]',-130024.3,-184345.5,-140118.2,-16807.48,-375000,-375000,-151893.1,-147104.8,0.03,0.00,0.88,-4,0,-2,44,0
'[11:48:02.584 21/01/2026]',-130037.8,-184339.8,-140120,-16809.49,-375000,-375000,-151898.3,-147074.1,0.03,0.00,0.88,-4,0,-2,44,0
'[11:48:02.588 21/01/2026]',-130034.5,-184355.3,-140131.5,-16830.6,-375000,-375000,-151922.7,-147145.2,0.03,0.00,0.88,-4,0,-2,44,0
'[11:48:02.592 21/01/2026]',-130041.3,-184370.1,-140111.4,-16823.8,-375000,-375000,-151912,-147176.4,0.03,0.00,0.88,-4,0,-2,44,0
'[11:48:02.596 21/01/2026]',-130049.8,-184363.4,-140096.3,-16810.57,-375000,-375000,-151895.4,-147124.8,0.03,0.00,0.88,-4,0,-2,44,0
'[11:48:02.600 21/01/2026]',-130044.8,-184352.6,-140102.8,-16809.94,-375000,-375000,-151891.8,-147089.1,0.03,0.00,0.88,-4,0,-2,44,0
'[11:48:02.604 21/01/2026]',-130029.2,-184366.8,-140119.3,-16820.04,-375000,-375000,-151909.1,-147141.6,0.03,0.00,0.88,-4,0,-2,44,0
'[11:48:02.608 21/01/2026]',-130017.1,-184360.1,-140112.2,-16812.89,-375000,-375000,-151908.2,-147173.4,0.03,0.00,0.88,-4,0,-2,44,0
'[11:48:02.612 21/01/2026]',-130028.7,-184350.6,-140105.6,-16807.57,-375000,-375000,-151905,-147138.7,0.03,0.00,0.88,-4,0,-2,44,0
'[11:48:02.616 21/01/2026]',-130055.4,-184345.2,-140107.9,-16807.71,-375000,-375000,-151903.4,-147100.8,0.03,0.00,0.88,-4,0,-2,44,0
'[11:48:02.620 21/01/2026]',-130044.3,-184361.5,-140118.3,-16820.09,-375000,-375000,-151916.7,-147139.3,0.03,0.00,0.88,-4,0,-2,44,0
'[11:48:02.624 21/01/2026]',-130023.5,-184371.1,-140122.2,-16823.08,-375000,-375000,-151919,-147186.9,0.03,0.00,0.88,-4,0,-2,44,0
'[11:48:02.628 21/01/2026]',-130040.1,-184368.4,-140121.1,-16821.25,-375000,-375000,-151915.2,-147151.2,0.03,0.00,0.88,-4,0,-2,44,0
'[11:48:02.632 21/01/2026]',-130058.6,-184363.3,-140117.4,-16821.65,-375000,-375000,-151908.3,-147101,0.03,0.00,0.88,-4,0,-2,44,0
'[11:48:02.636 21/01/2026]',-130070.4,-184368.7,-140124.9,-16831.4,-375000,-375000,-151915.6,-147121.6,0.03,0.00,0.88,-4,0,-2,44,0
'[11:48:02.640 21/01/2026]',-130049,-184363.8,-140126,-16828.49,-375000,-375000,-151919.1,-147164.8,0.03,0.00,0.88,-4,0,-2,44,0
'[11:48:02.644 21/01/2026]',-130024.1,-184356.2,-140121.3,-16817.05,-375000,-375000,-151908.2,-147153.9,0.03,0.00,0.88,-4,0,-2,44,0
'[11:48:02.648 21/01/2026]',-130036.7,-184353.8,-140110.9,-16811.73,-375000,-375000,-151897.2,-147090.7,0.03,0.00,0.88,-4,0,-2,44,0
'[11:48:02.652 21/01/2026]',-130045,-184356.1,-140117.4,-16822.5,-375000,-375000,-151906.3,-147075.4,0.03,0.00,0.88,-4,0,-2,44,0
'[11:48:02.656 21/01/2026]',-130045,-184365.4,-140125.8,-16835.74,-375000,-375000,-151918.5,-147133.7,0.03,0.00,0.88,-4,0,-2,44,0
'[11:48:02.660 21/01/2026]',-130045.3,-184365.3,-140133.2,-16835.38,-375000,-375000,-151916.5,-147141.7,0.03,0.00,0.88,-4,0,-2,44,0
'[11:48:02.664 21/01/2026]',-130052.1,-184358.8,-140139.8,-16831.89,-375000,-375000,-151905.6,-147081,0.03,0.00,0.89,-4,0,-2,44,0
'[11:48:02.668 21/01/2026]',-130056.8,-184349.6,-140134.9,-16830.42,-375000,-375000,-151901,-147062,0.03,0.00,0.89,-4,0,-2,44,0
'[11:48:02.672 21/01/2026]',-130039.4,-184363.3,-140130.9,-16840.47,-375000,-375000,-151914.9,-147128.8,0.03,0.00,0.89,-4,0,-2,44,0
'[11:48:02.676 21/01/2026]',-130050.4,-184360.1,-140122.3,-16834.08,-375000,-375000,-151911.6,-147142.7,0.03,0.00,0.89,-4,0,-2,44,0
'[11:48:02.680 21/01/2026]',-130067.1,-184359.4,-140125,-16834.26,-375000,-375000,-151906.7,-147085.1,0.03,0.00,0.89,-4,0,-2,44,0
'[11:48:02.684 21/01/2026]',-130057.4,-184335.1,-140114.8,-16821.79,-375000,-375000,-151892.5,-147046.3,0.03,0.00,0.89,-4,0,-2,44,0
'[11:48:02.688 21/01/2026]',-130038.8,-184335.1,-140111.3,-16824.74,-375000,-375000,-151912.2,-147102.5,0.03,0.00,0.89,-4,0,-2,44,0
'[11:48:02.692 21/01/2026]',-130030.7,-184344.4,-140118.7,-16829.34,-375000,-375000,-151927.8,-147149,0.03,0.00,0.89,-4,0,-2,44,0
'[11:48:02.696 21/01/2026]',-130036,-184344.1,-140122.4,-16820.98,-375000,-375000,-151907.2,-147101.6,0.03,0.00,0.89,-4,0,-2,44,0
'[11:48:02.700 21/01/2026]',-130049.3,-184337.1,-140115.8,-16811.24,-375000,-375000,-151897.2,-147066,0.02,0.00,0.86,-4,0,-2,44,0
'[11:48:02.704 21/01/2026]',-130014.9,-184335.4,-140111.8,-16812.62,-375000,-375000,-151907.6,-147093.2,0.02,0.00,0.86,-4,0,-2,44,0
'[11:48:02.708 21/01/2026]',-130015.9,-184335,-140109,-16812.58,-375000,-375000,-151914.7,-147138.4,0.02,0.00,0.86,-4,0,-2,44,0
'[11:48:02.712 21/01/2026]',-130025.1,-184327.2,-140110.3,-16812.49,-375000,-375000,-151908,-147106.5,0.02,0.00,0.86,-4,0,-2,44,0
'[11:48:02.716 21/01/2026]',-130042.6,-184321.8,-140106,-16807.48,-375000,-375000,-151892.9,-147057.2,0.02,0.00,0.86,-4,0,-2,44,0
'[11:48:02.720 21/01/2026]',-130028.5,-184322.3,-140110.3,-16810.34,-375000,-375000,-151901.7,-147081,0.02,0.00,0.86,-4,0,-2,44,0
'[11:48:02.724 21/01/2026]',-130025.4,-184330.5,-140122,-16814.28,-375000,-375000,-151911.7,-147140.7,0.02,0.00,0.86,-4,0,-2,44,0
'[11:48:02.728 21/01/2026]',-130046.7,-184334,-140118.7,-16809.81,-375000,-375000,-151909.1,-147145.1,0.02,0.00,0.86,-4,0,-2,44,0
'[11:48:02.732 21/01/2026]',-130079.3,-184339.4,-140112.6,-16806.63,-375000,-375000,-151910.9,-147148.7,0.02,0.00,0.86,-4,0,-2,44,0
'[11:48:02.736 21/01/2026]',-130046.5,-184332.1,-140105.3,-16806.23,-375000,-375000,-151909.5,-147119,0.03,0.02,0.88,-4,0,-2,44,0
'[11:48:02.740 21/01/2026]',-130008.4,-184330,-140109.8,-16807.88,-375000,-375000,-151910.6,-147145.5,0.03,0.02,0.88,-4,0,-2,44,0
'[11:48:02.744 21/01/2026]',-130038.3,-184334,-140106.8,-16808.15,-375000,-375000,-151908,-147142,0.03,0.02,0.88,-4,0,-2,44,0
'[11:48:02.748 21/01/2026]',-130061.2,-184324.3,-140098.5,-16805.92,-375000,-375000,-151901.2,-147082.2,0.03,0.02,0.88,-4,0,-2,44,0
'[11:48:02.752 21/01/2026]',-130040.1,-184329.2,-140103,-16809.18,-375000,-375000,-151904.5,-147075.7,0.03,0.02,0.88,-4,0,-2,44,0
'[11:48:02.756 21/01/2026]',-130034.5,-184346,-140109.3,-16820.45,-375000,-375000,-151922.6,-147138.4,0.03,0.02,0.88,-4,0,-2,44,0
'[11:48:02.760 21/01/2026]',-130041.9,-184335,-140099,-16811.46,-375000,-375000,-151912.1,-147137.4,0.03,0.02,0.88,-4,0,-2,44,0
'[11:48:02.764 21/01/2026]',-130033.5,-184316.8,-140098.1,-16798.72,-375000,-375000,-151892.1,-147076.1,0.03,0.02,0.88,-4,0,-2,44,0
'[11:48:02.768 21/01/2026]',-130034.8,-184306.3,-140111.5,-16802.92,-375000,-375000,-151894.6,-147050.7,0.03,0.02,0.88,-4,0,-2,44,0
'[11:48:02.772 21/01/2026]',-130014.6,-184323,-140119.5,-16813.83,-375000,-375000,-151908.3,-147119.3,0.03,0.00,0.88,-4,0,-2,44,0
'[11:48:02.776 21/01/2026]',-130023.9,-184336.2,-140108,-16809.9,-375000,-375000,-151905.6,-147132.5,0.03,0.00,0.88,-4,0,-2,44,0
'[11:48:02.780 21/01/2026]',-130056.9,-184332.6,-140104.4,-16809.45,-375000,-375000,-151903.2,-147079.8,0.03,0.00,0.88,-4,0,-2,44,0
'[11:48:02.784 21/01/2026]',-130064.7,-184318.3,-140096,-16801.72,-375000,-375000,-151890.9,-147053.6,0.03,0.00,0.88,-4,0,-2,44,0
'[11:48:02.788 21/01/2026]',-130051.5,-184325,-140103.8,-16814.72,-375000,-375000,-151905.6,-147103,0.03,0.00,0.88,-4,0,-2,44,0
'[11:48:02.792 21/01/2026]',-130035.4,-184331.1,-140115.8,-16816.74,-375000,-375000,-151902.8,-147126.2,0.03,0.00,0.88,-4,0,-2,44,0
'[11:48:02.796 21/01/2026]',-130032.4,-184323.4,-140116.5,-16812.62,-375000,-375000,-151897.5,-147085.8,0.03,0.00,0.88,-4,0,-2,44,0
'[11:48:02.800 21/01/2026]',-130035.2,-184309.4,-140105.6,-16808.82,-375000,-375000,-151895.8,-147068.9,0.03,0.00,0.88,-4,0,-2,44,0
'[11:48:02.804 21/01/2026]',-130021.6,-184311.6,-140102.2,-16809.23,-375000,-375000,-151900,-147100.6,0.03,0.00,0.88,-4,0,-2,44,0
'[11:48:02.808 21/01/2026]',-130012.4,-184316.3,-140092.9,-16799.84,-375000,-375000,-151896.3,-147136.6,0.03,0.00,0.88,-4,0,-2,44,0
'[11:48:02.812 21/01/2026]',-130018.4,-184313.6,-140102.1,-16802.34,-375000,-375000,-151892.7,-147096.9,0.03,0.00,0.88,-4,0,-2,44,0
'[11:48:02.816 21/01/2026]',-130045.4,-184310.4,-140106,-16799.97,-375000,-375000,-151886.7,-147059.6,0.03,0.00,0.88,-4,0,-2,44,0
'[11:48:02.820 21/01/2026]',-130044.1,-184318.9,-140116.8,-16813.03,-375000,-375000,-151905.4,-147096,0.03,0.00,0.88,-4,0,-2,44,0
'[11:48:02.824 21/01/2026]',-130057.6,-184325.8,-140109.3,-16822.1,-375000,-375000,-151914.6,-147150.1,0.03,0.00,0.88,-4,0,-2,44,0
'[11:48:02.828 21/01/2026]',-130050,-184322.3,-140097.7,-16815.04,-375000,-375000,-151903.6,-147119.1,0.03,0.00,0.88,-4,0,-2,44,0
'[11:48:02.832 21/01/2026]',-130048,-184319,-140097.2,-16806.72,-375000,-375000,-151895.7,-147071.1,0.03,0.00,0.88,-4,0,-2,44,0
'[11:48:02.836 21/01/2026]',-130063.6,-184336.9,-140110.2,-16817.09,-375000,-375000,-151918,-147147.8,0.03,0.00,0.88,-4,0,-2,44,0
'[11:48:02.840 21/01/2026]',-130072.9,-184352.4,-140117.1,-16820,-375000,-375000,-151930,-147229.9,0.03,0.00,0.88,-4,0,-2,44,0
'[11:48:02.844 21/01/2026]',-130076.6,-184350.1,-140119.2,-16823.08,-375000,-375000,-151932.2,-147187.3,0.02,0.00,0.88,-4,0,-2,44,0
'[11:48:02.848 21/01/2026]',-130086.7,-184332.4,-140118.5,-16814.59,-375000,-375000,-151918,-147124.4,0.02,0.00,0.88,-4,0,-2,44,0
'[11:48:02.852 21/01/2026]',-130052.8,-184313.4,-140112,-16805.38,-375000,-375000,-151905.2,-147100.5,0.02,0.00,0.88,-4,0,-2,44,0
'[11:48:02.856 21/01/2026]',-130039.2,-184332.4,-140120.2,-16820.36,-375000,-375000,-151921,-147162.3,0.02,0.00,0.88,-4,0,-2,44,0
'[11:48:02.860 21/01/2026]',-130060,-184340.1,-140114.8,-16815.57,-375000,-375000,-151917.4,-147170,0.02,0.00,0.88,-4,0,-2,44,0
'[11:48:02.864 21/01/2026]',-130062.3,-184328.5,-140108.2,-16811.95,-375000,-375000,-151910.4,-147108,0.02,0.00,0.88,-4,0,-2,44,0
'[11:48:02.868 21/01/2026]',-130071.3,-184341.8,-140107.9,-16813.61,-375000,-375000,-151914.3,-147098.6,0.02,0.00,0.88,-4,0,-2,44,0
'[11:48:02.872 21/01/2026]',-130069.3,-184359.6,-140108.4,-16820.67,-375000,-375000,-151936.3,-147162.5,0.02,0.00,0.88,-4,0,-2,44,0
'[11:48:02.876 21/01/2026]',-130073.3,-184362.4,-140110.8,-16820.22,-375000,-375000,-151935.3,-147198.6,0.02,0.00,0.88,-4,0,-2,44,0
'[11:48:02.880 21/01/2026]',-130083.4,-184349,-140114.9,-16816.02,-375000,-375000,-151917.1,-147141.1,0.05,0.00,0.86,-4,0,-2,44,0
'[11:48:02.884 21/01/2026]',-130071.2,-184336.6,-140115.7,-16810.61,-375000,-375000,-151909,-147094.6,0.05,0.00,0.86,-4,0,-2,44,0
'[11:48:02.888 21/01/2026]',-130059.3,-184335,-140120.3,-16819.69,-375000,-375000,-151925.6,-147148.4,0.05,0.00,0.86,-4,0,-2,44,0
'[11:48:02.892 21/01/2026]',-130050.5,-184342.6,-140123.3,-16821.88,-375000,-375000,-151929.5,-147176,0.05,0.00,0.86,-4,0,-2,44,0
'[11:48:02.896 21/01/2026]',-130060.6,-184332.9,-140111.5,-16814.63,-375000,-375000,-151914.2,-147120.4,0.05,0.00,0.86,-4,0,-2,44,0
'[11:48:02.900 21/01/2026]',-130058,-184312,-140107.6,-16808.15,-375000,-375000,-151896.4,-147082.6,0.05,0.00,0.86,-4,0,-2,44,0
'[11:48:02.904 21/01/2026]',-130067.3,-184337.6,-140114.7,-16819.87,-375000,-375000,-151914.5,-147128.7,0.05,0.00,0.86,-4,0,-2,44,0
'[11:48:02.908 21/01/2026]',-130069.8,-184355.3,-140107.7,-16820,-375000,-375000,-151924.8,-147175.2,0.05,0.00,0.86,-4,0,-2,44,0
'[11:48:02.912 21/01/2026]',-130068.4,-184343.9,-140112.4,-16815.17,-375000,-375000,-151916.7,-147153,0.05,0.00,0.86,-4,0,-2,44,0
'[11:48:02.916 21/01/2026]',-130079.8,-184336.3,-140113.5,-16811.46,-375000,-375000,-151909,-147102.5,0.03,0.00,0.88,-4,0,-2,44,0
'[11:48:02.920 21/01/2026]',-130073,-184339.6,-140115.6,-16816.29,-375000,-375000,-151917.5,-147126.1,0.03,0.00,0.88,-4,0,-2,44,0
'[11:48:02.924 21/01/2026]',-130073.2,-184344.4,-140118,-16817.72,-375000,-375000,-151922.6,-147177.1,0.03,0.00,0.88,-4,0,-2,44,0
'[11:48:02.928 21/01/2026]',-130070.8,-184342.7,-140125,-16817.54,-375000,-375000,-151917.9,-147154.1,0.03,0.00,0.88,-4,0,-2,44,0
'[11:48:02.932 21/01/2026]',-130071.4,-184329.3,-140120.3,-16809.63,-375000,-375000,-151906,-147104.5,0.03,0.00,0.88,-4,0,-2,44,0
'[11:48:02.936 21/01/2026]',-130075.4,-184325.9,-140110.2,-16811.95,-375000,-375000,-151908.4,-147111.6,0.03,0.00,0.88,-4,0,-2,44,0
'[11:48:02.940 21/01/2026]',-130081.6,-184334,-140119.2,-16823.35,-375000,-375000,-151918.5,-147170.5,0.03,0.00,0.88,-4,0,-2,44,0
'[11:48:02.944 21/01/2026]',-130063.3,-184326.7,-140120.7,-16819.73,-375000,-375000,-151907.2,-147146.9,0.03,0.00,0.88,-4,0,-2,44,0
'[11:48:02.948 21/01/2026]',-130069.4,-184328,-140120.9,-16814.63,-375000,-375000,-151898.7,-147107.7,0.03,0.00,0.88,-4,0,-2,44,0
'[11:48:02.952 21/01/2026]',-130081.2,-184333.3,-140116.2,-16817.85,-375000,-375000,-151909.5,-147103,0.03,0.00,0.89,-4,0,-2,44,0
'[11:48:02.956 21/01/2026]',-130061,-184336.1,-140108.5,-16821.97,-375000,-375000,-151916.7,-147145.2,0.03,0.00,0.89,-4,0,-2,44,0
'[11:48:02.960 21/01/2026]',-130058.4,-184337.3,-140111.1,-16816.16,-375000,-375000,-151916.3,-147143.1,0.03,0.00,0.89,-4,0,-2,44,0
'[11:48:02.964 21/01/2026]',-130077.4,-184328.5,-140108.5,-16809.27,-375000,-375000,-151911.1,-147082.9,0.03,0.00,0.89,-4,0,-2,44,0
'[11:48:02.968 21/01/2026]',-130071.6,-184316.9,-140107.7,-16802.07,-375000,-375000,-151901.9,-147062,0.03,0.00,0.89,-4,0,-2,44,0
'[11:48:02.972 21/01/2026]',-130065.4,-184332.4,-140110.8,-16812.13,-375000,-375000,-151911.4,-147120,0.03,0.00,0.89,-4,0,-2,44,0
'[11:48:02.976 21/01/2026]',-130046.8,-184330.7,-140096.7,-16804.76,-375000,-375000,-151900.3,-147135.7,0.03,0.00,0.89,-4,0,-2,44,0
'[11:48:02.980 21/01/2026]',-130086.1,-184342.3,-140113.3,-16816.83,-375000,-375000,-151907.1,-147123.9,0.03,0.00,0.89,-4,0,-2,44,0
'[11:48:02.984 21/01/2026]',-130124.3,-184362.4,-140129.3,-16825.1,-375000,-375000,-151912.6,-147200.7,0.03,0.00,0.89,-4,0,-2,44,0
'[11:48:02.988 21/01/2026]',-130100.4,-184359.4,-140136,-16832.12,-375000,-375000,-151918,-147248.9,0.03,0.02,0.88,-4,0,-2,44,0
'[11:48:02.992 21/01/2026]',-130097,-184353.1,-140118.8,-16812.27,-375000,-375000,-151903.9,-147228.6,0.03,0.02,0.88,-4,0,-2,44,0
'[11:48:02.996 21/01/2026]',-130122.7,-184358.8,-140106.3,-16802.92,-375000,-375000,-151899.3,-147172.9,0.03,0.02,0.88,-4,0,-2,44,0
'[11:48:03.000 21/01/2026]',-130119.8,-184346.3,-140097,-16800.02,-375000,-375000,-151898.2,-147117.5,0.03,0.02,0.88,-4,0,-2,44,0
'[11:48:03.004 21/01/2026]',-130108.5,-184353.2,-140102.8,-16810.66,-375000,-375000,-151912.3,-147155.4,0.03,0.02,0.88,-4,0,-2,44,0
'[11:48:03.008 21/01/2026]',-130096.7,-184357.8,-140104.7,-16809.27,-375000,-375000,-151910.9,-147207.1,0.03,0.02,0.88,-4,0,-2,44,0
'[11:48:03.012 21/01/2026]',-130077.6,-184341,-140111.2,-16808.38,-375000,-375000,-151909.6,-147166.3,0.03,0.02,0.88,-4,0,-2,44,0
'[11:48:03.016 21/01/2026]',-130083.8,-184324.3,-140111.2,-16811.15,-375000,-375000,-151912.9,-147134,0.03,0.02,0.88,-4,0,-2,44,0
'[11:48:03.020 21/01/2026]',-130091.9,-184348.7,-140110.2,-16815.57,-375000,-375000,-151912.8,-147152.7,0.03,0.02,0.88,-4,0,-2,44,0
'[11:48:03.024 21/01/2026]',-130088.5,-184363.5,-140104.6,-16811.69,-375000,-375000,-151898.2,-147177.3,0.03,0.00,0.89,-4,0,-2,44,0
'[11:48:03.028 21/01/2026]',-130101.9,-184361.4,-140113.8,-16815.26,-375000,-375000,-151902.1,-147155.4,0.03,0.00,0.89,-4,0,-2,44,0
'[11:48:03.032 21/01/2026]',-130090.6,-184350.6,-140123.3,-16813.74,-375000,-375000,-151910.8,-147122.3,0.03,0.00,0.89,-4,0,-2,44,0
'[11:48:03.036 21/01/2026]',-130074.4,-184349.7,-140121.4,-16820.76,-375000,-375000,-151917.9,-147136.2,0.03,0.00,0.89,-4,0,-2,44,0
'[11:48:03.040 21/01/2026]',-130057.6,-184353.7,-140106.8,-16813.07,-375000,-375000,-151908.8,-147175.2,0.03,0.00,0.89,-4,0,-2,44,0
'[11:48:03.044 21/01/2026]',-130071.1,-184338.9,-140096.9,-16805.34,-375000,-375000,-151900.6,-147154,0.03,0.00,0.89,-4,0,-2,44,0
'[11:48:03.048 21/01/2026]',-130082.5,-184326,-140091.4,-16797.6,-375000,-375000,-151894.9,-147105,0.03,0.00,0.89,-4,0,-2,44,0
'[11:48:03.052 21/01/2026]',-130071.5,-184339.8,-140109.3,-16806.14,-375000,-375000,-151905.2,-147117.1,0.03,0.00,0.89,-4,0,-2,44,0
'[11:48:03.056 21/01/2026]',-130084.1,-184350.8,-140111.7,-16816.51,-375000,-375000,-151919.7,-147186,0.03,0.00,0.89,-4,0,-2,44,0
'[11:48:03.060 21/01/2026]',-130087.9,-184345.5,-140107.7,-16812.76,-375000,-375000,-151916.1,-147190.2,0.03,0.00,0.88,-4,0,-2,44,0
'[11:48:03.064 21/01/2026]',-130068.2,-184333.4,-140108.3,-16806.99,-375000,-375000,-151902.9,-147128.4,0.03,0.00,0.88,-4,0,-2,44,0
'[11:48:03.068 21/01/2026]',-130070.9,-184327.2,-140111,-16805.56,-375000,-375000,-151895.2,-147099.5,0.03,0.00,0.88,-4,0,-2,44,0
'[11:48:03.072 21/01/2026]',-130069.7,-184342.3,-140115.9,-16818.26,-375000,-375000,-151913.6,-147157.9,0.03,0.00,0.88,-4,0,-2,44,0
'[11:48:03.076 21/01/2026]',-130092.9,-184348,-140090,-16800.02,-375000,-375000,-151905.8,-147176.7,0.03,0.00,0.88,-4,0,-2,44,0
'[11:48:03.080 21/01/2026]',-130103.6,-184345.4,-140085.4,-16798.14,-375000,-375000,-151905,-147129.9,0.03,0.00,0.88,-4,0,-2,44,0
'[11:48:03.084 21/01/2026]',-130092.4,-184337.8,-140092.5,-16802.34,-375000,-375000,-151907.6,-147110.5,0.03,0.00,0.88,-4,0,-2,44,0
'[11:48:03.088 21/01/2026]',-130061.7,-184340.4,-140109.2,-16809.94,-375000,-375000,-151915.7,-147162.9,0.03,0.00,0.88,-4,0,-2,44,0
'[11:48:03.092 21/01/2026]',-130046,-184332.6,-140115.2,-16805.02,-375000,-375000,-151910.7,-147188.5,0.03,0.00,0.88,-4,0,-2,44,0
'[11:48:03.096 21/01/2026]',-130080.2,-184330.2,-140110.7,-16800.02,-375000,-375000,-151907,-147145.2,0.03,0.00,0.88,-4,0,-2,44,0
'[11:48:03.100 21/01/2026]',-130067.2,-184318,-140101.4,-16799.97,-375000,-375000,-151906.4,-147103.7,0.03,0.00,0.88,-4,0,-2,44,0
'[11:48:03.104 21/01/2026]',-130086.9,-184342.8,-140090.9,-16807.62,-375000,-375000,-151924,-147148,0.03,0.00,0.88,-4,0,-2,44,0
'[11:48:03.108 21/01/2026]',-130094.7,-184343.6,-140086.3,-16797.07,-375000,-375000,-151916.1,-147184.3,0.03,0.00,0.88,-4,0,-2,44,0
'[11:48:03.112 21/01/2026]',-130061.7,-184333.1,-140093.7,-16794.25,-375000,-375000,-151905.6,-147156.1,0.03,0.00,0.88,-4,0,-2,44,0
'[11:48:03.116 21/01/2026]',-130070.6,-184325.3,-140090.5,-16780.88,-375000,-375000,-151892.5,-147111.8,0.03,0.00,0.88,-4,0,-2,44,0
'[11:48:03.120 21/01/2026]',-130076.1,-184327.9,-140064.8,-16769.66,-375000,-375000,-151881.1,-147103.3,0.03,0.00,0.88,-4,0,-2,44,0
'[11:48:03.124 21/01/2026]',-130060.9,-184327.2,-140077,-16777.49,-375000,-375000,-151890.4,-147152.2,0.03,0.00,0.88,-4,0,-2,44,0
'[11:48:03.128 21/01/2026]',-130053.5,-184321.1,-140090.5,-16779.63,-375000,-375000,-151888.9,-147141.5,0.03,0.00,0.88,-4,0,-2,44,0
'[11:48:03.132 21/01/2026]',-130077,-184332.1,-140086.7,-16780.66,-375000,-375000,-151889.8,-147096.1,0.02,0.00,0.89,-4,0,-2,44,0
'[11:48:03.136 21/01/2026]',-130087.2,-184335.9,-140072.8,-16778.83,-375000,-375000,-151892.4,-147106.3,0.02,0.00,0.89,-4,0,-2,44,0
'[11:48:03.140 21/01/2026]',-130057.2,-184330.7,-140085.4,-16784.37,-375000,-375000,-151901.6,-147162.4,0.02,0.00,0.89,-4,0,-2,44,0
'[11:48:03.144 21/01/2026]',-130051.3,-184332.8,-140102.5,-16781.91,-375000,-375000,-151899.5,-147166.6,0.02,0.00,0.89,-4,0,-2,44,0
'[11:48:03.148 21/01/2026]',-130056.9,-184327,-140088.1,-16771.05,-375000,-375000,-151886.8,-147106.8,0.02,0.00,0.89,-4,0,-2,44,0
'[11:48:03.152 21/01/2026]',-130072.2,-184319,-140072.7,-16772.26,-375000,-375000,-151887.3,-147093.4,0.02,0.00,0.89,-4,0,-2,44,0
'[11:48:03.156 21/01/2026]',-130072.2,-184325.6,-140087.9,-16783.21,-375000,-375000,-151905.3,-147142.1,0.02,0.00,0.89,-4,0,-2,44,0
'[11:48:03.160 21/01/2026]',-130065.3,-184321.7,-140085.3,-16784.33,-375000,-375000,-151905.5,-147144.5,0.02,0.00,0.89,-4,0,-2,44,0
'[11:48:03.164 21/01/2026]',-130053.5,-184322.8,-140096.1,-16784.68,-375000,-375000,-151904.1,-147110.8,0.02,0.00,0.89,-4,0,-2,44,0
'[11:48:03.168 21/01/2026]',-130070.4,-184323.7,-140089.1,-16789.82,-375000,-375000,-151910.5,-147099.5,0.02,0.02,0.88,-4,0,-2,44,0
'[11:48:03.172 21/01/2026]',-130083.5,-184324.6,-140084.9,-16796.98,-375000,-375000,-151925.8,-147144.5,0.02,0.02,0.88,-4,0,-2,44,0
'[11:48:03.176 21/01/2026]',-130074.7,-184333.2,-140093,-16796.98,-375000,-375000,-151921.4,-147171.5,0.02,0.02,0.88,-4,0,-2,44,0
'[11:48:03.180 21/01/2026]',-130068.4,-184330.1,-140100.1,-16793.13,-375000,-375000,-151913,-147142.2,0.02,0.02,0.88,-4,0,-2,44,0
'[11:48:03.184 21/01/2026]',-130077.2,-184334.8,-140105.6,-16792.64,-375000,-375000,-151913.3,-147120.3,0.02,0.02,0.88,-4,0,-2,44,0
'[11:48:03.188 21/01/2026]',-130078.4,-184350.7,-140103.6,-16802.3,-375000,-375000,-151928.4,-147159.9,0.02,0.02,0.88,-4,0,-2,44,0
'[11:48:03.192 21/01/2026]',-130061.3,-184335.2,-140101.8,-16803.06,-375000,-375000,-151928.3,-147195.8,0.02,0.02,0.88,-4,0,-2,44,0
'[11:48:03.196 21/01/2026]',-130059.5,-184316.4,-140109.6,-16800.73,-375000,-375000,-151918.7,-147147.7,0.02,0.02,0.88,-4,0,-2,44,0
'[11:48:03.200 21/01/2026]',-130073.5,-184315.9,-140104.2,-16796.75,-375000,-375000,-151910.5,-147107,0.02,0.02,0.88,-4,0,-2,44,0
'[11:48:03.204 21/01/2026]',-130086.1,-184335.5,-140101.3,-16806.77,-375000,-375000,-151922.9,-147140,0.03,0.00,0.86,-4,0,-2,44,0
'[11:48:03.208 21/01/2026]',-130075.3,-184347.6,-140106.8,-16809.23,-375000,-375000,-151928.3,-147186.2,0.03,0.00,0.86,-4,0,-2,44,0
'[11:48:03.212 21/01/2026]',-130065.9,-184337.7,-140118.1,-16811.69,-375000,-375000,-151928.2,-147157,0.03,0.00,0.86,-4,0,-2,44,0
'[11:48:03.216 21/01/2026]',-130094,-184328.4,-140118.8,-16813.88,-375000,-375000,-151926.4,-147118.4,0.03,0.00,0.86,-4,0,-2,44,0
'[11:48:03.220 21/01/2026]',-130083,-184344.2,-140102.2,-16806.68,-375000,-375000,-151922.8,-147128.8,0.03,0.00,0.86,-4,0,-2,44,0
'[11:48:03.224 21/01/2026]',-130067.4,-184346.3,-140107.3,-16805.16,-375000,-375000,-151924.6,-147177.5,0.03,0.00,0.86,-4,0,-2,44,0
'[11:48:03.228 21/01/2026]',-130068.1,-184334.6,-140121,-16807.08,-375000,-375000,-151920.8,-147157.9,0.03,0.00,0.86,-4,0,-2,44,0
'[11:48:03.232 21/01/2026]',-130073.8,-184329.6,-140145,-16815.89,-375000,-375000,-151922.5,-147105.1,0.03,0.00,0.86,-4,0,-2,44,0
'[11:48:03.236 21/01/2026]',-130074,-184326.4,-140118.8,-16811.46,-375000,-375000,-151915.2,-147099.8,0.03,0.00,0.86,-4,0,-2,44,0
'[11:48:03.240 21/01/2026]',-130087.9,-184345.9,-140109.3,-16814.86,-375000,-375000,-151926.9,-147149.2,0.03,0.00,0.88,-4,0,-2,44,0
'[11:48:03.244 21/01/2026]',-130089.2,-184345.5,-140110.3,-16808.78,-375000,-375000,-151925.3,-147158,0.03,0.00,0.88,-4,0,-2,44,0
'[11:48:03.248 21/01/2026]',-130085.6,-184328.8,-140103.8,-16801.4,-375000,-375000,-151909.9,-147108.4,0.03,0.00,0.88,-4,0,-2,44,0
'[11:48:03.252 21/01/2026]',-130102.5,-184337.6,-140111.3,-16811.37,-375000,-375000,-151918.6,-147107.5,0.03,0.00,0.88,-4,0,-2,44,0
'[11:48:03.256 21/01/2026]',-130078.8,-184350.3,-140126.7,-16822.06,-375000,-375000,-151927.8,-147160.6,0.03,0.00,0.88,-4,0,-2,44,0
'[11:48:03.260 21/01/2026]',-130061.5,-184342.5,-140124.9,-16813.16,-375000,-375000,-151916.2,-147157.1,0.03,0.00,0.88,-4,0,-2,44,0
'[11:48:03.264 21/01/2026]',-130073.7,-184331.8,-140113.3,-16804.35,-375000,-375000,-151905.4,-147105.9,0.03,0.00,0.88,-4,0,-2,44,0
'[11:48:03.268 21/01/2026]',-130093.5,-184336.3,-140109.8,-16801.58,-375000,-375000,-151901.4,-147084.6,0.03,0.00,0.88,-4,0,-2,44,0
'[11:48:03.272 21/01/2026]',-130098.6,-184349.8,-140114.9,-16817.36,-375000,-375000,-151921.2,-147140.2,0.03,0.00,0.88,-4,0,-2,44,0
'[11:48:03.276 21/01/2026]',-130095.9,-184352.8,-140108.6,-16817.09,-375000,-375000,-151920.7,-147165.9,0.02,0.00,0.89,-4,0,-2,44,0
'[11:48:03.280 21/01/2026]',-130098.6,-184354.5,-140108.7,-16810.25,-375000,-375000,-151907.9,-147118.5,0.02,0.00,0.89,-4,0,-2,44,0
'[11:48:03.284 21/01/2026]',-130107.8,-184355.3,-140120.5,-16808.91,-375000,-375000,-151904.2,-147090.2,0.02,0.00,0.89,-4,0,-2,44,0
'[11:48:03.288 21/01/2026]',-130099.3,-184366.2,-140132.3,-16822.23,-375000,-375000,-151921.4,-147135.4,0.02,0.00,0.89,-4,0,-2,44,0
'[11:48:03.292 21/01/2026]',-130101.4,-184381.9,-140127.3,-16825.81,-375000,-375000,-151923.6,-147177.9,0.02,0.00,0.89,-4,0,-2,44,0
'[11:48:03.296 21/01/2026]',-130122.6,-184390.5,-140133.9,-16831.62,-375000,-375000,-151925.9,-147148.8,0.02,0.00,0.89,-4,0,-2,44,0
'[11:48:03.300 21/01/2026]',-130129.9,-184392.8,-140148.8,-16833.59,-375000,-375000,-151929.5,-147107.2,0.02,0.00,0.89,-4,0,-2,44,0
'[11:48:03.304 21/01/2026]',-130118,-184404.9,-140155.3,-16838.33,-375000,-375000,-151925.3,-147116.3,0.02,0.00,0.89,-4,0,-2,44,0
'[11:48:03.308 21/01/2026]',-130142.8,-184435.8,-140142.6,-16842.89,-375000,-375000,-151914.8,-147152.9,0.02,0.00,0.89,-4,0,-2,44,0
'[11:48:03.312 21/01/2026]',-130183.9,-184458.6,-140154.8,-16856.52,-375000,-375000,-151919.7,-147138.4,0.02,0.00,0.86,-4,0,-2,44,0
'[11:48:03.316 21/01/2026]',-130217.6,-184481.9,-140163.2,-16860.1,-375000,-375000,-151924.6,-147101.9,0.02,0.00,0.86,-4,0,-2,44,0
'[11:48:03.320 21/01/2026]',-130216,-184512.9,-140166,-16871.63,-375000,-375000,-151938.5,-147122.8,0.02,0.00,0.86,-4,0,-2,44,0
'[11:48:03.324 21/01/2026]',-130211.1,-184533,-140166.2,-16880.53,-375000,-375000,-151949.3,-147176.7,0.02,0.00,0.86,-4,0,-2,44,0
'[11:48:03.328 21/01/2026]',-130218.9,-184524.1,-140158.6,-16875.16,-375000,-375000,-151943.7,-147171.2,0.02,0.00,0.86,-4,0,-2,44,0
'[11:48:03.332 21/01/2026]',-130213.4,-184503.4,-140152.1,-16865.38,-375000,-375000,-151927.8,-147123.3,0.02,0.00,0.86,-4,0,-2,44,0
'[11:48:03.336 21/01/2026]',-130195.3,-184500.8,-140157.5,-16871.19,-375000,-375000,-151940.9,-147129.3,0.02,0.00,0.86,-4,0,-2,44,0
'[11:48:03.340 21/01/2026]',-130168.5,-184496.9,-140175.9,-16881.56,-375000,-375000,-151960.9,-147191.2,0.02,0.00,0.86,-4,0,-2,44,0
'[11:48:03.344 21/01/2026]',-130141.2,-184487,-140183.4,-16871.01,-375000,-375000,-151937.7,-147194.8,0.02,0.00,0.86,-4,0,-2,44,0
'[11:48:03.348 21/01/2026]',-130191.7,-184472.7,-140156.7,-16862.02,-375000,-375000,-151923.1,-147142.9,0.03,0.00,0.88,-4,0,-2,44,0
'[11:48:03.352 21/01/2026]',-130204.5,-184471.9,-140145.6,-16859.83,-375000,-375000,-151925.7,-147129.4,0.03,0.00,0.88,-4,0,-2,44,0
'[11:48:03.356 21/01/2026]',-130152.8,-184472.1,-140157.5,-16859.43,-375000,-375000,-151926.7,-147164.4,0.03,0.00,0.88,-4,0,-2,44,0
'[11:48:03.360 21/01/2026]',-130135.5,-184457.4,-140150.3,-16847.45,-375000,-375000,-151911.6,-147169.8,0.03,0.00,0.88,-4,0,-2,44,0
'[11:48:03.364 21/01/2026]',-130177.3,-184438.4,-140128.2,-16841.19,-375000,-375000,-151902.6,-147119.7,0.03,0.00,0.88,-4,0,-2,44,0
'[11:48:03.368 21/01/2026]',-130172.5,-184422.2,-140125.1,-16832.96,-375000,-375000,-151900.3,-147103.2,0.03,0.00,0.88,-4,0,-2,44,0
'[11:48:03.372 21/01/2026]',-130131.9,-184427.3,-140146.6,-16843.16,-375000,-375000,-151919.4,-147152.9,0.03,0.00,0.88,-4,0,-2,44,0
'[11:48:03.376 21/01/2026]',-130144.5,-184426.1,-140145.8,-16844.68,-375000,-375000,-151921.6,-147174.1,0.03,0.00,0.88,-4,0,-2,44,0
'[11:48:03.380 21/01/2026]',-130167,-184424.9,-140141.8,-16847.94,-375000,-375000,-151929.6,-147145,0.03,0.00,0.88,-4,0,-2,44,0
'[11:48:03.384 21/01/2026]',-130162.9,-184419.1,-140147.4,-16851.16,-375000,-375000,-151936.3,-147119.7,0.03,0.00,0.88,-4,0,-2,44,0
'[11:48:03.388 21/01/2026]',-130120.9,-184421.5,-140151.3,-16855.27,-375000,-375000,-151949.3,-147168.1,0.03,0.00,0.88,-4,0,-2,44,0
'[11:48:03.392 21/01/2026]',-130079.1,-184399.4,-140150.8,-16846.2,-375000,-375000,-151942.7,-147173.4,0.03,0.00,0.88,-4,0,-2,44,0
'[11:48:03.396 21/01/2026]',-130093,-184389,-140146.8,-16848.03,-375000,-375000,-151939.7,-147146.5,0.03,0.00,0.88,-4,0,-2,44,0
'[11:48:03.400 21/01/2026]',-130116.7,-184375.5,-140131,-16831.89,-375000,-375000,-151920.4,-147101.2,0.03,0.00,0.88,-4,0,-2,44,0
'[11:48:03.404 21/01/2026]',-130095.3,-184375.6,-140128,-16828.67,-375000,-375000,-151920,-147115.5,0.03,0.00,0.88,-4,0,-2,44,0
'[11:48:03.408 21/01/2026]',-130114.7,-184390.2,-140131.3,-16838.06,-375000,-375000,-151936.2,-147166.8,0.03,0.00,0.88,-4,0,-2,44,0
'[11:48:03.412 21/01/2026]',-130123.6,-184379.4,-140134.1,-16840.79,-375000,-375000,-151936.3,-147151.9,0.03,0.00,0.88,-4,0,-2,44,0
'[11:48:03.416 21/01/2026]',-130105.7,-184367.3,-140127.9,-16835.15,-375000,-375000,-151923.5,-147102.7,0.03,0.00,0.88,-4,0,-2,44,0
'[11:48:03.420 21/01/2026]',-130089.8,-184382.8,-140136.2,-16844.36,-375000,-375000,-151935,-147117,0.02,0.00,0.88,-4,0,-2,44,0
'[11:48:03.424 21/01/2026]',-130080.3,-184383.6,-140138.1,-16845.53,-375000,-375000,-151941.9,-147175.9,0.02,0.00,0.88,-4,0,-2,44,0
'[11:48:03.428 21/01/2026]',-130072.2,-184364.4,-140128.3,-16833.46,-375000,-375000,-151924.1,-147151.8,0.02,0.00,0.88,-4,0,-2,44,0
'[11:48:03.432 21/01/2026]',-130089.4,-184362.4,-140129.7,-16827.33,-375000,-375000,-151915.8,-147100.5,0.02,0.00,0.88,-4,0,-2,44,0
'[11:48:03.436 21/01/2026]',-130105.7,-184365.2,-140128.7,-16831.27,-375000,-375000,-151924.3,-147106.3,0.02,0.00,0.88,-4,0,-2,44,0
'[11:48:03.440 21/01/2026]',-130076,-184366.3,-140129.6,-16841.68,-375000,-375000,-151936.4,-147156.7,0.02,0.00,0.88,-4,0,-2,44,0
'[11:48:03.444 21/01/2026]',-130068.2,-184361.7,-140134.1,-16842.58,-375000,-375000,-151934,-147158.2,0.02,0.00,0.88,-4,0,-2,44,0
'[11:48:03.448 21/01/2026]',-130107.6,-184361.9,-140138.8,-16841.55,-375000,-375000,-151927.3,-147107.1,0.02,0.00,0.88,-4,0,-2,44,0
'[11:48:03.452 21/01/2026]',-130108,-184365.8,-140136.9,-16847.67,-375000,-375000,-151934.7,-147120.7,0.02,0.00,0.88,-4,0,-2,44,0
'[11:48:03.456 21/01/2026]',-130094.7,-184363.1,-140135.9,-16853.53,-375000,-375000,-151948.5,-147161.7,0.03,0.00,0.88,-4,0,-2,44,0
'[11:48:03.460 21/01/2026]',-130091.3,-184367.2,-140139.5,-16851.56,-375000,-375000,-151952.7,-147171.1,0.03,0.00,0.88,-4,0,-2,44,0
'[11:48:03.464 21/01/2026]',-130083.1,-184356.8,-140128.3,-16833.63,-375000,-375000,-151937.9,-147128.1,0.03,0.00,0.88,-4,0,-2,44,0
'[11:48:03.468 21/01/2026]',-130078,-184353.6,-140116.5,-16826.26,-375000,-375000,-151934.2,-147109.8,0.03,0.00,0.88,-4,0,-2,44,0
'[11:48:03.472 21/01/2026]',-130067.4,-184363.6,-140126.8,-16840.21,-375000,-375000,-151952.5,-147159.5,0.03,0.00,0.88,-4,0,-2,44,0
'[11:48:03.476 21/01/2026]',-130067,-184360.5,-140130,-16838.2,-375000,-375000,-151942.6,-147180.2,0.03,0.00,0.88,-4,0,-2,44,0
'[11:48:03.480 21/01/2026]',-130033.3,-184339.8,-140145.5,-16834.71,-375000,-375000,-151924.4,-147142.1,0.03,0.00,0.88,-4,0,-2,44,0
'[11:48:03.484 21/01/2026]',-130055.7,-184329.5,-140113.6,-16822.55,-375000,-375000,-151903.3,-147094.2,0.03,0.00,0.88,-4,0,-2,44,0
'[11:48:03.488 21/01/2026]',-130101.7,-184352.4,-140104.6,-16834.26,-375000,-375000,-151926.9,-147130.3,0.03,0.00,0.88,-4,0,-2,44,0
'[11:48:03.492 21/01/2026]',-130065.9,-184358.5,-140110.9,-16832.52,-375000,-375000,-151934.1,-147178.2,0.03,0.00,0.88,-4,0,-2,44,0
'[11:48:03.496 21/01/2026]',-130067.9,-184348,-140112.4,-16825.1,-375000,-375000,-151926.2,-147147.4,0.03,0.00,0.88,-4,0,-2,44,0
'[11:48:03.500 21/01/2026]',-130079.6,-184333.8,-140105.8,-16816.38,-375000,-375000,-151923.5,-147107.7,0.03,0.00,0.88,-4,0,-2,44,0
'[11:48:03.504 21/01/2026]',-130058.8,-184346.9,-140124.5,-16825.86,-375000,-375000,-151943.1,-147137.1,0.03,0.00,0.88,-4,0,-2,44,0
'[11:48:03.508 21/01/2026]',-130033.9,-184335.4,-140119.1,-16812.18,-375000,-375000,-151930.1,-147178.1,0.03,0.00,0.88,-4,0,-2,44,0
'[11:48:03.512 21/01/2026]',-130034.9,-184331.8,-140103.5,-16805.74,-375000,-375000,-151917.3,-147151.1,0.03,0.00,0.88,-4,0,-2,44,0
'[11:48:03.516 21/01/2026]',-130056.7,-184322.3,-140103.9,-16806.68,-375000,-375000,-151907.7,-147099.6,0.03,0.00,0.88,-4,0,-2,44,0
'[11:48:03.520 21/01/2026]',-130061.8,-184331.1,-140107.8,-16819.6,-375000,-375000,-151925.5,-147115.5,0.03,0.00,0.88,-4,0,-2,44,0
'[11:48:03.524 21/01/2026]',-130059.7,-184346.8,-140123.6,-16835.65,-375000,-375000,-151940.9,-147178.8,0.03,0.00,0.88,-4,0,-2,44,0
'[11:48:03.528 21/01/2026]',-130053.9,-184344.5,-140117.8,-16829.61,-375000,-375000,-151931.2,-147169.3,0.03,0.00,0.88,-4,0,-2,44,0
'[11:48:03.532 21/01/2026]',-130069.4,-184325.2,-140109,-16820.45,-375000,-375000,-151922.6,-147120.4,0.03,0.00,0.88,-4,0,-2,44,0
'[11:48:03.536 21/01/2026]',-130062.3,-184327.5,-140124.8,-16827.78,-375000,-375000,-151934.1,-147127.8,0.03,0.00,0.88,-4,0,-2,44,0
'[11:48:03.540 21/01/2026]',-130043.9,-184336.1,-140138.9,-16836.54,-375000,-375000,-151950.2,-147184.8,0.03,0.00,0.88,-4,0,-2,44,0
'[11:48:03.544 21/01/2026]',-130032.1,-184330.2,-140130.5,-16824.07,-375000,-375000,-151934.1,-147170.9,0.03,0.00,0.88,-4,0,-2,44,0
'[11:48:03.548 21/01/2026]',-130076.4,-184333.9,-140106.6,-16816.47,-375000,-375000,-151928.6,-147118.5,0.03,0.00,0.88,-4,0,-2,44,0
'[11:48:03.552 21/01/2026]',-130079.8,-184332.3,-140100.5,-16814.63,-375000,-375000,-151931.5,-147108.5,0.03,0.00,0.88,-4,0,-2,44,0
'[11:48:03.556 21/01/2026]',-130053.8,-184324.6,-140100.6,-16814.32,-375000,-375000,-151937.1,-147152.5,0.03,0.00,0.88,-4,0,-2,44,0
'[11:48:03.560 21/01/2026]',-130033.1,-184310.6,-140109.9,-16817.32,-375000,-375000,-151940.9,-147166.7,0.03,0.00,0.88,-4,0,-2,44,0
'[11:48:03.564 21/01/2026]',-130042.6,-184313.5,-140112.1,-16813.92,-375000,-375000,-151926.2,-147124.9,0.00,0.00,0.88,-4,0,-2,44,0
'[11:48:03.568 21/01/2026]',-130044.3,-184328.8,-140113.3,-16813.03,-375000,-375000,-151922.3,-147107.3,0.00,0.00,0.88,-4,0,-2,44,0
'[11:48:03.572 21/01/2026]',-130094,-184364.7,-140125.8,-16830.73,-375000,-375000,-151966.9,-147301,0.00,0.00,0.88,-4,0,-2,44,0
'[11:48:03.576 21/01/2026]',-130147.5,-184382.7,-140122.2,-16827.06,-375000,-375000,-151976.8,-147401.3,0.00,0.00,0.88,-4,0,-2,44,0
'[11:48:03.580 21/01/2026]',-130123,-184364.7,-140104.7,-16809.05,-375000,-375000,-151943.2,-147279.7,0.00,0.00,0.88,-4,0,-2,44,0
'[11:48:03.584 21/01/2026]',-130087.1,-184349.7,-140087,-16792.2,-375000,-375000,-151917.3,-147195.8,0.00,0.00,0.88,-4,0,-2,44,0
'[11:48:03.588 21/01/2026]',-130065.6,-184358.7,-140090.3,-16799.75,-375000,-375000,-151923.1,-147214.1,0.00,0.00,0.88,-4,0,-2,44,0
'[11:48:03.592 21/01/2026]',-130060.8,-184359.2,-140091.1,-16803.5,-375000,-375000,-151933.6,-147259,0.00,0.00,0.88,-4,0,-2,44,0
'[11:48:03.596 21/01/2026]',-130060.3,-184356.8,-140096.8,-16805.2,-375000,-375000,-151933.9,-147219.2,0.00,0.00,0.88,-4,0,-2,44,0
'[11:48:03.600 21/01/2026]',-130054.9,-184341.3,-140092.6,-16797.83,-375000,-375000,-151922.4,-147167.3,0.02,0.00,0.88,-4,0,-2,44,0
'[11:48:03.604 21/01/2026]',-130031.1,-184344,-140108,-16807.13,-375000,-375000,-151937,-147188.1,0.02,0.00,0.88,-4,0,-2,44,0
'[11:48:03.608 21/01/2026]',-130014.7,-184336.1,-140126.3,-16814.14,-375000,-375000,-151941.7,-147238,0.02,0.00,0.88,-4,0,-2,44,0
'[11:48:03.612 21/01/2026]',-130074,-184335.4,-140112.2,-16807.04,-375000,-375000,-151934.6,-147209.8,0.02,0.00,0.88,-4,0,-2,44,0
'[11:48:03.616 21/01/2026]',-130100.3,-184338.8,-140072.3,-16784.1,-375000,-375000,-151919.1,-147163.3,0.02,0.00,0.88,-4,0,-2,44,0
'[11:48:03.620 21/01/2026]',-130074.8,-184342,-140067.1,-16785.8,-375000,-375000,-151923.5,-147183.6,0.02,0.00,0.88,-4,0,-2,44,0
'[11:48:03.624 21/01/2026]',-130056.5,-184348.3,-140080,-16799.53,-375000,-375000,-151939.3,-147228.8,0.02,0.00,0.88,-4,0,-2,44,0
'[11:48:03.628 21/01/2026]',-130047.4,-184348.6,-140095.6,-16802.97,-375000,-375000,-151938.9,-147198.1,0.02,0.00,0.88,-4,0,-2,44,0
'[11:48:03.632 21/01/2026]',-130034.5,-184342,-140093,-16795.82,-375000,-375000,-151922.6,-147147.8,0.02,0.00,0.88,-4,0,-2,44,0
'[11:48:03.636 21/01/2026]',-130037.4,-184334.8,-140083.3,-16789.91,-375000,-375000,-151918.5,-147155.9,0.03,-0.02,0.86,-4,0,-2,44,0
'[11:48:03.640 21/01/2026]',-130046.8,-184329.7,-140086.7,-16797.78,-375000,-375000,-151930.9,-147201.5,0.03,-0.02,0.86,-4,0,-2,44,0
'[11:48:03.644 21/01/2026]',-130049.3,-184334.3,-140087.7,-16795.37,-375000,-375000,-151927.5,-147204.4,0.03,-0.02,0.86,-4,0,-2,44,0
'[11:48:03.648 21/01/2026]',-130061.8,-184331.3,-140098.4,-16795.59,-375000,-375000,-151921.7,-147165,0.03,-0.02,0.86,-4,0,-2,44,0
'[11:48:03.652 21/01/2026]',-130031.7,-184315.5,-140097.3,-16790.23,-375000,-375000,-151913.7,-147146.7,0.03,-0.02,0.86,-4,0,-2,44,0
'[11:48:03.656 21/01/2026]',-130017.1,-184320.6,-140092.4,-16796.17,-375000,-375000,-151926.1,-147191.6,0.03,-0.02,0.86,-4,0,-2,44,0
