'Time and date','Fp1','Fp2','C3','C4','P3','P4','O1','O2','AccX','AccY','AccZ','GyroX','GyroY','GyroZ','Battery','Event'
'[hh:mm:ss.mmm dd/mm/yyyy]','uV','uV','uV','uV','uV','uV','uV','uV','G','G','G','Deg/s','Deg/s','Deg/s','%','Button'
'[17:04:00.000 23/10/2025]',-71419.01,-153838.7,-127178.1,-125997.1,-146213.5,-151327.2,-71812.89,-98893.14,-0.02,-0.02,0.91,-4,0,-2,74,0
'[17:04:00.004 23/10/2025]',-76579.89,-159045.6,-132093.7,-130674.6,-151332.9,-157090.3,-77773.79,-103389,-0.02,-0.02,0.91,-4,0,-2,74,0
'[17:04:00.008 23/10/2025]',-77760.2,-160273,-133327.8,-132228.8,-152606.1,-158316.2,-78909.84,-104827.3,-0.02,-0.02,0.91,-4,0,-2,74,0
'[17:04:00.012 23/10/2025]',-72507.13,-154975.8,-128330.1,-127537.8,-147398.5,-152421.8,-72791,-100299.4,-0.02,-0.02,0.91,-4,0,-2,74,0
'[17:04:00.016 23/10/2025]',-70894.01,-153315.2,-126688.8,-125589.9,-145698.5,-150725.9,-71167.02,-98485.67,-0.02,-0.02,0.91,-4,0,-2,74,0
'[17:04:00.020 23/10/2025]',-75731.46,-158190.4,-131275.1,-129864.6,-150475.3,-156154,-76809.22,-102600.5,-0.02,-0.02,0.91,-4,0,-2,74,0
'[17:04:00.024 23/10/2025]',-78129,-160642.4,-133667.8,-132491.2,-152958.8,-158746.5,-79377.57,-105072,-0.02,-0.02,0.91,-4,0,-2,74,0
'[17:04:00.028 23/10/2025]',-73412.47,-155893,-129209.2,-128407.7,-148313.4,-153424.7,-73826.06,-101115.8,-0.02,-0.02,0.91,-4,0,-2,74,0
'[17:04:00.032 23/10/2025]',-70569.91,-152991,-126400.6,-125370.6,-145397.4,-150341.8,-70758.2,-98253.39,-0.02,-0.02,0.91,-4,0,-2,74,0
'[17:04:00.036 23/10/2025]',-71419.01,-153838.7,-127178.1,-125997.1,-146213.5,-151327.2,-71812.89,-98893.14,-0.02,-0.02,0.91,-4,0,-2,74,0
'[17:04:00.040 23/10/2025]',-76579.89,-159045.6,-132093.7,-130674.6,-151332.9,-157090.3,-77773.79,-103389,-0.02,-0.02,0.91,-4,0,-2,74,0
'[17:04:00.044 23/10/2025]',-77760.2,-160273,-133327.8,-132228.8,-152606.1,-158316.2,-78909.84,-104827.3,-0.02,-0.02,0.91,-4,0,-2,74,0
'[17:04:00.048 23/10/2025]',-72507.13,-154975.8,-128330.1,-127537.8,-147398.5,-152421.8,-72791,-100299.4,-0.02,-0.02,0.91,-4,0,-2,74,0
'[17:04:00.052 23/10/2025]',-70894.01,-153315.2,-126688.8,-125589.9,-145698.5,-150725.9,-71167.02,-98485.67,-0.02,-0.02,0.91,-4,0,-2,74,0
'[17:04:00.056 23/10/2025]',-75731.46,-158190.4,-131275.1,-129864.6,-150475.3,-156154,-76809.22,-102600.5,-0.02,-0.02,0.91,-4,0,-2,74,0
'[17:04:00.060 23/10/2025]',-78129,-160642.4,-133667.8,-132491.2,-152958.8,-158746.5,-79377.57,-105072,-0.02,-0.02,0.91,-4,0,-2,74,0
'[17:04:00.064 23/10/2025]',-73412.47,-155893,-129209.2,-128407.7,-148313.4,-153424.7,-73826.06,-101115.8,-0.02,-0.02,0.91,-4,0,-2,74,0
'[17:04:00.068 23/10/2025]',-70569.91,-152991,-126400.6,-125370.6,-145397.4,-150341.8,-70758.2,-98253.39,-0.02,-0.02,0.91,-4,0,-2,74,0
'[17:04:00.072 23/10/2025]',-74809.14,-157257.2,-130394.3,-128994.9,-149557.4,-155126.1,-75759.58,-101755.7,-0.02,0.00,0.89,-4,0,0,74,0
'[17:04:00.076 23/10/2025]',-78267.4,-160772.3,-133779.5,-132522.9,-153075.4,-158913.4,-79572.16,-105105.9,-0.02,0.00,0.89,-4,0,0,74,0
'[17:04:00.080 23/10/2025]',-74401.4,-156893.3,-130159.5,-129325.8,-149300.5,-154526.3,-74952.05,-101990,-0.02,0.00,0.89,-4,0,0,74,0
'[17:04:00.084 23/10/2025]',-70494.85,-152921.2,-126349.5,-125387.4,-145339.3,-150237.1,-70615.59,-98254.51,-0.02,0.00,0.89,-4,0,0,74,0
'[17:04:00.088 23/10/2025]',-73869.02,-156303.8,-129498.2,-128128.1,-148620.4,-154073.7,-74680.8,-100919.1,-0.02,0.00,0.89,-4,0,0,74,0
'[17:04:00.092 23/10/2025]',-78170.3,-160665.6,-133668.9,-132342.7,-152957.2,-158815,-79502.56,-104939.8,-0.02,0.00,0.89,-4,0,0,74,0
'[17:04:00.096 23/10/2025]',-75375,-157875.2,-131091.8,-130208.1,-150269.5,-155613.5,-76082.61,-102841.7,-0.02,0.00,0.89,-4,0,0,74,0
'[17:04:00.100 23/10/2025]',-70616.18,-153045.7,-126488.7,-125582.8,-145480.1,-150350.8,-70706.43,-98426.17,-0.02,0.00,0.89,-4,0,0,74,0
'[17:04:00.104 23/10/2025]',-72961.63,-155384.5,-128641.3,-127309.8,-147715.9,-153059.5,-73613.27,-100123.3,-0.02,0.00,0.89,-4,0,0,74,0
'[17:04:00.108 23/10/2025]',-77852.15,-160333.9,-133349.3,-131967.5,-152620,-158480.6,-79161.88,-104601.1,0.00,0.00,0.89,-4,0,-2,73,0
'[17:04:00.112 23/10/2025]',-76326.33,-158828.5,-131997,-131048,-151209.8,-156689.8,-77196.98,-103664.6,0.00,0.00,0.89,-4,0,-2,73,0
'[17:04:00.116 23/10/2025]',-71044.08,-153481.9,-126915.8,-126063.7,-145920.3,-150810.8,-71157.58,-98868.2,0.00,0.00,0.89,-4,0,-2,73,0
'[17:04:00.120 23/10/2025]',-72136.63,-154554.3,-127860.6,-126596.1,-146903.8,-152135.3,-72641.6,-99431.55,0.00,0.00,0.89,-4,0,-2,73,0
'[17:04:00.124 23/10/2025]',-77320.36,-159791.8,-132827.3,-131412.4,-152078.8,-157901.8,-78589.67,-104059.4,0.00,0.00,0.89,-4,0,-2,73,0
'[17:04:00.128 23/10/2025]',-77118.66,-159625.2,-132748.2,-131722.3,-151989,-157585.7,-78137.72,-104290,0.00,0.00,0.89,-4,0,-2,73,0
'[17:04:00.132 23/10/2025]',-71650.84,-154100.2,-127515.7,-126699.6,-146537.6,-151475.4,-71810.2,-99454.53,0.00,0.00,0.89,-4,0,-2,73,0
'[17:04:00.136 23/10/2025]',-71409.62,-153824.2,-127179,-125984,-146188.5,-151301.5,-71770.42,-98808.03,0.00,0.00,0.89,-4,0,-2,73,0
'[17:04:00.140 23/10/2025]',-76640.42,-159105.1,-132165.7,-130731.5,-151379.6,-157148.5,-77819.96,-103375.6,0.00,0.00,0.89,-4,0,-2,73,0
'[17:04:00.144 23/10/2025]',-77817.33,-160327.9,-133403,-132298.4,-152661.4,-158375.9,-78962.5,-104837.9,-0.02,-0.02,0.89,-4,0,-2,73,0
'[17:04:00.148 23/10/2025]',-72431.63,-154885,-128270.8,-127469.9,-147317.3,-152318.5,-72649.6,-100193.5,-0.02,-0.02,0.89,-4,0,-2,73,0
'[17:04:00.152 23/10/2025]',-70837.23,-153242.3,-126641.5,-125515.6,-145619.5,-150637.4,-71041.8,-98370.43,-0.02,-0.02,0.89,-4,0,-2,73,0
'[17:04:00.156 23/10/2025]',-75778.54,-158223.8,-131330.2,-129891.1,-150502.2,-156186.7,-76833.41,-102576.4,-0.02,-0.02,0.89,-4,0,-2,73,0
'[17:04:00.160 23/10/2025]',-78208.7,-160709.9,-133757.3,-132565.2,-153025.5,-158827.7,-79439.39,-105119,-0.02,-0.02,0.89,-4,0,-2,73,0
'[17:04:00.164 23/10/2025]',-73379.12,-155840.4,-129182,-128369.9,-148265.4,-153361.3,-73729.87,-101053.1,-0.02,-0.02,0.89,-4,0,-2,73,0
'[17:04:00.168 23/10/2025]',-70526.41,-152927,-126362.9,-125305,-145334,-150260.8,-70657.08,-98147.04,-0.02,-0.02,0.89,-4,0,-2,73,0
'[17:04:00.172 23/10/2025]',-74850.98,-157284.7,-130442.1,-129014.5,-149576.2,-155149.6,-75767.85,-101722.4,-0.02,-0.02,0.89,-4,0,-2,73,0
'[17:04:00.176 23/10/2025]',-78364.68,-160863.1,-133884.8,-132608.5,-153151.4,-159002.8,-79649.5,-105128.4,-0.02,-0.02,0.89,-4,0,-2,73,0
'[17:04:00.180 23/10/2025]',-74396.39,-156868.3,-130158.3,-129314.4,-149275.9,-154486,-74886.39,-101932.1,0.00,-0.02,0.91,-4,0,-2,73,0
'[17:04:00.184 23/10/2025]',-70443.76,-152843.3,-126300,-125313.4,-145262.3,-150146.1,-70489.89,-98145.52,0.00,-0.02,0.91,-4,0,-2,73,0
'[17:04:00.188 23/10/2025]',-73907.56,-156325.5,-129540.9,-128142.6,-148636.3,-154102.4,-74677.04,-100897.3,0.00,-0.02,0.91,-4,0,-2,73,0
'[17:04:00.192 23/10/2025]',-78277.02,-160765,-133787.2,-132439.9,-153056,-158933.6,-79609.98,-104995.6,0.00,-0.02,0.91,-4,0,-2,73,0
'[17:04:00.196 23/10/2025]',-75410.98,-157896.2,-131137.7,-130246.4,-150300.9,-155642.6,-76093.83,-102851,0.00,-0.02,0.91,-4,0,-2,73,0
'[17:04:00.200 23/10/2025]',-70580.01,-152988.3,-126454.8,-125535.8,-145424.8,-150291.4,-70618.77,-98359.25,0.00,-0.02,0.91,-4,0,-2,73,0
'[17:04:00.204 23/10/2025]',-72964.14,-155376.6,-128644.9,-127300.1,-147700.4,-153054.6,-73574.97,-100096.2,0.00,-0.02,0.91,-4,0,-2,73,0
'[17:04:00.208 23/10/2025]',-77946.3,-160427.5,-133451.3,-132056.7,-152702.2,-158587.7,-79238.54,-104653.7,0.00,-0.02,0.91,-4,0,-2,73,0
'[17:04:00.212 23/10/2025]',-76362.85,-158859.9,-132039.9,-131092.5,-151236.7,-156719,-77191.57,-103660.3,0.00,-0.02,0.91,-4,0,-2,73,0
'[17:04:00.216 23/10/2025]',-70974.74,-153396.5,-126844.3,-125987.4,-145827.7,-150709.4,-71028.3,-98742.23,0.00,-0.02,0.91,-4,0,-2,73,0
'[17:04:00.220 23/10/2025]',-72120.18,-154526.3,-127840.4,-126562.4,-146858.1,-152095.8,-72572,-99350.41,0.00,-0.02,0.91,-4,0,-2,73,0
'[17:04:00.224 23/10/2025]',-77411.95,-159881.8,-132918.4,-131490.5,-152135.8,-157989.9,-78622.57,-104075.8,0.00,-0.02,0.91,-4,0,-2,73,0
'[17:04:00.228 23/10/2025]',-77198.27,-159699.3,-132824.5,-131800,-152040,-157655.8,-78152.7,-104329.2,0.00,-0.02,0.91,-4,0,-2,73,0
'[17:04:00.232 23/10/2025]',-71608.2,-154036.8,-127463.4,-126640.4,-146464.6,-151395.3,-71702.12,-99379.74,0.00,-0.02,0.91,-4,0,-2,73,0
'[17:04:00.236 23/10/2025]',-71399.7,-153797.9,-127167.6,-125954.5,-146161.9,-151275.3,-71744.54,-98760.15,0.00,-0.02,0.91,-4,0,-2,73,0
'[17:04:00.240 23/10/2025]',-76675.96,-159133.9,-132209.4,-130760.6,-151403.7,-157185.7,-77826.23,-103379.2,0.00,-0.02,0.91,-4,0,-2,73,0
'[17:04:00.244 23/10/2025]',-77827.16,-160331.1,-133422.3,-132308.2,-152661.1,-158382.1,-78922.3,-104823.5,0.00,-0.02,0.91,-4,0,-2,73,0
'[17:04:00.248 23/10/2025]',-72410.84,-154856.5,-128254,-127445.8,-147283.5,-152287.5,-72592.7,-100132.9,0.00,-0.02,0.91,-4,0,-2,73,0
'[17:04:00.252 23/10/2025]',-70863.34,-153260.9,-126672.2,-125537.5,-145639.9,-150667.6,-71046.18,-98367.3,0.00,0.00,0.89,-4,0,-2,73,0
'[17:04:00.256 23/10/2025]',-75834.51,-158280.9,-131397,-129949.2,-150558.1,-156258.2,-76867.69,-102614.4,0.00,0.00,0.89,-4,0,-2,73,0
'[17:04:00.260 23/10/2025]',-78237.77,-160743.5,-133798.6,-132602.3,-153053.7,-158861.1,-79452.94,-105112.6,0.00,0.00,0.89,-4,0,-2,73,0
'[17:04:00.264 23/10/2025]',-73348.09,-155809.8,-129161.9,-128350.2,-148230.2,-153328.1,-73679.84,-100999.1,0.00,0.00,0.89,-4,0,-2,73,0
'[17:04:00.268 23/10/2025]',-70522.39,-152922.5,-126365.3,-125307.6,-145316.6,-150264.6,-70617.61,-98130.41,0.00,0.00,0.89,-4,0,-2,73,0
'[17:04:00.272 23/10/2025]',-74896.85,-157333.4,-130496.3,-129066.7,-149616.3,-155213.2,-75799.68,-101755.2,0.00,0.00,0.89,-4,0,-2,73,0
'[17:04:00.276 23/10/2025]',-78383.5,-160885.3,-133917.7,-132645.1,-153174.5,-159042.8,-79667.29,-105156.1,0.00,0.00,0.89,-4,0,-2,73,0
'[17:04:00.280 23/10/2025]',-74353.97,-156832.5,-130133.6,-129296.2,-149236.2,-154458.6,-74842.18,-101900.4,0.00,0.00,0.89,-4,0,-2,73,0
'[17:04:00.284 23/10/2025]',-70411.3,-152820.9,-126281.4,-125297.9,-145226.4,-150127.8,-70472.32,-98109.98,0.00,0.00,0.89,-4,0,-2,73,0
'[17:04:00.288 23/10/2025]',-73921.95,-156349.4,-129561.6,-128170.9,-148640.5,-154131.7,-74682.45,-100899.7,0.00,-0.02,0.89,-4,0,-2,73,0
'[17:04:00.292 23/10/2025]',-78291.09,-160789.4,-133803.7,-132472.3,-153052.5,-158960.1,-79583.7,-104994,0.00,-0.02,0.89,-4,0,-2,73,0
'[17:04:00.296 23/10/2025]',-75370.57,-157864.5,-131104.3,-130227.7,-150245.1,-155604.9,-76004.78,-102796.4,0.00,-0.02,0.89,-4,0,-2,73,0
'[17:04:00.300 23/10/2025]',-70556.63,-152974,-126442.1,-125526.2,-145387.8,-150272.7,-70560.34,-98315.13,0.00,-0.02,0.89,-4,0,-2,73,0
'[17:04:00.304 23/10/2025]',-72985.87,-155406.8,-128673,-127332.3,-147711.8,-153084.8,-73586.14,-100084.5,0.00,-0.02,0.89,-4,0,-2,73,0
'[17:04:00.308 23/10/2025]',-77956.89,-160444.7,-133466.2,-132082.5,-152705,-158604.9,-79251.68,-104625.8,0.00,-0.02,0.89,-4,0,-2,73,0
'[17:04:00.312 23/10/2025]',-76314.27,-158813.9,-132004.5,-131061.8,-151180,-156670.3,-77118.16,-103590.5,0.00,-0.02,0.89,-4,0,-2,73,0
'[17:04:00.316 23/10/2025]',-70928.79,-153352,-126820.2,-125952.7,-145777.7,-150668.4,-70948.99,-98707.8,0.00,-0.02,0.89,-4,0,-2,73,0
'[17:04:00.320 23/10/2025]',-72111.46,-154520.5,-127849.9,-126565.9,-146856.7,-152106.6,-72559.35,-99358.46,0.00,-0.02,0.89,-4,0,-2,73,0
'[17:04:00.324 23/10/2025]',-77402.26,-159876.8,-132918,-131497.2,-152135.4,-157999.3,-78626.46,-104056,0.00,0.00,0.89,-4,0,-2,73,0
'[17:04:00.328 23/10/2025]',-77145.08,-159648.7,-132783.7,-131764.6,-151991.9,-157607.2,-78101.64,-104258.2,0.00,0.00,0.89,-4,0,-2,73,0
'[17:04:00.332 23/10/2025]',-71550.3,-153983.9,-127428.1,-126599.6,-146411.3,-151345.6,-71624.2,-99317.91,0.00,0.00,0.89,-4,0,-2,73,0
'[17:04:00.336 23/10/2025]',-71401.26,-153803.7,-127181.3,-125964.1,-146161.9,-151290.2,-71731.93,-98746.52,0.00,0.00,0.89,-4,0,-2,73,0
'[17:04:00.340 23/10/2025]',-76689.59,-159151.1,-132225.8,-130783.4,-151416.9,-157212.6,-77857.29,-103369.4,0.00,0.00,0.89,-4,0,-2,73,0
'[17:04:00.344 23/10/2025]',-77781.16,-160288.7,-133381.3,-132279.5,-152615.8,-158345.3,-78877.56,-104770.7,0.00,0.00,0.89,-4,0,-2,73,0
'[17:04:00.348 23/10/2025]',-72335.74,-154780,-128183.7,-127382,-147203.2,-152212.7,-72497.66,-100056.5,0.00,0.00,0.89,-4,0,-2,73,0
'[17:04:00.352 23/10/2025]',-70833.84,-153231.1,-126643.4,-125511.7,-145600.4,-150643.6,-71012.34,-98306.14,0.00,0.00,0.89,-4,0,-2,73,0
'[17:04:00.356 23/10/2025]',-75830.84,-158278.4,-131393.3,-129952.5,-150546.6,-156267,-76870.28,-102581.4,0.00,0.00,0.89,-4,0,-2,73,0
'[17:04:00.360 23/10/2025]',-78195.07,-160703.3,-133758.7,-132574,-153002.5,-158826,-79394.24,-105052.7,0.00,0.00,0.89,-4,0,-2,73,0
'[17:04:00.364 23/10/2025]',-73278.59,-155740.3,-129093.8,-128294.1,-148154.7,-153259.3,-73592.76,-100908.5,0.00,0.00,0.89,-4,0,-2,73,0
'[17:04:00.368 23/10/2025]',-70508.44,-152907.9,-126346,-125297.2,-145297.8,-150257.4,-70615.77,-98089.24,0.00,0.00,0.89,-4,0,-2,73,0
'[17:04:00.372 23/10/2025]',-74915.53,-157351.5,-130509.8,-129091.2,-149624.5,-155245.2,-75809.52,-101756.8,0.00,0.00,0.89,-4,0,-2,73,0
'[17:04:00.376 23/10/2025]',-78380.63,-160878.5,-133914.3,-132654.6,-153165.2,-159049.5,-79647.35,-105141.3,0.00,0.00,0.89,-4,0,-2,73,0
'[17:04:00.380 23/10/2025]',-74308.46,-156774.1,-130079,-129260.8,-149181.9,-154412,-74755.23,-101857.2,0.00,0.00,0.89,-4,0,-2,73,0
'[17:04:00.384 23/10/2025]',-70404.46,-152796.3,-126257.8,-125290.3,-145207.3,-150123.2,-70421.54,-98087.81,0.00,0.00,0.89,-4,0,-2,73,0
'[17:04:00.388 23/10/2025]',-73959.87,-156375.8,-129594,-128208.8,-148674.6,-154173.9,-74721.97,-100882.2,0.00,0.00,0.89,-4,0,-2,73,0
'[17:04:00.392 23/10/2025]',-78298.34,-160786.5,-133817.5,-132488.4,-153067.6,-158972.6,-79607.57,-104967.9,0.00,0.00,0.89,-4,0,-2,73,0
'[17:04:00.396 23/10/2025]',-75335.93,-157815,-131063.2,-130196.9,-150211.4,-155563,-75970.41,-102730,0.00,0.00,0.89,-4,0,-2,73,0
'[17:04:00.400 23/10/2025]',-70547.96,-152948.8,-126412,-125509,-145373.4,-150257.4,-70557.57,-98269.71,0.00,0.00,0.89,-4,0,-2,73,0
'[17:04:00.404 23/10/2025]',-73023.19,-155429.4,-128698.4,-127363.1,-147748.6,-153125.8,-73645.46,-100080.7,0.00,0.00,0.89,-4,0,-2,73,0
'[17:04:00.408 23/10/2025]',-77981.21,-160457.4,-133489.6,-132108.8,-152728,-158633.1,-79266.03,-104608.6,0.00,0.00,0.89,-4,0,-2,73,0
'[17:04:00.412 23/10/2025]',-76299.95,-158783.3,-131980.1,-131046.7,-151163.9,-156653.6,-77090.45,-103544.6,0.00,0.00,0.89,-4,0,-2,73,0
'[17:04:00.416 23/10/2025]',-70934.2,-153334.8,-126798.8,-125942.7,-145774.1,-150666.5,-70937.91,-98671.02,0.00,0.00,0.89,-4,0,-2,73,0
'[17:04:00.420 23/10/2025]',-72177.71,-154568,-127898.1,-126614.9,-146912.5,-152169.1,-72621.98,-99368.34,0.00,0.00,0.89,-4,0,-2,73,0
'[17:04:00.424 23/10/2025]',-77465.55,-159925.3,-132985.3,-131558.4,-152203.6,-158071.9,-78704.65,-104104.5,0.00,0.00,0.89,-4,0,-2,73,0
'[17:04:00.428 23/10/2025]',-77146.87,-159635.6,-132789.1,-131771.8,-152001.5,-157616.9,-78102.63,-104263.6,0.00,0.00,0.89,-4,0,-2,73,0
'[17:04:00.432 23/10/2025]',-71537.74,-153946.7,-127401.5,-126579.8,-146399.1,-151331,-71626.12,-99287.83,0.00,-0.02,0.89,-4,0,-2,73,0
'[17:04:00.436 23/10/2025]',-71443.64,-153825.5,-127211.8,-126000,-146195.9,-151344,-71749.86,-98774.05,0.00,-0.02,0.89,-4,0,-2,73,0
'[17:04:00.440 23/10/2025]',-76755.3,-159203.4,-132292.9,-130847.6,-151475.6,-157285.5,-77906.6,-103396.6,0.00,-0.02,0.89,-4,0,-2,73,0
'[17:04:00.444 23/10/2025]',-77811.16,-160305,-133413,-132314.6,-152639.4,-158375.4,-78890.57,-104766.7,0.00,-0.02,0.89,-4,0,-2,73,0
'[17:04:00.448 23/10/2025]',-72332.79,-154762.7,-128176.1,-127378.3,-147195,-152202.7,-72485.95,-100005.5,0.00,-0.02,0.89,-4,0,-2,73,0
'[17:04:00.452 23/10/2025]',-70874.2,-153257.4,-126679.4,-125546.5,-145639.5,-150684,-71048.99,-98311.15,0.00,-0.02,0.89,-4,0,-2,73,0
'[17:04:00.456 23/10/2025]',-75899.15,-158334.5,-131462.3,-130019.2,-150614,-156335.1,-76934.21,-102609.2,0.00,-0.02,0.89,-4,0,-2,73,0
'[17:04:00.460 23/10/2025]',-78239.46,-160734,-133809,-132624.9,-153053.3,-158872.6,-79445.38,-105068.7,0.00,-0.02,0.89,-4,0,-2,73,0
'[17:04:00.464 23/10/2025]',-73271.66,-155715.5,-129088.6,-128291.1,-148151,-153250.7,-73577.88,-100880.9,0.00,-0.02,0.89,-4,0,-2,73,0
'[17:04:00.468 23/10/2025]',-70514.79,-152895.8,-126354.7,-125302.4,-145307.4,-150268.4,-70613.77,-98066.76,0.00,-0.02,0.89,-4,0,0,73,0
'[17:04:00.472 23/10/2025]',-74977.05,-157397.5,-130576.7,-129150.4,-149695.5,-155318.1,-75891.95,-101788.4,0.00,-0.02,0.89,-4,0,0,73,0
'[17:04:00.476 23/10/2025]',-78430.88,-160921.1,-133978,-132712,-153228.3,-159112.7,-79717.45,-105165.9,0.00,-0.02,0.89,-4,0,0,73,0
'[17:04:00.480 23/10/2025]',-74296.3,-156749.6,-130086.7,-129257.6,-149186.2,-154404,-74763.14,-101798.2,0.00,-0.02,0.89,-4,0,0,73,0
'[17:04:00.484 23/10/2025]',-70385.41,-152766.4,-126261.6,-125278.8,-145207.8,-150115.1,-70416.66,-98031.84,0.00,-0.02,0.89,-4,0,0,73,0
'[17:04:00.488 23/10/2025]',-73993.26,-156409.9,-129638.2,-128243.6,-148717.3,-154221.6,-74762.29,-100906.5,0.00,-0.02,0.89,-4,0,0,73,0
'[17:04:00.492 23/10/2025]',-78353.81,-160847.6,-133869.8,-132537.9,-153113.1,-159023.3,-79651.65,-104990.4,0.00,-0.02,0.89,-4,0,0,73,0
'[17:04:00.496 23/10/2025]',-75322.78,-157804.4,-131052.3,-130185.1,-150190.9,-155539.8,-75941.03,-102683.7,0.00,-0.02,0.89,-4,0,0,73,0
'[17:04:00.500 23/10/2025]',-70521.49,-152923.1,-126393.7,-125483.9,-145342.3,-150227.4,-70511.75,-98204.27,0.00,-0.02,0.89,-4,0,0,73,0
'[17:04:00.504 23/10/2025]',-73051.94,-155465.9,-128738,-127397.4,-147776,-153164.1,-73655.08,-100086.2,0.00,-0.02,0.89,-4,0,-2,73,0
'[17:04:00.508 23/10/2025]',-78030.88,-160517,-133555.2,-132175,-152785.9,-158702.2,-79334.7,-104653.2,0.00,-0.02,0.89,-4,0,-2,73,0
'[17:04:00.512 23/10/2025]',-76279.08,-158780.5,-131979.2,-131057,-151152.5,-156649.6,-77081.82,-103524.6,0.00,-0.02,0.89,-4,0,-2,73,0
'[17:04:00.516 23/10/2025]',-70874.79,-153295.7,-126752.3,-125910.4,-145714.1,-150623.2,-70890.61,-98606.55,0.00,-0.02,0.89,-4,0,-2,73,0
'[17:04:00.520 23/10/2025]',-72165.38,-154577,-127900.2,-126629.4,-146902.7,-152186.7,-72631.14,-99356.14,0.00,-0.02,0.89,-4,0,-2,73,0
'[17:04:00.524 23/10/2025]',-77477.31,-159960.7,-133011.1,-131596.4,-152212.6,-158108.3,-78728.02,-104108.1,0.00,-0.02,0.89,-4,0,-2,73,0
'[17:04:00.528 23/10/2025]',-77112.89,-159627.7,-132769.3,-131770.4,-151968.8,-157596.3,-78085.64,-104206.9,0.00,-0.02,0.89,-4,0,-2,73,0
'[17:04:00.532 23/10/2025]',-71473.91,-153912.3,-127340.9,-126538.2,-146327.1,-151269.5,-71554.59,-99183.05,0.00,-0.02,0.89,-4,0,-2,73,0
'[17:04:00.536 23/10/2025]',-71422.8,-153834.8,-127195.7,-125994.5,-146171.9,-151330.1,-71751.34,-98709.55,0.00,-0.02,0.89,-4,0,-2,73,0
'[17:04:00.540 23/10/2025]',-76759.33,-159235.3,-132311.8,-130877.1,-151488.8,-157311.5,-77937.05,-103394.4,0.00,-0.02,0.91,-4,0,-2,73,0
'[17:04:00.544 23/10/2025]',-77779.64,-160302.1,-133400.2,-132315.4,-152623.8,-158362.1,-78900.05,-104732.1,0.00,-0.02,0.91,-4,0,-2,73,0
'[17:04:00.548 23/10/2025]',-72266.72,-154722.8,-128119.2,-127338.4,-147135.8,-152150.2,-72444.82,-99937.38,0.00,-0.02,0.91,-4,0,-2,73,0
'[17:04:00.552 23/10/2025]',-70851.77,-153262.4,-126662.5,-125542.4,-145614.8,-150677.8,-71042.73,-98264.84,0.00,-0.02,0.91,-4,0,-2,73,0
'[17:04:00.556 23/10/2025]',-75896.11,-158361.8,-131472.2,-130039.5,-150608.2,-156352,-76942.88,-102577.9,0.00,-0.02,0.91,-4,0,-2,73,0
'[17:04:00.560 23/10/2025]',-78196.37,-160721.8,-133784.5,-132611.5,-153011.5,-158847.5,-79408.46,-105016.8,0.00,-0.02,0.91,-4,0,-2,73,0
'[17:04:00.564 23/10/2025]',-73194.98,-155669,-129022.3,-128235.5,-148069.4,-153185.5,-73487.7,-100803.1,0.00,-0.02,0.91,-4,0,-2,73,0
'[17:04:00.568 23/10/2025]',-70488.19,-152898.4,-126332.4,-125284.7,-145273.4,-150253.9,-70596.87,-98020.94,0.00,-0.02,0.91,-4,0,-2,73,0
'[17:04:00.572 23/10/2025]',-74966.05,-157417.1,-130581.6,-129155.1,-149683,-155319.6,-75900.17,-101735.1,0.00,-0.02,0.91,-4,0,-2,73,0
'[17:04:00.576 23/10/2025]',-78382.73,-160902.3,-133949.6,-132687.3,-153180.5,-159070.1,-79679.85,-105086.5,0.00,-0.02,0.89,-4,0,-2,73,0
'[17:04:00.580 23/10/2025]',-74211.63,-156698.8,-130006.2,-129193.6,-149096,-154320.6,-74672.34,-101712.7,0.00,-0.02,0.89,-4,0,-2,73,0
'[17:04:00.584 23/10/2025]',-70361.59,-152777.1,-126227.8,-125260.9,-145163.8,-150091,-70386.58,-97984.23,0.00,-0.02,0.89,-4,0,-2,73,0
'[17:04:00.588 23/10/2025]',-74006.09,-156446.2,-129659.6,-128275.7,-148722.4,-154257.3,-74785.54,-100903.1,0.00,-0.02,0.89,-4,0,-2,73,0
'[17:04:00.592 23/10/2025]',-78310.45,-160823.7,-133860.1,-132538.1,-153087.1,-159017.7,-79639.45,-104947.8,0.00,-0.02,0.89,-4,0,-2,73,0
'[17:04:00.596 23/10/2025]',-75247.41,-157748.1,-131000.5,-130148.9,-150128.3,-155486.4,-75889.63,-102602.7,0.00,-0.02,0.89,-4,0,-2,73,0
'[17:04:00.600 23/10/2025]',-70489.76,-152909.6,-126372.1,-125480.8,-145318.3,-150217.1,-70521.09,-98164.52,0.00,-0.02,0.89,-4,0,-2,73,0
'[17:04:00.604 23/10/2025]',-73057.97,-155486.9,-128754.6,-127424,-147783.8,-153194.2,-73697.23,-100059.3,0.00,-0.02,0.89,-4,0,-2,73,0
'[17:04:00.608 23/10/2025]',-77970.7,-160473.3,-133516.7,-132140.5,-152728.9,-158662.3,-79287.09,-104566.2,0.00,-0.02,0.89,-4,0,-2,73,0
'[17:04:00.612 23/10/2025]',-76199.38,-158713.2,-131915.6,-130999.8,-151071.3,-156579.2,-77000.69,-103424.4,0.00,0.00,0.89,-4,0,-2,73,0
'[17:04:00.616 23/10/2025]',-70869.65,-153302.2,-126755.6,-125920,-145708.3,-150626.6,-70895.22,-98573.6,0.00,0.00,0.89,-4,0,-2,73,0
'[17:04:00.620 23/10/2025]',-72196.58,-154617.5,-127936,-126666.5,-146929.1,-152220.3,-72675.4,-99337.32,0.00,0.00,0.89,-4,0,-2,73,0
'[17:04:00.624 23/10/2025]',-77449.46,-159939.1,-132999.9,-131580.1,-152186.4,-158080.4,-78704.34,-104021,0.00,0.00,0.89,-4,0,-2,73,0
'[17:04:00.628 23/10/2025]',-77046.2,-159561.2,-132717.4,-131717.6,-151898.7,-157526.7,-77999.94,-104109.6,0.00,0.00,0.89,-4,0,-2,73,0
'[17:04:00.632 23/10/2025]',-71448.78,-153887.2,-127326.8,-126525.4,-146301.9,-151244.7,-71531.48,-99136.33,0.00,0.00,0.89,-4,0,-2,73,0
'[17:04:00.636 23/10/2025]',-71447.3,-153860.1,-127230.1,-126023.3,-146192.3,-151358.8,-71781.02,-98693.95,0.00,0.00,0.89,-4,0,-2,73,0
'[17:04:00.640 23/10/2025]',-76735.37,-159207.1,-132302.6,-130856.9,-151461.6,-157289.9,-77911.74,-103331.7,0.00,0.00,0.89,-4,0,-2,73,0
'[17:04:00.644 23/10/2025]',-77708.83,-160227.3,-133346.1,-132250.4,-152549.8,-158285.1,-78820.48,-104630.1,0.00,0.00,0.89,-4,0,-2,73,0
'[17:04:00.648 23/10/2025]',-72258.98,-154714.3,-128120.5,-127331.5,-147123.4,-152135.6,-72440.39,-99898.39,0.00,-0.02,0.88,-4,0,-2,73,0
'[17:04:00.652 23/10/2025]',-70909.34,-153315.9,-126729.5,-125597.9,-145672.3,-150738.8,-71123.52,-98291.97,0.00,-0.02,0.88,-4,0,-2,73,0
'[17:04:00.656 23/10/2025]',-75908.84,-158364.1,-131503.6,-130052.5,-150631.8,-156376.2,-76986.7,-102575.5,0.00,-0.02,0.88,-4,0,-2,73,0
'[17:04:00.660 23/10/2025]',-78139.51,-160655,-133746.5,-132560.7,-152961.9,-158787.7,-79365.14,-104915.1,0.00,-0.02,0.88,-4,0,-2,73,0
'[17:04:00.664 23/10/2025]',-73181.66,-155653.2,-129018.2,-128231.6,-148053.3,-153164.9,-73478.59,-100734.4,0.00,-0.02,0.88,-4,0,-2,73,0
'[17:04:00.668 23/10/2025]',-70544.88,-152957.3,-126393.4,-125349.3,-145322,-150310.7,-70645.41,-98025.41,0.00,-0.02,0.88,-4,0,-2,73,0
'[17:04:00.672 23/10/2025]',-74963.55,-157412.7,-130591.5,-129162.5,-149678.8,-155326.8,-75888.64,-101703.4,0.00,-0.02,0.88,-4,0,-2,73,0
'[17:04:00.676 23/10/2025]',-78299.68,-160812.2,-133883,-132618.3,-153099,-158998.3,-79589.06,-104990.6,0.00,-0.02,0.88,-4,0,-2,73,0
'[17:04:00.680 23/10/2025]',-74178.69,-156665,-129981.8,-129173,-149061.2,-154293.1,-74648.21,-101652.8,0.00,-0.02,0.88,-4,0,-2,73,0
'[17:04:00.684 23/10/2025]',-70428.69,-152842.8,-126297.3,-125331.1,-145231.9,-150162.9,-70480.68,-98015.03,-0.02,0.00,0.89,-4,0,-2,73,0
'[17:04:00.688 23/10/2025]',-74026.92,-156463.7,-129691.7,-128296.1,-148750.5,-154276.6,-74818.53,-100866.9,-0.02,0.00,0.89,-4,0,-2,73,0
'[17:04:00.692 23/10/2025]',-78234.95,-160745.4,-133803.9,-132466,-153020.8,-158940.5,-79569.7,-104841.3,-0.02,0.00,0.89,-4,0,-2,73,0
'[17:04:00.696 23/10/2025]',-75192.65,-157694.2,-130953.4,-130096.9,-150070,-155428,-75821.41,-102526.6,-0.02,0.00,0.89,-4,0,-2,73,0
'[17:04:00.700 23/10/2025]',-70537.41,-152962.6,-126415.9,-125522.4,-145352.6,-150258.6,-70552.3,-98170.6,-0.02,0.00,0.89,-4,0,-2,73,0
'[17:04:00.704 23/10/2025]',-73090.11,-155519.3,-128794.9,-127452.5,-147814.1,-153227.4,-73729.77,-100056.4,-0.02,0.00,0.89,-4,0,-2,73,0
'[17:04:00.708 23/10/2025]',-77928.55,-160427.9,-133493.1,-132098.2,-152691.2,-158618,-79245.6,-104490.9,-0.02,0.00,0.89,-4,0,-2,73,0
'[17:04:00.712 23/10/2025]',-76148.32,-158661.3,-131877.3,-130952.1,-151022.7,-156521,-76958.48,-103360.5,-0.02,0.00,0.89,-4,0,-2,73,0
'[17:04:00.716 23/10/2025]',-70896.78,-153331.1,-126784.4,-125947.1,-145732.1,-150650.2,-70939.12,-98587.77,-0.02,0.00,0.89,-4,0,-2,73,0
'[17:04:00.720 23/10/2025]',-72237.08,-154657.2,-127982.5,-126701.3,-146965.6,-152260.1,-72725.24,-99325.61,-0.02,0.00,0.91,-4,0,-2,73,0
'[17:04:00.724 23/10/2025]',-77406.15,-159888.7,-132972.6,-131533.8,-152149.5,-158040.8,-78678.85,-103943.8,-0.02,0.00,0.91,-4,0,-2,73,0
'[17:04:00.728 23/10/2025]',-76983.2,-159499.9,-132668.4,-131660.8,-151844.2,-157470.5,-77957.07,-104044.1,-0.02,0.00,0.91,-4,0,-2,73,0
'[17:04:00.732 23/10/2025]',-71478.24,-153925.4,-127354.9,-126560.4,-146326.5,-151282.6,-71559.51,-99148.45,-0.02,0.00,0.91,-4,0,-2,73,0
'[17:04:00.736 23/10/2025]',-71503.72,-153920.5,-127289.1,-126086,-146248.4,-151429,-71845.74,-98724.34,-0.02,0.00,0.91,-4,0,-2,73,0
'[17:04:00.740 23/10/2025]',-76711.68,-159182.3,-132294,-130841.5,-151448.4,-157283.3,-77903.83,-103281.9,-0.02,0.00,0.91,-4,0,-2,73,0
'[17:04:00.744 23/10/2025]',-77635.92,-160155,-133285.1,-132191.4,-152483.8,-158221.1,-78752.48,-104527.9,-0.02,0.00,0.91,-4,0,-2,73,0
'[17:04:00.748 23/10/2025]',-72238.51,-154700.4,-128100.3,-127327.7,-147105,-152124.2,-72426,-99855.43,-0.02,0.00,0.91,-4,0,-2,73,0
'[17:04:00.752 23/10/2025]',-70943.77,-153361.2,-126763.1,-125642.6,-145706.8,-150785.9,-71171.44,-98293,-0.02,0.00,0.91,-4,0,-2,73,0
'[17:04:00.756 23/10/2025]',-75909.25,-158370.8,-131514.6,-130063,-150637.3,-156393,-76995.68,-102545.7,0.00,0.00,0.89,-4,0,-2,73,0
'[17:04:00.760 23/10/2025]',-78102.76,-160620.5,-133720.1,-132536.4,-152929.1,-158767.6,-79347.26,-104884.5,0.00,0.00,0.89,-4,0,-2,73,0
'[17:04:00.764 23/10/2025]',-73161.05,-155635.2,-128998.7,-128223.3,-148036.4,-153156.5,-73488.06,-100719.9,0.00,0.00,0.89,-4,0,-2,73,0
'[17:04:00.768 23/10/2025]',-70569.82,-152983,-126417.3,-125380.4,-145344.5,-150347.3,-70686.41,-98025.94,0.00,0.00,0.89,-4,0,-2,73,0
'[17:04:00.772 23/10/2025]',-75009.05,-157454.1,-130641.9,-129213.6,-149724.5,-155386.5,-75959.14,-101720.2,0.00,0.00,0.89,-4,0,-2,73,0
'[17:04:00.776 23/10/2025]',-78315.41,-160828,-133909.4,-132645.9,-153117.5,-159023.2,-79626.48,-104987.7,0.00,0.00,0.89,-4,0,-2,73,0
'[17:04:00.780 23/10/2025]',-74168.31,-156653.3,-129975.9,-129171.8,-149042.6,-154284,-74636.45,-101626,0.00,0.00,0.89,-4,0,-2,73,0
'[17:04:00.784 23/10/2025]',-70438.03,-152852.7,-126309.8,-125343.7,-145228.8,-150173.4,-70492.21,-97991.88,0.00,0.00,0.89,-4,0,-2,73,0
'[17:04:00.788 23/10/2025]',-74065.72,-156502.5,-129735.1,-128338.1,-148780.3,-154326,-74869.13,-100885.8,0.00,0.00,0.89,-4,0,-2,73,0
'[17:04:00.792 23/10/2025]',-78275.05,-160785.1,-133849,-132512.4,-153053.3,-158986,-79619.68,-104852.7,0.00,-0.02,0.89,-4,0,-2,73,0
'[17:04:00.796 23/10/2025]',-75187.78,-157694.7,-130960.3,-130107.1,-150064.9,-155431.6,-75834.1,-102509.4,0.00,-0.02,0.89,-4,0,-2,73,0
'[17:04:00.800 23/10/2025]',-70533.12,-152961.8,-126422.5,-125526.6,-145350.1,-150267.7,-70578.31,-98151.91,0.00,-0.02,0.89,-4,0,-2,73,0
'[17:04:00.804 23/10/2025]',-73129.67,-155560.1,-128839.5,-127494.1,-147853.8,-153276.1,-73777.97,-100068.2,0.00,-0.02,0.89,-4,0,-2,73,0
'[17:04:00.808 23/10/2025]',-77987.16,-160483.9,-133553.2,-132160.9,-152748.9,-158681.5,-79310.06,-104526.5,0.00,-0.02,0.89,-4,0,-2,73,0
'[17:04:00.812 23/10/2025]',-76156.15,-158667.9,-131886.8,-130964.2,-151025.5,-156526.8,-76965.37,-103337.4,0.00,-0.02,0.89,-4,0,-2,73,0
'[17:04:00.816 23/10/2025]',-70874.48,-153313.1,-126767.7,-125926.5,-145706.6,-150628.9,-70923.6,-98521.62,0.00,-0.02,0.89,-4,0,-2,73,0
'[17:04:00.820 23/10/2025]',-72260.86,-154685.5,-128010.3,-126730,-146993.8,-152296.7,-72765.88,-99333.61,0.00,-0.02,0.89,-4,0,-2,73,0
'[17:04:00.824 23/10/2025]',-77470.34,-159957.8,-133033.7,-131607.4,-152210.2,-158116.6,-78753.06,-104007.2,0.00,-0.02,0.89,-4,0,-2,73,0
'[17:04:00.828 23/10/2025]',-77001.8,-159523.9,-132689.2,-131691.6,-151857.9,-157496.2,-77985.95,-104058.4,0.00,-0.02,0.89,-4,0,-2,73,0
'[17:04:00.832 23/10/2025]',-71443.33,-153898.7,-127325.9,-126530.4,-146283,-151252.7,-71541.05,-99096.81,0.00,-0.02,0.89,-4,0,-2,73,0
'[17:04:00.836 23/10/2025]',-71513.73,-153937.4,-127299.5,-126093.8,-146247.5,-151441.1,-71871.14,-98711.6,0.00,-0.02,0.89,-4,0,-2,73,0
'[17:04:00.840 23/10/2025]',-76781.86,-159258.7,-132364.1,-130914.5,-151511.2,-157356.4,-77990.15,-103348.4,0.00,-0.02,0.89,-4,0,-2,73,0
'[17:04:00.844 23/10/2025]',-77676.06,-160201.5,-133329.5,-132238.9,-152517.4,-158261.2,-78808.49,-104577.2,0.00,-0.02,0.89,-4,0,-2,73,0
'[17:04:00.848 23/10/2025]',-72212.45,-154681,-128083.4,-127305.5,-147071,-152098.8,-72409.14,-99823.87,0.00,-0.02,0.89,-4,0,-2,73,0
'[17:04:00.852 23/10/2025]',-70933.7,-153356.9,-126762.6,-125634.9,-145693,-150783.9,-71177.07,-98275.84,0.00,-0.02,0.89,-4,0,-2,73,0
'[17:04:00.856 23/10/2025]',-75949.13,-158414.6,-131560.4,-130107.7,-150675,-156441.8,-77053.79,-102584.8,0.00,-0.02,0.89,-4,0,-2,73,0
'[17:04:00.860 23/10/2025]',-78114.25,-160638,-133741.1,-132558,-152941.2,-158777.7,-79364.74,-104872,0.00,-0.02,0.89,-4,0,-2,73,0
'[17:04:00.864 23/10/2025]',-73118.68,-155600.4,-128969.3,-128184.7,-147991.5,-153111.3,-73449.39,-100654.8,-0.02,0.00,0.89,-4,0,-2,73,0
'[17:04:00.868 23/10/2025]',-70551.8,-152972.9,-126412.8,-125359.2,-145328.7,-150334,-70696.55,-97997.64,-0.02,0.00,0.89,-4,0,-2,73,0
'[17:04:00.872 23/10/2025]',-75049.65,-157497.5,-130691.4,-129249.7,-149767,-155432.3,-76019.66,-101758,-0.02,0.00,0.89,-4,0,-2,73,0
'[17:04:00.876 23/10/2025]',-78341.38,-160858,-133945,-132674,-153142.8,-159049.6,-79662.77,-105003.4,-0.02,0.00,0.89,-4,0,-2,73,0
'[17:04:00.880 23/10/2025]',-74131.48,-156620.5,-129951.8,-129136.8,-149002,-154239.2,-74603.99,-101560.2,-0.02,0.00,0.89,-4,0,-2,73,0
'[17:04:00.884 23/10/2025]',-70408.98,-152827.9,-126293.1,-125312.9,-145195.9,-150144.8,-70480.5,-97943.46,-0.02,0.00,0.89,-4,0,-2,73,0
'[17:04:00.888 23/10/2025]',-74096.43,-156540.8,-129768.6,-128357.9,-148799.9,-154348.8,-74919.29,-100892.1,-0.02,0.00,0.89,-4,0,-2,73,0
'[17:04:00.892 23/10/2025]',-78304.91,-160820.2,-133875.7,-132531,-153064.3,-158999.2,-79646.28,-104859,-0.02,0.00,0.89,-4,0,-2,73,0
'[17:04:00.896 23/10/2025]',-75161.27,-157670.9,-130941.2,-130079.1,-150028.6,-155398.5,-75813.63,-102476.2,-0.02,0.00,0.89,-4,0,-2,73,0
'[17:04:00.900 23/10/2025]',-70498.25,-152939.5,-126404,-125496.4,-145311.9,-150235.7,-70559.45,-98099.52,0.02,0.00,0.89,-4,0,-2,73,0
'[17:04:00.904 23/10/2025]',-73147.83,-155591.1,-128869.3,-127515.8,-147866,-153301.4,-73828.84,-100069.5,0.02,0.00,0.89,-4,0,-2,73,0
'[17:04:00.908 23/10/2025]',-78010.49,-160519.4,-133592,-132196,-152768.3,-158713.8,-79348.24,-104542.9,0.02,0.00,0.89,-4,0,-2,73,0
'[17:04:00.912 23/10/2025]',-76134.02,-158660.3,-131879.8,-130954.9,-150999.2,-156508.7,-76946.37,-103308,0.02,0.00,0.89,-4,0,-2,73,0
'[17:04:00.916 23/10/2025]',-70837.41,-153289.2,-126743.9,-125896.7,-145666.8,-150597.3,-70902.5,-98469.45,0.02,0.00,0.89,-4,0,-2,73,0
'[17:04:00.920 23/10/2025]',-72270.52,-154707.1,-128035,-126746.3,-147003.6,-152317,-72812.33,-99333.83,0.02,0.00,0.89,-4,0,-2,73,0
'[17:04:00.924 23/10/2025]',-77503.11,-160000.1,-133088.8,-131652.4,-152247.6,-158161.2,-78813.9,-104038.6,0.02,0.00,0.89,-4,0,-2,73,0
'[17:04:00.928 23/10/2025]',-76980.79,-159510.1,-132690.4,-131682.9,-151838.2,-157475,-77968.07,-104026.8,0.02,0.00,0.89,-4,0,-2,73,0
'[17:04:00.932 23/10/2025]',-71397.28,-153859.5,-127295.1,-126487,-146234.5,-151200.7,-71506.27,-99027.7,0.02,0.00,0.89,-4,0,-2,73,0
'[17:04:00.936 23/10/2025]',-71512.8,-153944.7,-127314.5,-126096,-146248.1,-151450.5,-71901.8,-98701.45,0.00,-0.02,0.89,-4,0,-2,73,0
'[17:04:00.940 23/10/2025]',-76814.41,-159303.2,-132412.3,-130953.1,-151543.8,-157398.5,-78059.22,-103369.2,0.00,-0.02,0.89,-4,0,-2,73,0
'[17:04:00.944 23/10/2025]',-77666.14,-160201.6,-133332.6,-132234.2,-152498,-158250.7,-78790.97,-104551.9,0.00,-0.02,0.89,-4,0,-2,73,0
'[17:04:00.948 23/10/2025]',-72164.03,-154639.8,-128043.4,-127251.7,-147006.5,-152042.8,-72343.92,-99756.1,0.00,-0.02,0.89,-4,0,-2,73,0
'[17:04:00.952 23/10/2025]',-70924.9,-153350.4,-126757.6,-125613,-145663.2,-150761,-71159.41,-98222.28,0.00,-0.02,0.89,-4,0,-2,73,0
'[17:04:00.956 23/10/2025]',-75988.73,-158457.2,-131602.6,-130137.9,-150694.4,-156465.2,-77085.76,-102574.9,0.00,-0.02,0.89,-4,0,-2,73,0
'[17:04:00.960 23/10/2025]',-78136.2,-160664.3,-133765.7,-132574.8,-152940.6,-158782.9,-79359.15,-104874.8,0.00,-0.02,0.89,-4,0,-2,73,0
'[17:04:00.964 23/10/2025]',-73093.24,-155577.3,-128946.1,-128150.4,-147945.2,-153068.6,-73400.63,-100605.7,0.00,-0.02,0.89,-4,0,-2,73,0
'[17:04:00.968 23/10/2025]',-70553.15,-152977.8,-126411.9,-125350.7,-145309.6,-150325.7,-70687.79,-97963.98,0.00,-0.02,0.89,-4,0,-2,73,0
'[17:04:00.972 23/10/2025]',-75071.69,-157531.5,-130711.1,-129269.5,-149771.8,-155446.1,-76040.14,-101735.4,0.00,-0.02,0.91,-4,0,-2,73,0
'[17:04:00.976 23/10/2025]',-78344.25,-160873.4,-133945.5,-132679.4,-153132.5,-159044.5,-79659.34,-104985.3,0.00,-0.02,0.91,-4,0,-2,73,0
'[17:04:00.980 23/10/2025]',-74097.46,-156600.9,-129916.6,-129106.7,-148960.7,-154206.1,-74573.95,-101531.4,0.00,-0.02,0.91,-4,0,-2,73,0
'[17:04:00.984 23/10/2025]',-70396.68,-152830.1,-126276.5,-125300.7,-145177.9,-150133.1,-70478.04,-97902.29,0.00,-0.02,0.91,-4,0,-2,73,0
'[17:04:00.988 23/10/2025]',-74109.66,-156561.8,-129781.9,-128382.3,-148811.7,-154372.6,-74946.83,-100880.3,0.00,-0.02,0.91,-4,0,-2,73,0
'[17:04:00.992 23/10/2025]',-78296.68,-160817.5,-133879.2,-132548.4,-153064.2,-159010.2,-79663.98,-104851,0.00,-0.02,0.91,-4,0,-2,73,0
'[17:04:00.996 23/10/2025]',-75126.27,-157643.4,-130908.9,-130058,-149987,-155364.2,-75782.34,-102431.2,0.00,-0.02,0.91,-4,0,-2,73,0
'[17:04:01.000 23/10/2025]',-70489.71,-152932.8,-126387.8,-125486.5,-145287.9,-150225.8,-70550.2,-98089.15,0.00,-0.02,0.91,-4,0,-2,73,0
'[17:04:01.004 23/10/2025]',-73157.75,-155602.4,-128876.3,-127528.1,-147866.8,-153312.2,-73861.6,-100069.1,0.00,-0.02,0.91,-4,0,-2,73,0
'[17:04:01.008 23/10/2025]',-78006.96,-160521.3,-133583.9,-132196.1,-152748.5,-158701.1,-79354.99,-104512.3,0.00,-0.02,0.89,-4,0,-2,73,0
'[17:04:01.012 23/10/2025]',-76092.13,-158620,-131832.7,-130914.6,-150936,-156446.5,-76893.62,-103234.7,0.00,-0.02,0.89,-4,0,-2,73,0
'[17:04:01.016 23/10/2025]',-70823.16,-153274.9,-126720.4,-125873.6,-145625.3,-150565.2,-70875.99,-98428.49,0.00,-0.02,0.89,-4,0,-2,73,0
'[17:04:01.020 23/10/2025]',-72297.2,-154731,-128049.9,-126759.9,-147000.4,-152331,-72817.06,-99322.84,0.00,-0.02,0.89,-4,0,-2,73,0
'[17:04:01.024 23/10/2025]',-77521.66,-160017.1,-133095.1,-131661,-152239.3,-158163.8,-78810.95,-104013,0.00,-0.02,0.89,-4,0,-2,73,0
'[17:04:01.028 23/10/2025]',-76972.21,-159498.4,-132669.3,-131663.8,-151801.7,-157442.6,-77944.29,-103969.9,0.00,-0.02,0.89,-4,0,-2,73,0
'[17:04:01.032 23/10/2025]',-71410.42,-153865.7,-127300.2,-126487.8,-146227,-151201.5,-71516.77,-99012.99,0.00,-0.02,0.89,-4,0,-2,73,0
'[17:04:01.036 23/10/2025]',-71555.66,-153981.6,-127347.5,-126125.9,-146271.4,-151485.2,-71941.45,-98718.35,0.00,-0.02,0.89,-4,0,-2,73,0
'[17:04:01.040 23/10/2025]',-76837.92,-159320.9,-132428.5,-130970.8,-151547.6,-157413.5,-78066.46,-103357.4,0.00,-0.02,0.89,-4,0,-2,73,0
'[17:04:01.044 23/10/2025]',-77649.87,-160183.2,-133314.6,-132222.5,-152471.8,-158230,-78784.8,-104515.1,0.00,-0.02,0.91,-4,0,-2,73,0
'[17:04:01.048 23/10/2025]',-72148.26,-154625.9,-128029.2,-127243.8,-146986.8,-152030.9,-72349.91,-99730.84,0.00,-0.02,0.91,-4,0,-2,73,0
'[17:04:01.052 23/10/2025]',-70949.3,-153381.6,-126784.4,-125647.4,-145691.3,-150806.9,-71226.06,-98254.16,0.00,-0.02,0.91,-4,0,-2,73,0
'[17:04:01.056 23/10/2025]',-76013.9,-158488.6,-131630.9,-130176.9,-150726.7,-156515.9,-77164.66,-102611.4,0.00,-0.02,0.91,-4,0,-2,73,0
'[17:04:01.060 23/10/2025]',-78113.04,-160644.8,-133751.5,-132574.9,-152928.2,-158786.2,-79375.55,-104876.5,0.00,-0.02,0.91,-4,0,-2,73,0
'[17:04:01.064 23/10/2025]',-73053.01,-155540.4,-128914.6,-128130.3,-147907.1,-153043.5,-73380.64,-100562.6,0.00,-0.02,0.91,-4,0,-2,73,0
'[17:04:01.068 23/10/2025]',-70552.92,-152981.2,-126423.1,-125363.6,-145314.9,-150340.7,-70719.17,-97953.56,0.00,-0.02,0.91,-4,0,-2,73,0
'[17:04:01.072 23/10/2025]',-75089.38,-157550.3,-130740.3,-129298.1,-149801.1,-155483.2,-76102.14,-101755.6,0.00,-0.02,0.91,-4,0,-2,73,0
'[17:04:01.076 23/10/2025]',-78326.86,-160853.3,-133940.7,-132674.5,-153124.6,-159036.6,-79674.22,-104964.1,0.00,-0.02,0.91,-4,0,-2,73,0
'[17:04:01.080 23/10/2025]',-74055.88,-156557.1,-129882.9,-129072.9,-148918,-154162.2,-74548.56,-101473.3,0.00,-0.02,0.89,-4,0,-2,73,0
'[17:04:01.084 23/10/2025]',-70391.23,-152824.3,-126277.6,-125300.2,-145170.5,-150137.1,-70496.38,-97892.63,0.00,-0.02,0.89,-4,0,-2,73,0
'[17:04:01.088 23/10/2025]',-74135.19,-156584.6,-129813.6,-128411,-148839.5,-154410.2,-74989.97,-100907.1,0.00,-0.02,0.89,-4,0,-2,73,0
'[17:04:01.092 23/10/2025]',-78303.74,-160819.1,-133891.5,-132557.6,-153072,-159020.4,-79673.95,-104856.5,0.00,-0.02,0.89,-4,0,-2,73,0
'[17:04:01.096 23/10/2025]',-75092.43,-157600.3,-130878.3,-130023.6,-149953,-155322.5,-75751.36,-102384.3,0.00,-0.02,0.89,-4,0,-2,73,0
'[17:04:01.100 23/10/2025]',-70487.21,-152919.5,-126381.7,-125472.7,-145277.7,-150210.9,-70552.88,-98043.11,0.00,-0.02,0.89,-4,0,-2,73,0
'[17:04:01.104 23/10/2025]',-73209.96,-155644,-128923.5,-127566.6,-147910.2,-153358.4,-73911.98,-100081.5,0.00,-0.02,0.89,-4,0,-2,73,0
'[17:04:01.108 23/10/2025]',-78035.16,-160536.6,-133611.2,-132216.7,-152778.3,-158725.2,-79402.83,-104526.3,0.00,-0.02,0.89,-4,0,-2,73,0
'[17:04:01.112 23/10/2025]',-76075.14,-158588.8,-131818.7,-130894.4,-150927.3,-156427.3,-76904.13,-103214.7,0.00,-0.02,0.89,-4,0,-2,73,0
'[17:04:01.116 23/10/2025]',-70824.9,-153262.6,-126719.9,-125868,-145627.6,-150564.1,-70885.38,-98409.63,0.00,0.00,0.91,-4,0,-2,73,0
'[17:04:01.120 23/10/2025]',-72331.45,-154756.3,-128078,-126786.3,-147034.8,-152363.2,-72875.71,-99336.24,0.00,0.00,0.91,-4,0,-2,73,0
'[17:04:01.124 23/10/2025]',-77534.66,-160022.6,-133101.7,-131672.1,-152255,-158177.1,-78852.26,-104022.2,0.00,0.00,0.91,-4,0,-2,73,0
'[17:04:01.128 23/10/2025]',-76937.88,-159457.7,-132627.3,-131632.5,-151771.2,-157407.3,-77918.71,-103942.4,0.00,0.00,0.91,-4,0,-2,73,0
'[17:04:01.132 23/10/2025]',-71374.44,-153822.1,-127251,-126451.1,-146189,-151156.6,-71480.07,-98952.6,0.00,0.00,0.91,-4,0,-2,73,0
'[17:04:01.136 23/10/2025]',-71561.08,-153980.8,-127339,-126130.2,-146275.8,-151489.3,-71964.48,-98700.65,0.00,0.00,0.91,-4,0,-2,73,0
'[17:04:01.140 23/10/2025]',-76840.2,-159318,-132415.5,-130974.4,-151548.1,-157416.5,-78082.73,-103352.5,0.00,0.00,0.91,-4,0,-2,73,0
'[17:04:01.144 23/10/2025]',-77612.36,-160140.4,-133264.3,-132189.4,-152432,-158182.6,-78754.54,-104450.7,0.00,0.00,0.91,-4,0,-2,73,0
'[17:04:01.148 23/10/2025]',-72127.02,-154595.9,-127991.6,-127220.4,-146959.9,-151996.1,-72339.36,-99675.41,0.00,0.00,0.91,-4,0,-2,73,0
'[17:04:01.152 23/10/2025]',-70973.76,-153400.4,-126793.6,-125670.8,-145709.8,-150827.4,-71255.13,-98250.27,-0.02,-0.02,0.89,-4,0,-2,73,0
'[17:04:01.156 23/10/2025]',-76030.71,-158503.6,-131633.3,-130195.1,-150733.5,-156526.2,-77179.27,-102594.5,-0.02,-0.02,0.89,-4,0,-2,73,0
'[17:04:01.160 23/10/2025]',-78096.14,-160626,-133716.9,-132557.3,-152895.6,-158751.6,-79364.16,-104818,-0.02,-0.02,0.89,-4,0,-2,73,0
'[17:04:01.164 23/10/2025]',-73040.36,-155525.8,-128881.5,-128114.6,-147879.1,-153019.1,-73377.55,-100536.3,-0.02,-0.02,0.89,-4,0,-2,73,0
'[17:04:01.168 23/10/2025]',-70582.7,-153006.8,-126428,-125385,-145325.5,-150363.5,-70757.53,-97964.16,-0.02,-0.02,0.89,-4,0,-2,73,0
'[17:04:01.172 23/10/2025]',-75128.05,-157582.8,-130754.1,-129332,-149818.5,-155513.9,-76151.09,-101767.8,-0.02,-0.02,0.89,-4,0,-2,73,0
'[17:04:01.176 23/10/2025]',-78333.88,-160855.1,-133926.8,-132683.3,-153110.2,-159034.5,-79691.61,-104948.5,-0.02,-0.02,0.89,-4,0,-2,73,0
'[17:04:01.180 23/10/2025]',-74050.97,-156546.3,-129863.1,-129067.9,-148896.4,-154149.3,-74542.3,-101448.4,-0.02,-0.02,0.89,-4,0,-2,73,0
'[17:04:01.184 23/10/2025]',-70429.18,-152851.3,-126303.1,-125333.6,-145196,-150171.5,-70536.47,-97909.45,-0.02,-0.02,0.89,-4,0,-2,73,0
'[17:04:01.188 23/10/2025]',-74182.17,-156622,-129846.8,-128454.3,-148870.3,-154453.5,-75052.33,-100927.2,0.00,0.00,0.89,-4,0,-2,73,0
'[17:04:01.192 23/10/2025]',-78318.32,-160827.5,-133895.3,-132573.7,-153069.9,-159027.9,-79696.66,-104848,0.00,0.00,0.89,-4,0,-2,73,0
'[17:04:01.196 23/10/2025]',-75081.38,-157584.6,-130858.3,-130011,-149925.2,-155302.8,-75740.98,-102349.2,0.00,0.00,0.89,-4,0,-2,73,0
'[17:04:01.200 23/10/2025]',-70502.59,-152929.9,-126388.6,-125484.4,-145278.2,-150225.3,-70566.87,-98040.56,0.00,0.00,0.89,-4,0,-2,73,0
'[17:04:01.204 23/10/2025]',-73228.29,-155659.6,-128935,-127586.3,-147916.4,-153380.8,-73934.7,-100090,0.00,0.00,0.89,-4,0,-2,73,0
'[17:04:01.208 23/10/2025]',-78035.48,-160535.6,-133608,-132222.1,-152765.6,-158727.5,-79408.95,-104516.6,0.00,0.00,0.89,-4,0,-2,73,0
'[17:04:01.212 23/10/2025]',-76040.5,-158555.2,-131784.2,-130870,-150883.8,-156393.6,-76877.08,-103180.8,0.00,0.00,0.89,-4,0,-2,73,0
'[17:04:01.216 23/10/2025]',-70783.23,-153222.6,-126676.1,-125834.2,-145580.2,-150524.7,-70855.88,-98370.34,0.00,0.00,0.89,-4,0,-2,73,0
'[17:04:01.220 23/10/2025]',-72343.07,-154773.1,-128093.2,-126807.7,-147044.4,-152393.5,-72916.13,-99348.9,0.00,0.00,0.89,-4,0,-2,73,0
'[17:04:01.224 23/10/2025]',-77563.86,-160059.3,-133140,-131719.8,-152282.5,-158224.6,-78902.86,-104046.8,0.00,0.00,0.89,-4,0,-2,73,0
'[17:04:01.228 23/10/2025]',-76924.29,-159454.6,-132625.4,-131643,-151754.8,-157404.6,-77933.2,-103925.3,0.00,0.00,0.89,-4,0,-2,73,0
'[17:04:01.232 23/10/2025]',-71351.95,-153809.1,-127238.7,-126446,-146163.7,-151149.9,-71494.02,-98938.16,0.00,0.00,0.89,-4,0,-2,73,0
'[17:04:01.236 23/10/2025]',-71576.14,-154006.1,-127360.1,-126154.3,-146281.2,-151514.2,-71993.67,-98691.84,0.00,0.00,0.89,-4,0,-2,73,0
'[17:04:01.240 23/10/2025]',-76877.57,-159365.3,-132463.7,-131023.3,-151578.4,-157462.2,-78137.05,-103371.9,0.00,0.00,0.89,-4,0,-2,73,0
'[17:04:01.244 23/10/2025]',-77622.29,-160156.3,-133287.3,-132212.1,-152438.3,-158200.2,-78782.92,-104473.2,0.00,0.00,0.89,-4,0,-2,73,0
'[17:04:01.248 23/10/2025]',-72106.59,-154575.1,-127979.5,-127201.7,-146930.2,-151976.2,-72329.08,-99656.01,0.00,0.00,0.89,-4,0,-2,73,0
'[17:04:01.252 23/10/2025]',-70969.11,-153389.2,-126797.1,-125663.7,-145697.9,-150822.3,-71264.69,-98229.74,0.00,0.00,0.89,-4,0,-2,73,0
'[17:04:01.256 23/10/2025]',-76048.09,-158521.4,-131664,-130219.6,-150749.3,-156551.2,-77205.38,-102608.3,0.00,0.00,0.89,-4,0,-2,73,0
'[17:04:01.260 23/10/2025]',-78102.45,-160641.2,-133724.6,-132561.7,-152886.5,-158742.9,-79358.57,-104809.1,0.00,0.00,0.89,-4,0,0,73,0
'[17:04:01.264 23/10/2025]',-73005.22,-155496.1,-128844.5,-128069.2,-147828.1,-152961.3,-73336.25,-100476.5,0.00,0.00,0.89,-4,0,0,73,0
'[17:04:01.268 23/10/2025]',-70559.49,-152992.8,-126411,-125360.3,-145298.7,-150339.5,-70751.54,-97933.8,0.00,0.00,0.89,-4,0,0,73,0
'[17:04:01.272 23/10/2025]',-75141.11,-157613.1,-130783.8,-129354.3,-149837.6,-155541,-76186.37,-101784,0.00,0.00,0.89,-4,0,0,73,0
'[17:04:01.276 23/10/2025]',-78329.98,-160868.9,-133939.9,-132692.9,-153111,-159038.8,-79694.16,-104949.5,0.00,0.00,0.89,-4,0,0,73,0
'[17:04:01.280 23/10/2025]',-73991.83,-156500.3,-129815,-129018.1,-148838.3,-154088.9,-74496.53,-101390,0.00,0.00,0.89,-4,0,0,73,0
'[17:04:01.284 23/10/2025]',-70369.5,-152808.8,-126247.7,-125277.9,-145132,-150114.3,-70494.9,-97843.23,0.00,0.00,0.89,-4,0,0,73,0
'[17:04:01.288 23/10/2025]',-74180.56,-156643.3,-129853.7,-128461.7,-148870.8,-154468.5,-75070.52,-100924.7,0.00,0.00,0.89,-4,0,0,73,0
'[17:04:01.292 23/10/2025]',-78316.27,-160852,-133901.8,-132584.8,-153070.1,-159038.6,-79714.55,-104847.3,0.00,0.00,0.89,-4,0,0,73,0
'[17:04:01.296 23/10/2025]',-75022.38,-157545.6,-130803.8,-129965.5,-149862.9,-155242.7,-75694,-102292.4,0.00,-0.02,0.89,-4,0,-2,73,0
'[17:04:01.300 23/10/2025]',-70440.41,-152883.9,-126330,-125431.1,-145214.5,-150164.6,-70526.63,-97979.09,0.00,-0.02,0.89,-4,0,-2,73,0
'[17:04:01.304 23/10/2025]',-73233.56,-155686.9,-128941.1,-127598.1,-147920.1,-153397,-73960.71,-100091.4,0.00,-0.02,0.89,-4,0,-2,73,0
'[17:04:01.308 23/10/2025]',-78060.42,-160587.8,-133633.7,-132260.4,-152790.7,-158761.1,-79449.23,-104541.4,0.00,-0.02,0.89,-4,0,-2,73,0
'[17:04:01.312 23/10/2025]',-76020.78,-158554.2,-131765,-130861.9,-150859.2,-156372.2,-76861.88,-103162.3,0.00,-0.02,0.89,-4,0,-2,73,0
'[17:04:01.316 23/10/2025]',-70756.45,-153209.5,-126652.4,-125812.7,-145545.3,-150496.2,-70840.23,-98329.26,0.00,-0.02,0.89,-4,0,-2,73,0
'[17:04:01.320 23/10/2025]',-72342.58,-154788.5,-128088.5,-126809.6,-147031.2,-152383.3,-72919.48,-99318.5,0.00,-0.02,0.89,-4,0,-2,73,0
'[17:04:01.324 23/10/2025]',-77574.32,-160088.4,-133149.1,-131737,-152284.9,-158228.1,-78922.4,-104033.8,0.00,-0.02,0.89,-4,0,-2,73,0
'[17:04:01.328 23/10/2025]',-76900.77,-159440.3,-132605,-131624.2,-151723.2,-157365.1,-77903.96,-103879.1,0.00,-0.02,0.89,-4,0,-2,73,0
'[17:04:01.332 23/10/2025]',-71322.63,-153785.6,-127217.2,-126414.7,-146124.7,-151103.5,-71457.77,-98885.86,0.00,-0.02,0.88,-4,0,-2,73,0
'[17:04:01.336 23/10/2025]',-71587.72,-154026.7,-127383,-126170.1,-146291.5,-151529,-72017.54,-98708.38,0.00,-0.02,0.88,-4,0,-2,73,0
'[17:04:01.340 23/10/2025]',-76915.84,-159415,-132506.8,-131068.1,-151613.5,-157506.3,-78185.05,-103416.4,0.00,-0.02,0.88,-4,0,-2,73,0
'[17:04:01.344 23/10/2025]',-77611.29,-160155.8,-133280.9,-132208.1,-152419.3,-158180.5,-78768.35,-104455.4,0.00,-0.02,0.88,-4,0,-2,73,0
'[17:04:01.348 23/10/2025]',-72055.49,-154532.8,-127935.8,-127153.5,-146867.9,-151907.3,-72269,-99585.91,0.00,-0.02,0.88,-4,0,-2,73,0
'[17:04:01.352 23/10/2025]',-70972.42,-153405.3,-126798.9,-125658.6,-145680.7,-150811.7,-71262.68,-98198.5,0.00,-0.02,0.88,-4,0,-2,73,0
'[17:04:01.356 23/10/2025]',-76098.7,-158586,-131709.5,-130261.3,-150783.1,-156592.1,-77265.24,-102619.5,0.00,-0.02,0.88,-4,0,-2,73,0
'[17:04:01.360 23/10/2025]',-78102.45,-160648.7,-133738.3,-132576.5,-152891.2,-158750.2,-79381.73,-104802.3,0.00,-0.02,0.88,-4,0,-2,73,0
'[17:04:01.364 23/10/2025]',-72974.11,-155470,-128833.2,-128057.1,-147801.7,-152939.7,-73324.31,-100447.6,0.00,-0.02,0.88,-4,0,-2,73,0
'[17:04:01.368 23/10/2025]',-70574.34,-153013.1,-126432,-125380.5,-145302.8,-150354.5,-70764.99,-97931.08,0.00,-0.02,0.91,-4,0,-2,73,0
'[17:04:01.372 23/10/2025]',-75172.31,-157651.9,-130805.9,-129386.8,-149843.7,-155568.1,-76195.71,-101789.8,0.00,-0.02,0.91,-4,0,-2,73,0
'[17:04:01.376 23/10/2025]',-78334.14,-160880.5,-133935.3,-132702.6,-153091,-159035.8,-79678.96,-104932.1,0.00,-0.02,0.91,-4,0,-2,73,0
'[17:04:01.380 23/10/2025]',-73977.3,-156485.9,-129798.1,-129007.4,-148803.2,-154058.1,-74476.19,-101345.4,0.00,-0.02,0.91,-4,0,-2,73,0
'[17:04:01.384 23/10/2025]',-70394.98,-152832.4,-126275.6,-125303,-145139.2,-150129.9,-70521.77,-97839.53,0.00,-0.02,0.91,-4,0,-2,73,0
'[17:04:01.388 23/10/2025]',-74221.65,-156685.8,-129895,-128505.2,-148891.9,-154503.6,-75112.86,-100933.8,0.00,-0.02,0.91,-4,0,-2,73,0
'[17:04:01.392 23/10/2025]',-78317.34,-160854.2,-133907.1,-132595.1,-153057,-159032.5,-79718.57,-104820.1,0.00,-0.02,0.91,-4,0,-2,73,0
'[17:04:01.396 23/10/2025]',-75008.92,-157530,-130800.2,-129958.7,-149841.7,-155223.8,-75685.87,-102262,0.00,-0.02,0.91,-4,0,-2,73,0
'[17:04:01.400 23/10/2025]',-70466.87,-152909.9,-126363.5,-125457.4,-145228.7,-150186.5,-70555.96,-97978.06,0.00,-0.02,0.91,-4,0,-2,73,0
'[17:04:01.404 23/10/2025]',-73270.4,-155724.5,-128985.4,-127637.9,-147944.1,-153432,-74001.39,-100092,-0.02,-0.02,0.89,-4,0,-2,73,0
'[17:04:01.408 23/10/2025]',-78061.5,-160590.4,-133645.2,-132271.1,-152778.5,-158763.9,-79443.1,-104509.9,-0.02,-0.02,0.89,-4,0,-2,73,0
'[17:04:01.412 23/10/2025]',-76002.19,-158536.8,-131755.3,-130850.2,-150825,-156348.8,-76827.5,-103109.2,-0.02,-0.02,0.89,-4,0,-2,73,0
'[17:04:01.416 23/10/2025]',-70792.53,-153244.5,-126696.9,-125849.5,-145569.7,-150535.3,-70873.94,-98339.36,-0.02,-0.02,0.89,-4,0,-2,73,0
'[17:04:01.420 23/10/2025]',-72396.72,-154843.4,-128152.6,-126866.8,-147075.3,-152449.8,-72969.46,-99353.1,-0.02,-0.02,0.89,-4,0,-2,73,0
'[17:04:01.424 23/10/2025]',-77595.38,-160112.3,-133175.9,-131762,-152292.3,-158258.1,-78941.4,-104041.7,-0.02,-0.02,0.89,-4,0,-2,73,0
'[17:04:01.428 23/10/2025]',-76891.12,-159434.1,-132602.3,-131620.8,-151704.4,-157365.8,-77895.65,-103869.4,-0.02,-0.02,0.89,-4,0,-2,73,0
'[17:04:01.432 23/10/2025]',-71329.47,-153797.1,-127231.9,-126425.2,-146125.1,-151118.3,-71456.91,-98877.68,-0.02,-0.02,0.89,-4,0,-2,73,0
'[17:04:01.436 23/10/2025]',-71626.12,-154067.5,-127424.6,-126204.5,-146318.7,-151571.2,-72049.91,-98707.8,-0.02,-0.02,0.89,-4,0,-2,73,0
'[17:04:01.440 23/10/2025]',-76927.41,-159431.7,-132523.4,-131082.3,-151615.8,-157520.2,-78195.38,-103382.2,-0.02,0.00,0.89,-4,0,-2,73,0
'[17:04:01.444 23/10/2025]',-77597.88,-160146.2,-133271.1,-132202.6,-152395.8,-158169.8,-78744.12,-104419.3,-0.02,0.00,0.89,-4,0,-2,73,0
'[17:04:01.448 23/10/2025]',-72076.55,-154558.3,-127963.7,-127182.2,-146883,-151942,-72281.56,-99592.84,-0.02,0.00,0.89,-4,0,-2,73,0
'[17:04:01.452 23/10/2025]',-71013.91,-153454.1,-126848.4,-125709.5,-145719.5,-150870.9,-71301.17,-98231.84,-0.02,0.00,0.89,-4,0,-2,73,0
'[17:04:01.456 23/10/2025]',-76109.43,-158598.4,-131721.8,-130279.5,-150783.4,-156613.9,-77263.72,-102624.5,-0.02,0.00,0.89,-4,0,-2,73,0
'[17:04:01.460 23/10/2025]',-78079.38,-160627,-133718.2,-132559.6,-152858.7,-158734.5,-79345.47,-104778.7,-0.02,0.00,0.89,-4,0,-2,73,0
'[17:04:01.464 23/10/2025]',-72959.13,-155456.9,-128828.5,-128042.4,-147783.7,-152927.8,-73297.89,-100423,-0.02,0.00,0.89,-4,0,-2,73,0
'[17:04:01.468 23/10/2025]',-70590.47,-153027.7,-126460.2,-125391.5,-145314.9,-150373.1,-70779.12,-97920.17,-0.02,0.00,0.89,-4,0,-2,73,0
'[17:04:01.472 23/10/2025]',-75194.71,-157668.8,-130836.2,-129401.6,-149860.5,-155586.3,-76218.24,-101771.7,-0.02,0.00,0.89,-4,0,-2,73,0
'[17:04:01.476 23/10/2025]',-78324.09,-160866.2,-133933.7,-132686.8,-153078,-159018.5,-79661.48,-104888.7,0.00,-0.02,0.89,-4,0,-2,73,0
'[17:04:01.480 23/10/2025]',-73961.74,-156470.4,-129797.9,-128985.2,-148783.4,-154038.9,-74434.21,-101306.3,0.00,-0.02,0.89,-4,0,-2,73,0
'[17:04:01.484 23/10/2025]',-70412.64,-152849.9,-126304.3,-125308.1,-145145.7,-150142.8,-70511.52,-97825.36,0.00,-0.02,0.89,-4,0,-2,73,0
'[17:04:01.488 23/10/2025]',-74251.6,-156715.9,-129926.6,-128520.9,-148913,-154526.5,-75125.41,-100923.8,0.00,-0.02,0.89,-4,0,-2,73,0
'[17:04:01.492 23/10/2025]',-78334.77,-160870.3,-133920.2,-132601.2,-153061,-159041,-79709.09,-104809.8,0.00,-0.02,0.89,-4,0,-2,73,0
'[17:04:01.496 23/10/2025]',-74993.5,-157517.8,-130790.9,-129939.4,-149813.5,-155199.6,-75631.73,-102226.6,0.00,-0.02,0.89,-4,0,-2,73,0
'[17:04:01.500 23/10/2025]',-70460.34,-152909.6,-126371.6,-125447.8,-145216.1,-150179.8,-70525.83,-97953.56,0.00,-0.02,0.89,-4,0,-2,73,0
'[17:04:01.504 23/10/2025]',-73292.09,-155746.1,-129011.4,-127650,-147956.3,-153452.5,-73998.94,-100093.8,0.00,-0.02,0.89,-4,0,-2,73,0
'[17:04:01.508 23/10/2025]',-78079.96,-160603.2,-133657.9,-132277.2,-152785.4,-158775.9,-79440.91,-104506.2,0.00,-0.02,0.89,-4,0,-2,73,0
'[17:04:01.512 23/10/2025]',-75987.08,-158524,-131743.7,-130831.4,-150803.8,-156325.7,-76795.85,-103070.6,0.00,-0.02,0.91,-4,0,-2,73,0
'[17:04:01.516 23/10/2025]',-70762.31,-153219.8,-126678.6,-125815.4,-145537.9,-150495.3,-70828.3,-98283.39,0.00,-0.02,0.91,-4,0,-2,73,0
'[17:04:01.520 23/10/2025]',-72413.93,-154859.5,-128173.3,-126870.8,-147088.7,-152460,-72976.88,-99337.81,0.00,-0.02,0.91,-4,0,-2,73,0
'[17:04:01.524 23/10/2025]',-77625.86,-160138.4,-133201.2,-131778.8,-152316.1,-158279.4,-78958.07,-104034.2,0.00,-0.02,0.91,-4,0,-2,73,0
'[17:04:01.528 23/10/2025]',-76880.88,-159425.7,-132594.2,-131605.9,-151688,-157343.4,-77865.12,-103828.5,0.00,-0.02,0.91,-4,0,-2,73,0
'[17:04:01.532 23/10/2025]',-71294.77,-153766.1,-127209,-126391,-146087.2,-151082.6,-71411.85,-98829.84,0.00,-0.02,0.91,-4,0,-2,73,0
'[17:04:01.536 23/10/2025]',-71618.07,-154063.8,-127422.2,-126194.1,-146307.2,-151566.8,-72038.15,-98682.91,0.00,-0.02,0.91,-4,0,-2,73,0
'[17:04:01.540 23/10/2025]',-76941.9,-159446.8,-132530.2,-131089.9,-151615.8,-157534.2,-78174.82,-103367.5,0.00,-0.02,0.91,-4,0,-2,73,0
'[17:04:01.544 23/10/2025]',-77580.48,-160130.8,-133255.8,-132187.6,-152370.4,-158153.6,-78688.06,-104382.6,0.00,-0.02,0.91,-4,0,-2,73,0
'[17:04:01.548 23/10/2025]',-72022.64,-154508.8,-127926.9,-127132.3,-146829.9,-151885.4,-72203.59,-99525.92,0.00,-0.02,0.89,-4,0,-2,73,0
'[17:04:01.552 23/10/2025]',-71003.71,-153447.7,-126851,-125692.5,-145703,-150859.7,-71270.28,-98195.37,0.00,-0.02,0.89,-4,0,-2,73,0
'[17:04:01.556 23/10/2025]',-76151.54,-158643.3,-131762.5,-130311.1,-150817.4,-156652.9,-77285.71,-102631.3,0.00,-0.02,0.89,-4,0,-2,73,0
'[17:04:01.560 23/10/2025]',-78097.4,-160647.5,-133734.8,-132574,-152865.5,-158742.7,-79329.73,-104760.7,0.00,-0.02,0.89,-4,0,-2,73,0
'[17:04:01.564 23/10/2025]',-72929.67,-155431.1,-128811,-128012.8,-147741.6,-152886.9,-73229.09,-100371.3,0.00,-0.02,0.89,-4,0,-2,73,0
'[17:04:01.568 23/10/2025]',-70577.69,-153022.1,-126460.5,-125376,-145292.4,-150356.4,-70732.36,-97888.57,0.00,-0.02,0.89,-4,0,-2,73,0
'[17:04:01.572 23/10/2025]',-75219.52,-157701.7,-130856.6,-129421.1,-149872.8,-155609.3,-76210.82,-101764.6,0.00,-0.02,0.89,-4,0,-2,73,0
'[17:04:01.576 23/10/2025]',-78349.08,-160896.4,-133947.5,-132709.8,-153087.5,-159038.3,-79659.52,-104885.2,0.00,-0.02,0.89,-4,0,-2,73,0
'[17:04:01.580 23/10/2025]',-73936.75,-156453,-129780.6,-128969.6,-148755.5,-154016.3,-74396.04,-101284.8,0.00,-0.02,0.89,-4,0,-2,73,0
'[17:04:01.584 23/10/2025]',-70393.95,-152843.3,-126298.9,-125297.4,-145126.3,-150133,-70475.95,-97802.24,0.00,-0.02,0.89,-4,0,-2,73,0
'[17:04:01.588 23/10/2025]',-74264.92,-156736.1,-129934.5,-128534.9,-148913.9,-154546.9,-75108.25,-100915.9,0.00,-0.02,0.89,-4,0,-2,73,0
'[17:04:01.592 23/10/2025]',-78345.5,-160884.2,-133917.9,-132613.5,-153058.5,-159057,-79688.52,-104804.7,0.00,-0.02,0.89,-4,0,-2,73,0
'[17:04:01.596 23/10/2025]',-74965.34,-157493.5,-130770.3,-129919.4,-149784.4,-155178.5,-75576.48,-102207,0.00,-0.02,0.89,-4,0,-2,73,0
'[17:04:01.600 23/10/2025]',-70436.24,-152893.8,-126363.9,-125426.6,-145192.9,-150159.6,-70476.57,-97910.38,0.00,-0.02,0.89,-4,0,-2,73,0
'[17:04:01.604 23/10/2025]',-73306.61,-155771,-129026.8,-127664.8,-147964,-153473.1,-73989.95,-100073.5,0.00,-0.02,0.89,-4,0,-2,73,0
'[17:04:01.608 23/10/2025]',-78088.05,-160618.8,-133657.2,-132290.6,-152785.4,-158788.3,-79429.78,-104491.3,0.00,-0.02,0.89,-4,0,-2,73,0
'[17:04:01.612 23/10/2025]',-75955.96,-158494.7,-131712.7,-130802.3,-150760.9,-156287.9,-76725.13,-103021.3,0.00,-0.02,0.89,-4,0,-2,73,0
'[17:04:01.616 23/10/2025]',-70760.57,-153218.6,-126690.4,-125811,-145526.9,-150492,-70795.13,-98266.49,0.00,-0.02,0.89,-4,0,-2,73,0
'[17:04:01.620 23/10/2025]',-72445.89,-154891.2,-128207.8,-126901.3,-147106.4,-152491.3,-72981.26,-99343.98,0.00,-0.02,0.91,-4,0,-2,73,0
'[17:04:01.624 23/10/2025]',-77654.92,-160166.1,-133219.6,-131806.4,-152326.5,-158301.5,-78952.93,-104027.4,0.00,-0.02,0.91,-4,0,-2,73,0
'[17:04:01.628 23/10/2025]',-76868.85,-159411,-132578.8,-131592,-151662.3,-157316.4,-77813.84,-103790,0.00,-0.02,0.91,-4,0,-2,73,0
'[17:04:01.632 23/10/2025]',-71298.76,-153769.7,-127216.8,-126382.2,-146074.7,-151065.4,-71362.45,-98802.58,0.00,-0.02,0.91,-4,0,-2,73,0
'[17:04:01.636 23/10/2025]',-71663.04,-154110.4,-127463,-126225.3,-146329.7,-151597.4,-72033.59,-98691.04,0.00,-0.02,0.91,-4,0,-2,73,0
'[17:04:01.640 23/10/2025]',-76981.23,-159491,-132556,-131122.8,-151634.9,-157563.3,-78185.23,-103377.4,0.00,-0.02,0.91,-4,0,-2,73,0
'[17:04:01.644 23/10/2025]',-77580.04,-160138.6,-133243.6,-132182.3,-152351.7,-158137.7,-78652.74,-104355,0.00,-0.02,0.91,-4,0,-2,73,0
'[17:04:01.648 23/10/2025]',-72031.27,-154523.1,-127928.5,-127131.4,-146821.1,-151879.7,-72173.16,-99506.21,0.00,-0.02,0.91,-4,0,-2,73,0
'[17:04:01.652 23/10/2025]',-71043.9,-153490.8,-126878.3,-125724.6,-145727.3,-150890.8,-71277.84,-98204.84,0.00,-0.02,0.91,-4,0,-2,73,0
'[17:04:01.656 23/10/2025]',-76160.03,-158658,-131753.3,-130322.6,-150803.3,-156654,-77253.98,-102601.6,0.00,0.00,0.91,-4,0,-2,73,0
'[17:04:01.660 23/10/2025]',-78064.94,-160621.5,-133687,-132547.4,-152810.3,-158703.6,-79245.47,-104698.4,0.00,0.00,0.91,-4,0,-2,73,0
'[17:04:01.664 23/10/2025]',-72925.38,-155429.1,-128791,-128006.8,-147716.6,-152878.8,-73174.16,-100338.8,0.00,0.00,0.91,-4,0,-2,73,0
'[17:04:01.668 23/10/2025]',-70617.83,-153063.4,-126484.3,-125410.8,-145314.1,-150395,-70736.61,-97892.05,0.00,0.00,0.91,-4,0,-2,73,0
'[17:04:01.672 23/10/2025]',-75250.05,-157734.9,-130879.6,-129453,-149888.1,-155641.3,-76207.02,-101773.4,0.00,0.00,0.91,-4,0,-2,73,0
'[17:04:01.676 23/10/2025]',-78325.02,-160876.1,-133923.4,-132693.4,-153048.6,-159010.3,-79588.93,-104841.4,0.00,0.00,0.91,-4,0,-2,73,0
'[17:04:01.680 23/10/2025]',-73913.91,-156433.7,-129750.4,-128945.8,-148711.5,-153982.1,-74302.7,-101224.5,0.00,0.00,0.91,-4,0,-2,73,0
'[17:04:01.684 23/10/2025]',-70418.45,-152869.5,-126316.6,-125319.3,-145135.1,-150154.7,-70441.61,-97802.78,0.00,0.00,0.91,-4,0,-2,73,0
'[17:04:01.688 23/10/2025]',-74304.3,-156780.7,-129977.7,-128578.7,-148944.2,-154588.5,-75113.66,-100935.3,0.00,0.00,0.91,-4,0,-2,73,0
'[17:04:01.692 23/10/2025]',-78338.57,-160885.9,-133919.4,-132617.7,-153042.4,-159046,-79633.81,-104770.9,0.00,0.00,0.89,-4,0,-2,73,0
'[17:04:01.696 23/10/2025]',-74952.59,-157485.4,-130751.7,-129910.1,-149749.7,-155152.3,-75494,-102139.5,0.00,0.00,0.89,-4,0,-2,73,0
'[17:04:01.700 23/10/2025]',-70464.59,-152915.1,-126378.8,-125450.7,-145196.1,-150176.1,-70439.02,-97898.94,0.00,0.00,0.89,-4,0,-2,73,0
'[17:04:01.704 23/10/2025]',-73355.65,-155813.3,-129068.5,-127707.2,-147991.1,-153513.7,-73994.64,-100092.9,0.00,0.00,0.89,-4,0,-2,73,0
'[17:04:01.708 23/10/2025]',-78107.81,-160637.2,-133676.2,-132308.5,-152782.6,-158800.2,-79393.44,-104481.4,0.00,0.00,0.89,-4,0,-2,73,0
'[17:04:01.712 23/10/2025]',-75946.09,-158482.8,-131700.1,-130797.4,-150735.3,-156273.1,-76662.28,-102999.8,0.00,0.00,0.89,-4,0,-2,73,0
'[17:04:01.716 23/10/2025]',-70724.85,-153182.3,-126642.5,-125775.7,-145469.9,-150446.5,-70687.52,-98209.94,0.00,0.00,0.89,-4,0,-2,73,0
'[17:04:01.720 23/10/2025]',-72460.82,-154913,-128213.6,-126909.5,-147094.2,-152509,-72935.39,-99321.36,0.00,0.00,0.89,-4,0,-2,73,0
'[17:04:01.724 23/10/2025]',-77660.77,-160179.3,-133223.4,-131815.1,-152312.9,-158316.3,-78899.91,-104017.7,0.00,0.00,0.89,-4,0,-2,73,0
'[17:04:01.728 23/10/2025]',-76854.5,-159402.7,-132559.4,-131583.7,-151628.4,-157307.7,-77734.13,-103761.4,-0.02,0.00,0.89,-4,0,-2,73,0
'[17:04:01.732 23/10/2025]',-71290.57,-153767,-127205.6,-126382.9,-146058.4,-151069.2,-71308.86,-98794.08,-0.02,0.00,0.89,-4,0,-2,73,0
'[17:04:01.736 23/10/2025]',-71692.05,-154142.2,-127491.1,-126255.6,-146350.2,-151639,-72024.52,-98705.39,-0.02,0.00,0.89,-4,0,-2,73,0
'[17:04:01.740 23/10/2025]',-77008.51,-159518.6,-132585,-131148.3,-151652.7,-157597,-78172.9,-103383.9,-0.02,0.00,0.89,-4,0,-2,73,0
'[17:04:01.744 23/10/2025]',-77569.67,-160123.3,-133238.5,-132173,-152334.9,-158132,-78598.79,-104340,-0.02,0.00,0.89,-4,0,-2,73,0
'[17:04:01.748 23/10/2025]',-72006.09,-154492.7,-127914,-127108.2,-146793.1,-151859.5,-72100.11,-99483.68,-0.02,0.00,0.89,-4,0,-2,73,0
'[17:04:01.752 23/10/2025]',-71040.05,-153484.2,-126888.3,-125716.4,-145717,-150889.9,-71232.15,-98178.16,-0.02,0.00,0.89,-4,0,-2,73,0
'[17:04:01.756 23/10/2025]',-76187.39,-158681.8,-131789.2,-130342.5,-150822.8,-156687,-77241.05,-102617,-0.02,0.00,0.89,-4,0,-2,73,0
'[17:04:01.760 23/10/2025]',-78082.55,-160635.8,-133711.6,-132563.5,-152821.6,-158721.4,-79219.9,-104707.3,-0.02,0.00,0.89,-4,0,-2,73,0
'[17:04:01.764 23/10/2025]',-72898.6,-155403,-128778.1,-127984.3,-147687.1,-152846.6,-73097.53,-100295.8,-0.02,-0.02,0.89,-4,0,-2,73,0
'[17:04:01.768 23/10/2025]',-70617.92,-153066,-126497.1,-125409.1,-145311.2,-150396.9,-70704.33,-97881.82,-0.02,-0.02,0.89,-4,0,-2,73,0
'[17:04:01.772 23/10/2025]',-75298.6,-157782.5,-130925.5,-129494,-149925.4,-155694.1,-76218.02,-101801.8,-0.02,-0.02,0.89,-4,0,-2,73,0
'[17:04:01.776 23/10/2025]',-78359.49,-160910.1,-133947.9,-132722.6,-153068.7,-159047.1,-79566.93,-104860.8,-0.02,-0.02,0.89,-4,0,-2,73,0
'[17:04:01.780 23/10/2025]',-73898.75,-156416,-129738.8,-128928.5,-148687.9,-153963.1,-74239.3,-101206.1,-0.02,-0.02,0.89,-4,0,-2,73,0
'[17:04:01.784 23/10/2025]',-70408.22,-152854.8,-126311.2,-125296,-145116,-150137.5,-70398.47,-97773.81,-0.02,-0.02,0.89,-4,0,-2,73,0
'[17:04:01.788 23/10/2025]',-74346.73,-156819.3,-130009.1,-128603.5,-148971.8,-154629.2,-75114.78,-100950.3,-0.02,-0.02,0.89,-4,0,-2,73,0
'[17:04:01.792 23/10/2025]',-78379.02,-160922.9,-133942.6,-132648.9,-153071.5,-159090.4,-79636.4,-104800.9,-0.02,-0.02,0.89,-4,0,-2,73,0
'[17:04:01.796 23/10/2025]',-74925.23,-157460.1,-130726.7,-129884.7,-149726.4,-155128.9,-75440.58,-102127.5,-0.02,-0.02,0.89,-4,0,-2,73,0
'[17:04:01.800 23/10/2025]',-70421.13,-152884,-126348.2,-125411.9,-145160.9,-150146.7,-70378.09,-97873.95,0.00,0.00,0.89,-4,0,-2,73,0
'[17:04:01.804 23/10/2025]',-73377.73,-155849.6,-129085,-127732.9,-148014.5,-153559.1,-74002.91,-100117.4,0.00,0.00,0.89,-4,0,-2,73,0
'[17:04:01.808 23/10/2025]',-78147.24,-160687.8,-133693.5,-132353.5,-152822.5,-158856.8,-79405.55,-104530.4,0.00,0.00,0.89,-4,0,-2,73,0
'[17:04:01.812 23/10/2025]',-75937.81,-158487.1,-131691.1,-130798.5,-150736.9,-156279.4,-76629.6,-103004.3,0.00,0.00,0.89,-4,0,-2,73,0
'[17:04:01.816 23/10/2025]',-70727.22,-153199.3,-126665,-125788.4,-145492.3,-150474.4,-70684.48,-98240.88,0.00,0.00,0.89,-4,0,-2,73,0
'[17:04:01.820 23/10/2025]',-72477.59,-154936.8,-128232.8,-126933.4,-147127.9,-152541.9,-72936.38,-99353.81,0.00,0.00,0.89,-4,0,-2,73,0
'[17:04:01.824 23/10/2025]',-77689.25,-160210.5,-133234,-131845,-152351,-158347.7,-78923.96,-104033.3,0.00,0.00,0.89,-4,0,-2,73,0
'[17:04:01.828 23/10/2025]',-76843.46,-159390.5,-132545.6,-131573.2,-151627.5,-157291.4,-77701.55,-103737.4,0.00,0.00,0.89,-4,0,-2,73,0
'[17:04:01.832 23/10/2025]',-71248.91,-153724.7,-127185,-126339,-146031,-151021.4,-71233.27,-98738.65,0.00,0.00,0.89,-4,0,-2,73,0
'[17:04:01.836 23/10/2025]',-71692.55,-154143.4,-127503.4,-126251.1,-146364.4,-151640.3,-72010.84,-98694.93,-0.02,-0.02,0.89,-4,0,-2,73,0
'[17:04:01.840 23/10/2025]',-77045.56,-159556.9,-132607.8,-131185.8,-151699.9,-157640.8,-78198.29,-103415.5,-0.02,-0.02,0.89,-4,0,-2,73,0
'[17:04:01.844 23/10/2025]',-77571.23,-160130.4,-133228.1,-132181.5,-152341.5,-158132.4,-78577.82,-104328.3,-0.02,-0.02,0.89,-4,0,-2,73,0
'[17:04:01.848 23/10/2025]',-71960.14,-154457.9,-127879.6,-127072.7,-146754.4,-151812.5,-72018.52,-99433.52,-0.02,-0.02,0.89,-4,0,-2,73,0
'[17:04:01.852 23/10/2025]',-71037.28,-153492.2,-126887.9,-125720.6,-145715.8,-150898.4,-71199.78,-98175.38,-0.02,-0.02,0.89,-4,0,-2,73,0
'[17:04:01.856 23/10/2025]',-76228.66,-158730.9,-131806.4,-130391,-150862,-156739,-77256.08,-102645.2,-0.02,-0.02,0.89,-4,0,-2,73,0
'[17:04:01.860 23/10/2025]',-78089.57,-160650,-133698.5,-132581.3,-152831.6,-158736.5,-79201.7,-104713.8,-0.02,-0.02,0.89,-4,0,-2,73,0
'[17:04:01.864 23/10/2025]',-72872.95,-155381.6,-128757.1,-127967.5,-147669.3,-152827.7,-73045.32,-100272.8,-0.02,-0.02,0.89,-4,0,-2,73,0
'[17:04:01.868 23/10/2025]',-70612.42,-153062.7,-126493.9,-125406.8,-145305.5,-150398,-70664.86,-97861.25,-0.02,-0.02,0.89,-4,0,-2,73,0
'[17:04:01.872 23/10/2025]',-75326.18,-157810.2,-130933.1,-129521.1,-149948.1,-155726.4,-76219.85,-101817.9,-0.02,0.00,0.91,-4,0,0,73,0
'[17:04:01.876 23/10/2025]',-78366.38,-160912.4,-133934.5,-132729.8,-153075.3,-159053,-79552.41,-104865.8,-0.02,0.00,0.91,-4,0,0,73,0
'[17:04:01.880 23/10/2025]',-73872.7,-156389,-129712.9,-128902.6,-148667.5,-153931.5,-74189.51,-101168.7,-0.02,0.00,0.91,-4,0,0,73,0
'[17:04:01.884 23/10/2025]',-70400.08,-152850.7,-126311.4,-125289.8,-145115.8,-150131.5,-70379.02,-97747.98,-0.02,0.00,0.91,-4,0,0,73,0
'[17:04:01.888 23/10/2025]',-74353.79,-156828.1,-130008.6,-128611.5,-148978.8,-154641.4,-75099.49,-100946,-0.02,0.00,0.91,-4,0,0,73,0
'[17:04:01.892 23/10/2025]',-78373.53,-160917.8,-133925.4,-132645.3,-153061.8,-159084.6,-79597.11,-104784.3,-0.02,0.00,0.91,-4,0,0,73,0
'[17:04:01.896 23/10/2025]',-74893.18,-157426.1,-130691.9,-129853.6,-149691.1,-155090.2,-75362.08,-102093.7,-0.02,0.00,0.91,-4,0,0,73,0
'[17:04:01.900 23/10/2025]',-70410.27,-152869.9,-126340.7,-125397.5,-145146,-150132.9,-70318.85,-97852.94,-0.02,0.00,0.91,-4,0,0,73,0
'[17:04:01.904 23/10/2025]',-73408.18,-155877.8,-129115.6,-127755.3,-148038.1,-153588.8,-73997.5,-100117.8,-0.02,0.00,0.91,-4,0,0,73,0
'[17:04:01.908 23/10/2025]',-78159.22,-160699.3,-133705.1,-132358.5,-152829.2,-158862.7,-79389.86,-104510.3,0.00,0.00,0.89,-4,0,-2,73,0
'[17:04:01.912 23/10/2025]',-75915.73,-158463.6,-131674.3,-130775,-150711.1,-156249.8,-76560.31,-102959.5,0.00,0.00,0.89,-4,0,-2,73,0
'[17:04:01.916 23/10/2025]',-70726.15,-153198.9,-126667.5,-125781.8,-145485.4,-150466.4,-70634.82,-98203.19,0.00,0.00,0.89,-4,0,-2,73,0
'[17:04:01.920 23/10/2025]',-72502.84,-154967.1,-128262,-126957,-147151.5,-152569.4,-72925.02,-99353.5,0.00,0.00,0.89,-4,0,-2,73,0
'[17:04:01.924 23/10/2025]',-77683.53,-160211,-133235.5,-131847.2,-152338.8,-158349.6,-78851.5,-104011.2,0.00,0.00,0.89,-4,0,-2,73,0
'[17:04:01.928 23/10/2025]',-76790.84,-159344.1,-132497.4,-131537.1,-151566.5,-157247.1,-77577.05,-103682.4,0.00,0.00,0.89,-4,0,-2,73,0
'[17:04:01.932 23/10/2025]',-71214.09,-153694,-127144.9,-126317.7,-145986.5,-150997.1,-71150.56,-98696.72,0.00,0.00,0.89,-4,0,-2,73,0
'[17:04:01.936 23/10/2025]',-71701.76,-154158.5,-127504.4,-126267.9,-146355.8,-151662.6,-71959.07,-98684.11,0.00,0.00,0.89,-4,0,-2,73,0
'[17:04:01.940 23/10/2025]',-77040.38,-159554.8,-132606.5,-131188.6,-151675.8,-157644.3,-78124.26,-103393.2,0.00,0.00,0.89,-4,0,-2,73,0
'[17:04:01.944 23/10/2025]',-77554.96,-160113,-133219.1,-132173.5,-152311.3,-158122.3,-78500.76,-104306.2,0.02,-0.02,0.91,-4,0,-2,73,0
'[17:04:01.948 23/10/2025]',-71977.53,-154472,-127889,-127090.6,-146755.4,-151835.6,-71985.94,-99423.95,0.02,-0.02,0.91,-4,0,-2,73,0
'[17:04:01.952 23/10/2025]',-71078.55,-153529.7,-126923.1,-125759.8,-145749.2,-150947,-71197.95,-98200.95,0.02,-0.02,0.91,-4,0,-2,73,0
'[17:04:01.956 23/10/2025]',-76249.98,-158751.7,-131845.3,-130413.2,-150882.4,-156769.9,-77232.83,-102661.7,0.02,-0.02,0.91,-4,0,-2,73,0
'[17:04:01.960 23/10/2025]',-78074.82,-160636.3,-133704.4,-132569.4,-152816.8,-158723.5,-79140.51,-104684.3,0.02,-0.02,0.91,-4,0,-2,73,0
'[17:04:01.964 23/10/2025]',-72856.36,-155365.5,-128745.6,-127952.2,-147653.3,-152815.5,-72987.43,-100241.3,0.02,-0.02,0.91,-4,0,-2,73,0
'[17:04:01.968 23/10/2025]',-70629.01,-153079.8,-126516.9,-125426.8,-145332.3,-150432.2,-70639.38,-97880.3,0.02,-0.02,0.91,-4,0,-2,73,0
'[17:04:01.972 23/10/2025]',-75334.85,-157825.6,-130972,-129542.8,-149974.3,-155756.7,-76190.66,-101832.1,0.02,-0.02,0.91,-4,0,-2,73,0
'[17:04:01.976 23/10/2025]',-78341.38,-160899.7,-133949.3,-132724.9,-153068.1,-159045.4,-79487.59,-104840.1,0.02,-0.02,0.91,-4,0,-2,73,0
'[17:04:01.980 23/10/2025]',-73842.7,-156368.2,-129699.6,-128889.4,-148649.8,-153920.6,-74117.66,-101136.3,0.00,-0.02,0.91,-4,0,-2,73,0
'[17:04:01.984 23/10/2025]',-70404.73,-152859.4,-126319,-125302.4,-145128.4,-150152.7,-70333.2,-97738.41,0.00,-0.02,0.91,-4,0,-2,73,0
'[17:04:01.988 23/10/2025]',-74379.77,-156859.3,-130057.5,-128646.9,-149017.4,-154683.5,-75090.1,-100966.4,0.00,-0.02,0.91,-4,0,-2,73,0
'[17:04:01.992 23/10/2025]',-78378.76,-160928.5,-133965.8,-132663,-153080.5,-159100.9,-79569.84,-104783.2,0.00,-0.02,0.91,-4,0,-2,73,0
'[17:04:01.996 23/10/2025]',-74891.13,-157425,-130702.9,-129857.1,-149691.7,-155094,-75331.73,-102057.7,0.00,-0.02,0.91,-4,0,-2,73,0
'[17:04:02.000 23/10/2025]',-70449.52,-152907.4,-126374.8,-125435.9,-145184.7,-150176.6,-70334.77,-97854.55,0.00,-0.02,0.91,-4,0,-2,73,0
'[17:04:02.004 23/10/2025]',-73423.78,-155892.9,-129141.6,-127778,-148056.7,-153606.4,-73970.59,-100130.9,0.00,-0.02,0.91,-4,0,-2,73,0
'[17:04:02.008 23/10/2025]',-78151.58,-160691.2,-133728.8,-132366,-152827.2,-158860.2,-79341.9,-104505.7,0.00,-0.02,0.91,-4,0,-2,73,0
'[17:04:02.012 23/10/2025]',-75882.43,-158428.8,-131651.8,-130747.7,-150675.8,-156211.9,-76500.81,-102910.2,0.00,-0.02,0.91,-4,0,-2,73,0
'[17:04:02.016 23/10/2025]',-70713.09,-153177.7,-126641,-125763.3,-145460,-150445.4,-70587.21,-98157.33,-0.02,0.00,0.89,-4,0,-2,73,0
'[17:04:02.020 23/10/2025]',-72516.7,-154974.9,-128274.6,-126969.3,-147153.6,-152580.2,-72904.73,-99351.04,-0.02,0.00,0.89,-4,0,-2,73,0
'[17:04:02.024 23/10/2025]',-77705.03,-160235.5,-133275.3,-131873.6,-152352.6,-158369.3,-78848.55,-104032.1,-0.02,0.00,0.89,-4,0,-2,73,0
'[17:04:02.028 23/10/2025]',-76801.04,-159356.9,-132518,-131547.7,-151569.4,-157249.5,-77562.3,-103680.2,-0.02,0.00,0.89,-4,0,-2,73,0
'[17:04:02.032 23/10/2025]',-71231.92,-153709.3,-127153.8,-126324,-145987.5,-151004.9,-71127.36,-98682.73,-0.02,0.00,0.89,-4,0,-2,73,0
'[17:04:02.036 23/10/2025]',-71715.13,-154168.1,-127521.5,-126276.3,-146366.6,-151669,-71951.91,-98680.4,-0.02,0.00,0.89,-4,0,-2,73,0
'[17:04:02.040 23/10/2025]',-77044,-159558.8,-132639.5,-131199.8,-151692.3,-157650.4,-78127.48,-103389.4,-0.02,0.00,0.89,-4,0,-2,73,0
'[17:04:02.044 23/10/2025]',-77503.06,-160061.9,-133202.1,-132143.5,-152281.5,-158084.2,-78434.68,-104261.9,-0.02,0.00,0.89,-4,0,-2,73,0
'[17:04:02.048 23/10/2025]',-71932.83,-154427.6,-127852,-127049.9,-146713.8,-151794.5,-71919.41,-99380.86,-0.02,0.00,0.89,-4,0,-2,73,0
'[17:04:02.052 23/10/2025]',-71085.83,-153540.5,-126921.4,-125754.4,-145738.4,-150935,-71171.39,-98162.02,0.00,-0.02,0.89,-4,0,-2,73,0
'[17:04:02.056 23/10/2025]',-76273.36,-158778.2,-131867.7,-130430.3,-150887.6,-156771.9,-77229.61,-102641.5,0.00,-0.02,0.89,-4,0,-2,73,0
'[17:04:02.060 23/10/2025]',-78081.34,-160642.9,-133707.3,-132566.8,-152801.6,-158702.7,-79108.81,-104653.1,0.00,-0.02,0.89,-4,0,-2,73,0
'[17:04:02.064 23/10/2025]',-72855.15,-155365.1,-128725,-127928.8,-147621,-152779,-72938.84,-100200.2,0.00,-0.02,0.89,-4,0,-2,73,0
'[17:04:02.068 23/10/2025]',-70654.17,-153108.5,-126518.1,-125423.5,-145320,-150416.5,-70624.09,-97838.55,0.00,-0.02,0.89,-4,0,-2,73,0
'[17:04:02.072 23/10/2025]',-75387.6,-157884.8,-131003.7,-129569.5,-149986.1,-155769.6,-76196.78,-101810.3,0.00,-0.02,0.89,-4,0,-2,73,0
'[17:04:02.076 23/10/2025]',-78381.17,-160943.5,-133961.6,-132739.6,-153060.3,-159042,-79469.88,-104817.1,0.00,-0.02,0.89,-4,0,-2,73,0
'[17:04:02.080 23/10/2025]',-73859.64,-156384.3,-129691.7,-128878.5,-148615.7,-153890.7,-74069.16,-101093.7,0.00,-0.02,0.89,-4,0,-2,73,0
'[17:04:02.084 23/10/2025]',-70439.95,-152894.6,-126336.6,-125312.5,-145118.6,-150153.5,-70320.69,-97726.61,0.00,-0.02,0.89,-4,0,-2,73,0
'[17:04:02.088 23/10/2025]',-74424.69,-156902,-130076,-128668.7,-149017.1,-154696.6,-75094.57,-100955.3,0.00,-0.02,0.91,-4,0,-2,73,0
'[17:04:02.092 23/10/2025]',-78410.19,-160959.2,-133964.7,-132678.3,-153068.4,-159103.6,-79555.63,-104767.8,0.00,-0.02,0.91,-4,0,-2,73,0
'[17:04:02.096 23/10/2025]',-74877.54,-157415.9,-130677.6,-129835.1,-149644,-155055.3,-75263.55,-102011.3,0.00,-0.02,0.91,-4,0,-2,73,0
'[17:04:02.100 23/10/2025]',-70433.65,-152895.8,-126359.7,-125408.9,-145137.1,-150141.7,-70260.16,-97807.07,0.00,-0.02,0.91,-4,0,-2,73,0
'[17:04:02.104 23/10/2025]',-73451.77,-155921.7,-129150,-127788.7,-148052,-153617.7,-73956.82,-100110.4,0.00,-0.02,0.91,-4,0,-2,73,0
'[17:04:02.108 23/10/2025]',-78188.14,-160722.8,-133723.4,-132381.5,-152824.8,-158871.2,-79328.44,-104482.3,0.00,-0.02,0.91,-4,0,-2,73,0
'[17:04:02.112 23/10/2025]',-75889.63,-158432.9,-131645,-130743.6,-150653.8,-156196,-76453.2,-102880,0.00,-0.02,0.91,-4,0,-2,73,0
'[17:04:02.116 23/10/2025]',-70724.05,-153192.1,-126676.3,-125766.5,-145458.8,-150441.9,-70568.88,-98141.68,0.00,-0.02,0.91,-4,0,-2,73,0
'[17:04:02.120 23/10/2025]',-72552.15,-155010.5,-128315.8,-126989.8,-147175.8,-152606.6,-72902.27,-99367.63,0.00,-0.02,0.91,-4,0,-2,73,0
'[17:04:02.124 23/10/2025]',-77732.03,-160255.1,-133277.7,-131882.3,-152367.9,-158385.2,-78847.43,-104025.3,0.00,-0.02,0.89,-4,0,-2,73,0
'[17:04:02.128 23/10/2025]',-76784.54,-159341.3,-132501,-131523.3,-151551.8,-157218,-77534.89,-103628.9,0.00,-0.02,0.89,-4,0,-2,73,0
'[17:04:02.132 23/10/2025]',-71209.26,-153696,-127169.9,-126298.4,-145973.7,-150972.9,-71092.36,-98636.91,0.00,-0.02,0.89,-4,0,-2,73,0
'[17:04:02.136 23/10/2025]',-71730.81,-154190.2,-127551.3,-126283.3,-146379.6,-151681.8,-71944.18,-98658.77,0.00,-0.02,0.89,-4,0,-2,73,0
'[17:04:02.140 23/10/2025]',-77080.93,-159596.2,-132631.8,-131215.8,-151703.1,-157673.8,-78117.87,-103371.2,0.00,-0.02,0.89,-4,0,-2,73,0
'[17:04:02.144 23/10/2025]',-77526.93,-160089.3,-133184.5,-132141.4,-152270.8,-158076.1,-78403.3,-104228.2,0.00,-0.02,0.89,-4,0,-2,73,0
'[17:04:02.148 23/10/2025]',-71924.24,-154425.8,-127870.1,-127032.6,-146701.2,-151768.8,-71882.72,-99341.16,0.00,-0.02,0.89,-4,0,-2,73,0
'[17:04:02.152 23/10/2025]',-71089.59,-153546.4,-126961.5,-125758.1,-145754,-150951.2,-71167.51,-98162.02,0.00,-0.02,0.89,-4,0,-2,73,0
'[17:04:02.156 23/10/2025]',-76295.93,-158793.9,-131868.8,-130437.2,-150900.3,-156797.7,-77217.54,-102632.7,0.00,-0.02,0.89,-4,0,-2,73,0
'[17:04:02.160 23/10/2025]',-78075.94,-160629.7,-133684.6,-132555.1,-152788.8,-158699.1,-79067.37,-104628.8,0.00,0.00,0.89,-4,0,-2,73,0
'[17:04:02.164 23/10/2025]',-72815.72,-155325.5,-128730.4,-127900,-147593.8,-152746.9,-72873.57,-100155.1,0.00,0.00,0.89,-4,0,-2,73,0
'[17:04:02.168 23/10/2025]',-70640.63,-153094.7,-126556.3,-125423.2,-145324.5,-150425.5,-70601.38,-97833.23,0.00,0.00,0.89,-4,0,-2,73,0
'[17:04:02.172 23/10/2025]',-75394.8,-157878.6,-131008.8,-129581.3,-150002.4,-155801.1,-76204.91,-101817.3,0.00,0.00,0.89,-4,0,-2,73,0
'[17:04:02.176 23/10/2025]',-78371.34,-160920.8,-133941.9,-132740.3,-153058.7,-159052.5,-79452.4,-104801.5,0.00,0.00,0.89,-4,0,-2,73,0
'[17:04:02.180 23/10/2025]',-73817.35,-156339.6,-129686,-128859.2,-148594.9,-153870.1,-74020.21,-101072.5,0.00,0.00,0.89,-4,0,-2,73,0
'[17:04:02.184 23/10/2025]',-70423.28,-152880.2,-126364.3,-125314.3,-145116.3,-150158.8,-70279.11,-97720.88,0.00,0.00,0.89,-4,0,-2,73,0
'[17:04:02.188 23/10/2025]',-74436.98,-156913.7,-130092.6,-128690.4,-149034.5,-154729.8,-75082.99,-100961.1,0.00,0.00,0.89,-4,0,-2,73,0
'[17:04:02.192 23/10/2025]',-78402.67,-160946.8,-133944.4,-132676.1,-153062.1,-159107.6,-79522.5,-104748.9,0.00,0.00,0.89,-4,0,-2,73,0
'[17:04:02.196 23/10/2025]',-74848.44,-157382.1,-130667.2,-129814.2,-149626.1,-155034.5,-75210.53,-102004.7,0.02,0.00,0.89,-4,0,-2,73,0
'[17:04:02.200 23/10/2025]',-70432.53,-152890.9,-126393.9,-125409.4,-145152,-150146.5,-70251.71,-97813.42,0.02,0.00,0.89,-4,0,-2,73,0
'[17:04:02.204 23/10/2025]',-73475.86,-155939.9,-129186,-127807.5,-148080.8,-153643.3,-73967.59,-100103.7,0.02,0.00,0.89,-4,0,-2,73,0
'[17:04:02.208 23/10/2025]',-78191.9,-160724.9,-133727.6,-132385.3,-152828.4,-158882.7,-79304.97,-104476.3,0.02,0.00,0.89,-4,0,-2,73,0
'[17:04:02.212 23/10/2025]',-75866.34,-158410.6,-131633.4,-130724.6,-150631.1,-156175.6,-76392.85,-102858.8,0.02,0.00,0.89,-4,0,-2,73,0
'[17:04:02.216 23/10/2025]',-70703.21,-153170.2,-126668,-125745.1,-145436.8,-150421.3,-70516.17,-98111.55,0.02,0.00,0.89,-4,0,-2,73,0
'[17:04:02.220 23/10/2025]',-72568.34,-155027.4,-128331.1,-126999.3,-147180.7,-152623.2,-72903.38,-99329.85,0.02,0.00,0.89,-4,0,-2,73,0
'[17:04:02.224 23/10/2025]',-77751.7,-160275.7,-133289.6,-131902.6,-152368.5,-158407.7,-78832.63,-104007.8,0.02,0.00,0.89,-4,0,-2,73,0
'[17:04:02.228 23/10/2025]',-76774.17,-159329.2,-132484.2,-131522.8,-151525.6,-157214,-77470.43,-103615.8,0.02,0.00,0.89,-4,0,-2,73,0
'[17:04:02.232 23/10/2025]',-71165.72,-153649.6,-127112.2,-126265.9,-145911.8,-150931.7,-71003.8,-98598.77,0.00,0.00,0.89,-4,0,-2,73,0
'[17:04:02.236 23/10/2025]',-71758.13,-154219.9,-127563.1,-126313.1,-146379,-151719.4,-71953.75,-98668.73,0.00,0.00,0.89,-4,0,-2,73,0
'[17:04:02.240 23/10/2025]',-77120.84,-159642,-132674.4,-131267.6,-151722.4,-157720.7,-78131.28,-103392.3,0.00,0.00,0.89,-4,0,-2,73,0
'[17:04:02.244 23/10/2025]',-77531.13,-160097.8,-133195.3,-132160.8,-152259,-158082.6,-78376.48,-104218.3,0.00,0.00,0.89,-4,0,-2,73,0
'[17:04:02.248 23/10/2025]',-71922.14,-154425,-127850.5,-127037.9,-146678.4,-151765.1,-71844.8,-99319.84,0.00,0.00,0.89,-4,0,-2,73,0
'[17:04:02.252 23/10/2025]',-71108.23,-153568.3,-126964.7,-125784.2,-145753.2,-150971.3,-71147.21,-98158.48,0.00,0.00,0.89,-4,0,-2,73,0
'[17:04:02.256 23/10/2025]',-76317.97,-158824.8,-131904.8,-130474.3,-150910.2,-156826.4,-77213.25,-102653.8,0.00,0.00,0.89,-4,0,-2,73,0
'[17:04:02.260 23/10/2025]',-78064.98,-160628.5,-133692.7,-132563.5,-152767.5,-158691.9,-79027.59,-104619.4,0.00,0.00,0.89,-4,0,-2,73,0
'[17:04:02.264 23/10/2025]',-72810.45,-155320.7,-128709.2,-127900.1,-147568.4,-152740.2,-72838.25,-100134.6,0.00,0.00,0.89,-4,0,-2,73,0
'[17:04:02.268 23/10/2025]',-70661.15,-153116.2,-126556.5,-125442.5,-145321.5,-150440.1,-70583.63,-97824.46,0.00,-0.02,0.91,-4,0,-2,73,0
'[17:04:02.272 23/10/2025]',-75418.41,-157914.5,-131054.7,-129613.6,-150014,-155823.4,-76192.98,-101835.3,0.00,-0.02,0.91,-4,0,-2,73,0
'[17:04:02.276 23/10/2025]',-78368.52,-160930.7,-133975.3,-132747.7,-153052.5,-159045,-79420.22,-104789.8,0.00,-0.02,0.91,-4,0,-2,73,0
'[17:04:02.280 23/10/2025]',-73797.01,-156326.7,-129666.7,-128842.2,-148563.9,-153844.9,-73964.6,-101026.8,0.00,-0.02,0.91,-4,0,-2,73,0
'[17:04:02.284 23/10/2025]',-70428.55,-152885.5,-126353.6,-125314.1,-145108.9,-150156.6,-70264.45,-97681.45,0.00,-0.02,0.91,-4,0,-2,73,0
'[17:04:02.288 23/10/2025]',-74463.85,-156946.5,-130143.1,-128718.8,-149057.5,-154749.6,-75088.72,-100955.8,0.00,-0.02,0.91,-4,0,-2,73,0
'[17:04:02.292 23/10/2025]',-78409.34,-160966.3,-133998.2,-132691.9,-153070.3,-159109.1,-79514.41,-104746.1,0.00,-0.02,0.91,-4,0,-2,73,0
'[17:04:02.296 23/10/2025]',-74840.61,-157379.6,-130661.9,-129799.8,-149599.4,-155008.1,-75168.16,-101942.7,0.00,-0.02,0.91,-4,0,-2,73,0
'[17:04:02.300 23/10/2025]',-70443.27,-152906.2,-126374.7,-125407.5,-145132.4,-150140.3,-70223.99,-97770.86,0.00,-0.02,0.91,-4,0,-2,73,0
'[17:04:02.304 23/10/2025]',-73515.78,-155986.2,-129221.2,-127837.6,-148097.2,-153668.3,-73972.02,-100121.8,-0.02,-0.02,0.89,-4,0,-2,73,0
'[17:04:02.308 23/10/2025]',-78228.16,-160768.3,-133784,-132416.6,-152848.6,-158901.4,-79306.98,-104500.9,-0.02,-0.02,0.89,-4,0,-2,73,0
'[17:04:02.312 23/10/2025]',-75870.89,-158417.2,-131631.8,-130721,-150611.5,-156161.8,-76349.71,-102841.4,-0.02,-0.02,0.89,-4,0,-2,73,0
'[17:04:02.316 23/10/2025]',-70715.2,-153193.1,-126639.6,-125739.1,-145409.7,-150408.9,-70472.86,-98070.55,-0.02,-0.02,0.89,-4,0,-2,73,0
'[17:04:02.320 23/10/2025]',-72630.07,-155113.1,-128354.9,-127030.2,-147189.7,-152642.4,-72891.14,-99334.14,-0.02,-0.02,0.89,-4,0,-2,73,0
'[17:04:02.324 23/10/2025]',-77821.26,-160374.5,-133346.1,-131942.7,-152386.9,-158430.8,-78816,-104027.5,-0.02,-0.02,0.89,-4,0,-2,73,0
'[17:04:02.328 23/10/2025]',-76804.03,-159381.8,-132495.5,-131525.4,-151507.1,-157204.5,-77429.52,-103601.5,-0.02,-0.02,0.89,-4,0,-2,73,0
'[17:04:02.332 23/10/2025]',-71239.3,-153750.5,-127135.7,-126294,-145919.6,-150958.7,-71002.73,-98589.43,-0.02,-0.02,0.89,-4,0,-2,73,0
'[17:04:02.336 23/10/2025]',-71840.02,-154339.5,-127592.4,-126343.5,-146389.1,-151733.6,-71924.73,-98667.57,-0.02,-0.02,0.89,-4,0,-2,73,0
'[17:04:02.340 23/10/2025]',-77210.39,-159772.4,-132725.5,-131302.4,-151737.4,-157739.3,-78119.12,-103409.2,0.00,0.02,0.89,-4,0,-2,73,0
'[17:04:02.344 23/10/2025]',-77601.72,-160212.5,-133215.5,-132169.3,-152247.2,-158070.4,-78351.09,-104199.9,0.00,0.02,0.89,-4,0,-2,73,0
'[17:04:02.348 23/10/2025]',-72009.49,-154563.4,-127857.4,-127043.6,-146665.6,-151754.7,-71830.91,-99291.19,0.00,0.02,0.89,-4,0,-2,73,0
'[17:04:02.352 23/10/2025]',-71229.6,-153748.3,-127000,-125820.6,-145769.8,-150999.3,-71158.43,-98176.41,0.00,0.02,0.89,-4,0,-2,73,0
'[17:04:02.356 23/10/2025]',-76440.37,-159015.8,-131946.9,-130515.5,-150930.3,-156851,-77219.28,-102655.1,0.00,0.02,0.89,-4,0,-2,73,0
'[17:04:02.360 23/10/2025]',-78157.3,-160791.1,-133698.1,-132573.9,-152752,-158680.6,-78977.92,-104586.8,0.00,0.02,0.89,-4,0,-2,73,0
'[17:04:02.364 23/10/2025]',-72870.8,-155463.6,-128683.1,-127887,-147523,-152709.3,-72757.38,-100091.7,0.00,0.02,0.89,-4,0,-2,73,0
'[17:04:02.368 23/10/2025]',-70761.42,-153295.5,-126558.7,-125458.1,-145306.4,-150445.7,-70539.6,-97808.73,0.00,0.02,0.89,-4,0,-2,73,0
'[17:04:02.372 23/10/2025]',-75533.11,-158103.3,-131071,-129648.5,-150019.7,-155847.5,-76170.59,-101819.8,0.00,0.02,0.89,-4,0,-2,73,0
'[17:04:02.376 23/10/2025]',-78460.12,-161095,-133971.5,-132767.2,-153039.6,-159048.8,-79377.21,-104772.5,0.00,0.00,0.89,-4,0,-2,73,0
'[17:04:02.380 23/10/2025]',-73878.05,-156475,-129653.7,-128840.2,-148531.4,-153824.5,-73907.38,-100985.9,0.00,0.00,0.89,-4,0,-2,73,0
'[17:04:02.384 23/10/2025]',-70531.33,-153059.2,-126366.5,-125332.9,-145100.5,-150164.9,-70238.97,-97674.08,0.00,0.00,0.89,-4,0,-2,73,0
'[17:04:02.388 23/10/2025]',-74575.34,-157122.4,-130150.7,-128747.6,-149052.9,-154770.5,-75066.99,-100957.2,0.00,0.00,0.89,-4,0,-2,73,0
'[17:04:02.392 23/10/2025]',-78499.19,-161112.8,-133979.1,-132708.4,-153041.5,-159111.8,-79444.22,-104721.4,0.00,0.00,0.89,-4,0,-2,73,0
'[17:04:02.396 23/10/2025]',-74891.53,-157491.4,-130637.4,-129802.3,-149554.3,-154990.8,-75086.48,-101913.9,0.00,0.00,0.89,-4,0,-2,73,0
'[17:04:02.400 23/10/2025]',-70511.66,-153033.8,-126387.5,-125432,-145118.3,-150149.8,-70188.14,-97756.55,0.00,0.00,0.89,-4,0,-2,73,0
'[17:04:02.404 23/10/2025]',-73588.29,-156117,-129233.4,-127875.6,-148097.3,-153697.9,-73950.21,-100110.7,0.00,0.00,0.89,-4,0,-2,73,0
'[17:04:02.408 23/10/2025]',-78270.94,-160866.7,-133761.9,-132436.3,-152828.8,-158909.5,-79271.22,-104462.9,0.00,0.00,0.89,-4,0,-2,73,0
'[17:04:02.412 23/10/2025]',-75879.12,-158481,-131600,-130715.1,-150568.3,-156139.4,-76296.2,-102788.8,0.00,-0.02,0.89,-4,0,-2,73,0
'[17:04:02.416 23/10/2025]',-70738.84,-153258.9,-126657.7,-125758.8,-145401.8,-150423.2,-70450.69,-98071,0.00,-0.02,0.89,-4,0,-2,73,0
'[17:04:02.420 23/10/2025]',-72643.34,-155149.2,-128371,-127058.3,-147199,-152671.1,-72884.21,-99344.83,0.00,-0.02,0.89,-4,0,-2,73,0
'[17:04:02.424 23/10/2025]',-77809.15,-160375.8,-133320.7,-131946.3,-152372.8,-158433.5,-78792.22,-104005.8,0.00,-0.02,0.89,-4,0,-2,73,0
'[17:04:02.428 23/10/2025]',-76767.42,-159354.1,-132456,-131499.4,-151461.8,-157165.4,-77364.84,-103546.2,0.00,-0.02,0.89,-4,0,-2,73,0
'[17:04:02.432 23/10/2025]',-71210.69,-153726.2,-127146.1,-126287.4,-145906.1,-150947,-70969.34,-98576.46,0.00,-0.02,0.89,-4,0,-2,73,0
'[17:04:02.436 23/10/2025]',-71825.59,-154317.3,-127624.7,-126361.6,-146410,-151756.5,-71936.27,-98673.88,0.00,-0.02,0.89,-4,0,-2,73,0
'[17:04:02.440 23/10/2025]',-77168.81,-159713.7,-132713.3,-131298.6,-151734.5,-157739.2,-78103.52,-103376.7,0.00,-0.02,0.89,-4,0,-2,73,0
'[17:04:02.444 23/10/2025]',-77514.02,-160099.5,-133171.1,-132129.7,-152204,-158029.9,-78279.65,-104142,0.00,-0.02,0.89,-4,0,-2,73,0
'[17:04:02.448 23/10/2025]',-71900.15,-154420.7,-127834.9,-127000.9,-146621.9,-151715.6,-71755.89,-99243.8,0.00,-0.02,0.91,-4,0,-2,73,0
'[17:04:02.452 23/10/2025]',-71151.28,-153626.8,-127008.1,-125807.6,-145762.7,-150995.5,-71128.44,-98141.23,0.00,-0.02,0.91,-4,0,-2,73,0
'[17:04:02.456 23/10/2025]',-76361.24,-158882,-131934.3,-130502.4,-150920.9,-156854,-77197.34,-102636.8,0.00,-0.02,0.91,-4,0,-2,73,0
'[17:04:02.460 23/10/2025]',-78048.98,-160625.3,-133664.5,-132539.8,-152721.2,-158657.6,-78954.67,-104562.4,0.00,-0.02,0.91,-4,0,-2,73,0
'[17:04:02.464 23/10/2025]',-72752.51,-155278.6,-128663.4,-127843.9,-147487.6,-152670.6,-72720.46,-100048.2,0.00,-0.02,0.91,-4,0,-2,73,0
'[17:04:02.468 23/10/2025]',-70658.29,-153127.8,-126561.3,-125438.3,-145292.8,-150436.4,-70529.9,-97784.45,0.00,-0.02,0.91,-4,0,-2,73,0
'[17:04:02.472 23/10/2025]',-75443.93,-157949.1,-131064.2,-129637.6,-150013.4,-155853,-76179.17,-101821.6,0.00,-0.02,0.91,-4,0,-2,73,0
'[17:04:02.476 23/10/2025]',-78348.67,-160916.4,-133937.3,-132736.5,-153008.1,-159027.2,-79354.68,-104758.2,0.00,-0.02,0.91,-4,0,-2,73,0
'[17:04:02.480 23/10/2025]',-73744.98,-156280.6,-129622.1,-128802,-148492,-153790.3,-73864.42,-100960.6,0.00,-0.02,0.91,-4,0,-2,73,0
'[17:04:02.484 23/10/2025]',-70419.7,-152891.7,-126362.5,-125319.5,-145085.8,-150161.7,-70214.02,-97657.31,-0.02,-0.02,0.91,-4,0,-2,73,0
'[17:04:02.488 23/10/2025]',-74490.27,-156980.1,-130158,-128755.2,-149065.4,-154792.5,-75080.85,-100957.4,-0.02,-0.02,0.91,-4,0,-2,73,0
'[17:04:02.492 23/10/2025]',-78397.71,-160953.8,-133965.9,-132695.3,-153041.1,-159108,-79451.38,-104706.6,-0.02,-0.02,0.91,-4,0,-2,73,0
'[17:04:02.496 23/10/2025]',-74774.98,-157319.7,-130609.6,-129763.7,-149531,-154958.2,-75061.23,-101877.4,-0.02,-0.02,0.91,-4,0,-2,73,0
'[17:04:02.500 23/10/2025]',-70422.34,-152892.3,-126387.6,-125413,-145115.9,-150145.3,-70173.39,-97745.78,-0.02,-0.02,0.91,-4,0,-2,73,0
'[17:04:02.504 23/10/2025]',-73519.98,-155999.6,-129246.1,-127871.9,-148108.9,-153710,-73960.8,-100121.1,-0.02,-0.02,0.91,-4,0,-2,73,0
'[17:04:02.508 23/10/2025]',-78188.5,-160736.9,-133750.4,-132410.3,-152810.8,-158890.2,-79252.71,-104447.9,-0.02,-0.02,0.91,-4,0,-2,73,0
'[17:04:02.512 23/10/2025]',-75776.16,-158334.4,-131563,-130665.7,-150526.2,-156093.8,-76246.36,-102758.6,-0.02,-0.02,0.91,-4,0,-2,73,0
'[17:04:02.516 23/10/2025]',-70658.78,-153139.5,-126631.1,-125722.5,-145377.1,-150397,-70425.29,-98050.35,-0.02,-0.02,0.91,-4,0,-2,73,0
'[17:04:02.520 23/10/2025]',-72593.81,-155066.7,-128369.6,-127048.8,-147197.6,-152674.1,-72893.2,-99339.06,-0.02,0.00,0.89,-4,0,-2,73,0
'[17:04:02.524 23/10/2025]',-77757.47,-160293.8,-133321.7,-131941,-152371,-158436.8,-78798.21,-104014.3,-0.02,0.00,0.89,-4,0,-2,73,0
'[17:04:02.528 23/10/2025]',-76707.2,-159270,-132436.9,-131481.5,-151444.6,-157149.6,-77344.5,-103523,-0.02,0.00,0.89,-4,0,-2,73,0
'[17:04:02.532 23/10/2025]',-71163.57,-153651.5,-127120,-126271.4,-145894.7,-150935.6,-70967.1,-98544.28,-0.02,0.00,0.89,-4,0,-2,73,0
'[17:04:02.536 23/10/2025]',-71800.77,-154260.6,-127613.8,-126361.2,-146411.8,-151764.1,-71936.9,-98667.48,-0.02,0.00,0.89,-4,0,-2,73,0
'[17:04:02.540 23/10/2025]',-77146.15,-159664.3,-132711.8,-131299.5,-151733.6,-157745.7,-78103.12,-103394.1,-0.02,0.00,0.89,-4,0,-2,73,0
'[17:04:02.544 23/10/2025]',-77479.33,-160040.9,-133153,-132119.1,-152190.2,-158020.2,-78263.16,-104144.4,-0.02,0.00,0.89,-4,0,-2,73,0
'[17:04:02.548 23/10/2025]',-71872.66,-154368.6,-127804.4,-126988.6,-146609,-151709.2,-71749.41,-99227.44,-0.02,0.00,0.89,-4,0,-2,73,0
'[17:04:02.552 23/10/2025]',-71142.43,-153599.3,-127002.3,-125817.3,-145776.1,-151015.4,-71160.27,-98154.42,-0.02,0.00,0.89,-4,0,-2,73,0
'[17:04:02.556 23/10/2025]',-76353.73,-158862.4,-131953.4,-130523.3,-150948,-156883,-77228.18,-102669.9,0.00,-0.02,0.88,-4,0,-2,73,0
'[17:04:02.560 23/10/2025]',-78030.3,-160594.4,-133671.6,-132548.4,-152734.3,-158670.9,-78956.77,-104577.4,0.00,-0.02,0.88,-4,0,-2,73,0
'[17:04:02.564 23/10/2025]',-72734.63,-155247.2,-128648.9,-127843.2,-147493.8,-152679.1,-72731.05,-100046.2,0.00,-0.02,0.88,-4,0,-2,73,0
'[17:04:02.568 23/10/2025]',-70662.31,-153119.6,-126567.4,-125456,-145322.2,-150468.3,-70564.73,-97806.85,0.00,-0.02,0.88,-4,0,-2,73,0
'[17:04:02.572 23/10/2025]',-75459.89,-157953.9,-131097.4,-129669.1,-150052.9,-155892.5,-76214.35,-101853.3,0.00,-0.02,0.88,-4,0,-2,73,0
'[17:04:02.576 23/10/2025]',-78352.79,-160913,-133961.7,-132758.6,-153033.2,-159051,-79366.75,-104769.4,0.00,-0.02,0.88,-4,0,-2,73,0
'[17:04:02.580 23/10/2025]',-73730,-156258.3,-129606.9,-128799.6,-148494.2,-153796.4,-73855.52,-100955.2,0.00,-0.02,0.88,-4,0,-2,73,0
'[17:04:02.584 23/10/2025]',-70423.59,-152884.6,-126356.6,-125327.3,-145104.8,-150180.8,-70232.94,-97662.37,0.00,-0.02,0.88,-4,0,-2,73,0
'[17:04:02.588 23/10/2025]',-74503.81,-156988.7,-130179.7,-128778.1,-149095.3,-154821.6,-75108.79,-100977.1,0.00,-0.02,0.88,-4,0,-2,73,0
'[17:04:02.592 23/10/2025]',-78405.36,-160961.5,-133987.8,-132716.9,-153058.6,-159131.5,-79459.91,-104725.7,-0.02,0.00,0.89,-4,0,-2,73,0
'[17:04:02.596 23/10/2025]',-74768.82,-157310.4,-130600.1,-129764.4,-149524.1,-154961.2,-75052.87,-101871.5,-0.02,0.00,0.89,-4,0,-2,73,0
'[17:04:02.600 23/10/2025]',-70429.85,-152892.9,-126379,-125423.3,-145118.7,-150164,-70186.76,-97751.41,-0.02,0.00,0.89,-4,0,-2,73,0
'[17:04:02.604 23/10/2025]',-73548.95,-156019.8,-129268.2,-127905,-148135.8,-153751.9,-73994.38,-100144.1,-0.02,0.00,0.89,-4,0,-2,73,0
'[17:04:02.608 23/10/2025]',-78217.87,-160755.9,-133784.8,-132449.8,-152846.6,-158934.4,-79285.13,-104473.9,-0.02,0.00,0.89,-4,0,-2,73,0
'[17:04:02.612 23/10/2025]',-75781.44,-158324.2,-131565.4,-130675.6,-150533.2,-156105.2,-76243.72,-102749.2,-0.02,0.00,0.89,-4,0,-2,73,0
'[17:04:02.616 23/10/2025]',-70664.23,-153131.4,-126626.9,-125727.3,-145379.3,-150409.8,-70421.94,-98035.87,-0.02,0.00,0.89,-4,0,-2,73,0
'[17:04:02.620 23/10/2025]',-72626.13,-155086.7,-128396.4,-127080.7,-147230.4,-152720.4,-72919.75,-99368.12,-0.02,0.00,0.89,-4,0,-2,73,0
'[17:04:02.624 23/10/2025]',-77795.11,-160322.4,-133356.9,-131975.7,-152408.3,-158482.3,-78829.28,-104037.1,-0.02,0.00,0.89,-4,0,-2,73,0
'[17:04:02.628 23/10/2025]',-76711.9,-159267.1,-132443.7,-131489.5,-151453.3,-157166.7,-77352.1,-103534.3,0.02,-0.02,0.89,-4,0,-2,73,0
'[17:04:02.632 23/10/2025]',-71156.28,-153641,-127117.8,-126269.9,-145888.2,-150950.2,-70945.69,-98551.07,0.02,-0.02,0.89,-4,0,-2,73,0
'[17:04:02.636 23/10/2025]',-71810.43,-154273.6,-127630.6,-126382.4,-146425.9,-151805,-71941.81,-98697.48,0.02,-0.02,0.89,-4,0,-2,73,0
'[17:04:02.640 23/10/2025]',-77157.41,-159677.7,-132725.8,-131326.7,-151749.3,-157788.3,-78108.21,-103413.9,0.02,-0.02,0.89,-4,0,-2,73,0
'[17:04:02.644 23/10/2025]',-77460.1,-160024.1,-133139.4,-132120.4,-152173.6,-158028.8,-78229.13,-104136.6,0.02,-0.02,0.89,-4,0,-2,73,0
'[17:04:02.648 23/10/2025]',-71836.05,-154336.2,-127786,-126977.4,-146581.6,-151704.8,-71690.94,-99220.77,0.02,-0.02,0.89,-4,0,-2,73,0
'[17:04:02.652 23/10/2025]',-71139.61,-153597,-127012.4,-125832.1,-145775.3,-151045,-71138.49,-98161.13,0.02,-0.02,0.89,-4,0,-2,73,0
'[17:04:02.656 23/10/2025]',-76372.55,-158880.5,-131968,-130555,-150958.1,-156921.3,-77225.81,-102661.6,0.02,-0.02,0.89,-4,0,-2,73,0
'[17:04:02.660 23/10/2025]',-78019.52,-160584.2,-133660.2,-132558,-152716.3,-158680.3,-78920.38,-104554.5,0.02,-0.02,0.89,-4,0,-2,73,0
'[17:04:02.664 23/10/2025]',-72708.92,-155224.5,-128638.6,-127841.3,-147465.3,-152678.3,-72679.87,-100031.9,0.00,-0.02,0.89,-4,0,-2,73,0
'[17:04:02.668 23/10/2025]',-70664.32,-153122.5,-126584,-125477.3,-145318.6,-150499.8,-70549.34,-97811.86,0.00,-0.02,0.89,-4,0,-2,73,0
'[17:04:02.672 23/10/2025]',-75489.7,-157980.7,-131117.7,-129708.1,-150063.8,-155943.1,-76213.91,-101863.1,0.00,-0.02,0.89,-4,0,-2,73,0
'[17:04:02.676 23/10/2025]',-78353.41,-160909.8,-133952.7,-132770.9,-153017.8,-159071,-79338.23,-104770.1,0.00,-0.02,0.89,-4,0,-2,73,0
'[17:04:02.680 23/10/2025]',-73704.25,-156228.3,-129594.3,-128788.3,-148458.8,-153781.8,-73816.86,-100926.3,0.00,-0.02,0.89,-4,0,-2,73,0
'[17:04:02.684 23/10/2025]',-70418.37,-152872,-126368.9,-125330.7,-145088.6,-150187.5,-70215.14,-97655.26,0.00,-0.02,0.89,-4,0,-2,73,0
'[17:04:02.688 23/10/2025]',-74540.34,-157014.5,-130212.2,-128814.6,-149116.3,-154871.3,-75124.57,-101005.3,0.00,-0.02,0.89,-4,0,-2,73,0
'[17:04:02.692 23/10/2025]',-78423.06,-160965.1,-133992.5,-132731.2,-153061.7,-159151.3,-79456.25,-104726.6,0.00,-0.02,0.89,-4,0,-2,73,0
'[17:04:02.696 23/10/2025]',-74745.52,-157275.3,-130589.4,-129745.9,-149496.9,-154941.3,-75019.07,-101846.5,0.00,-0.02,0.89,-4,0,-2,73,0
'[17:04:02.700 23/10/2025]',-70403.61,-152863.4,-126378.7,-125403.3,-145091,-150144.2,-70142.37,-97721.64,0.00,0.00,0.89,-4,0,-2,73,0
'[17:04:02.704 23/10/2025]',-73565.63,-156037.1,-129280.6,-127913.1,-148132.1,-153764.3,-73982.22,-100138.5,0.00,0.00,0.89,-4,0,-2,73,0
'[17:04:02.708 23/10/2025]',-78229.9,-160771.8,-133772.8,-132451.2,-152826.4,-158937.3,-79253.61,-104460.7,0.00,0.00,0.89,-4,0,-2,73,0
'[17:04:02.712 23/10/2025]',-75764.5,-158313.7,-131548.4,-130661.3,-150495.6,-156083.3,-76190.03,-102716.7,0.00,0.00,0.89,-4,0,-2,73,0
'[17:04:02.716 23/10/2025]',-70664.32,-153136.8,-126644.8,-125734.8,-145366.4,-150408.8,-70395.74,-98031.8,0.00,0.00,0.89,-4,0,-2,73,0
'[17:04:02.720 23/10/2025]',-72653.98,-155115.3,-128427.5,-127108.2,-147236.5,-152740.2,-72917.06,-99358.46,0.00,0.00,0.89,-4,0,-2,73,0
'[17:04:02.724 23/10/2025]',-77811.83,-160336.8,-133363.8,-131990.9,-152397,-158482.9,-78805.45,-104003.6,0.00,0.00,0.89,-4,0,-2,73,0
'[17:04:02.728 23/10/2025]',-76692.59,-159244.5,-132422.5,-131471.4,-151403.2,-157127.8,-77273.33,-103480.1,0.00,0.00,0.89,-4,0,-2,73,0
'[17:04:02.732 23/10/2025]',-71145.02,-153624,-127119.7,-126259.8,-145856.6,-150923.7,-70889.85,-98515.31,0.00,0.00,0.89,-4,0,-2,73,0
'[17:04:02.736 23/10/2025]',-71838.46,-154291,-127667.9,-126403.8,-146433.5,-151815.9,-71940.74,-98682.19,0.00,-0.02,0.91,-4,0,-2,73,0
'[17:04:02.740 23/10/2025]',-77188.44,-159701.7,-132760.2,-131349.2,-151763,-157802.4,-78116.98,-103404.2,0.00,-0.02,0.91,-4,0,-2,73,0
'[17:04:02.744 23/10/2025]',-77464.7,-160021.3,-133151.3,-132119.2,-152165.7,-158019,-78207.77,-104120.6,0.00,-0.02,0.91,-4,0,-2,73,0
'[17:04:02.748 23/10/2025]',-71847.94,-154340.6,-127802.7,-126977.5,-146572.4,-151697.1,-71669.3,-99196.05,0.00,-0.02,0.91,-4,0,-2,73,0
'[17:04:02.752 23/10/2025]',-71165.09,-153616.9,-127040.3,-125845.1,-145782,-151046.3,-71141.98,-98134.03,0.00,-0.02,0.91,-4,0,-2,73,0
'[17:04:02.756 23/10/2025]',-76395.4,-158894.8,-131993,-130566.1,-150964,-156926.6,-77231.63,-102652.9,0.00,-0.02,0.91,-4,0,-2,73,0
'[17:04:02.760 23/10/2025]',-78026.9,-160583.5,-133665.3,-132555,-152701.3,-158662.1,-78896.38,-104521.9,0.00,-0.02,0.91,-4,0,-2,73,0
'[17:04:02.764 23/10/2025]',-72711.56,-155219,-128634.3,-127832.3,-147444.9,-152655.5,-72641.42,-99990.48,0.00,-0.02,0.91,-4,0,-2,73,0
'[17:04:02.768 23/10/2025]',-70697.85,-153150.4,-126608.3,-125493.3,-145337,-150510.8,-70561.19,-97802.6,0.00,-0.02,0.91,-4,0,-2,73,0
'[17:04:02.772 23/10/2025]',-75500.03,-157992.7,-131130.5,-129709.2,-150065.8,-155935.5,-76206.3,-101837.5,0.00,0.00,0.89,-4,0,-2,73,0
'[17:04:02.776 23/10/2025]',-78339.24,-160897.2,-133942.8,-132747.8,-152993.4,-159031.3,-79304.97,-104711.9,0.00,0.00,0.89,-4,0,-2,73,0
'[17:04:02.780 23/10/2025]',-73696.47,-156219.3,-129579.1,-128763.5,-148430.9,-153748.6,-73766.92,-100883.6,0.00,0.00,0.89,-4,0,-2,73,0
'[17:04:02.784 23/10/2025]',-70444.16,-152901,-126384.9,-125339.6,-145095,-150196.3,-70203.38,-97644.89,0.00,0.00,0.89,-4,0,-2,73,0
'[17:04:02.788 23/10/2025]',-74552.32,-157031.2,-130227.6,-128817.4,-149115.8,-154872.3,-75107.76,-100992.8,0.00,0.00,0.89,-4,0,-2,73,0
'[17:04:02.792 23/10/2025]',-78410.77,-160955.2,-133990.2,-132716.7,-153036.9,-159127.3,-79416.64,-104688.9,0.00,0.00,0.89,-4,0,-2,73,0
'[17:04:02.796 23/10/2025]',-74734.48,-157265.2,-130573.2,-129726.4,-149467.7,-154909.9,-74973.88,-101788.1,0.00,0.00,0.89,-4,0,-2,73,0
'[17:04:02.800 23/10/2025]',-70425.52,-152885.1,-126388.9,-125415.7,-145096.9,-150154.5,-70136.73,-97699.52,0.00,0.00,0.89,-4,0,-2,73,0
'[17:04:02.804 23/10/2025]',-73579.66,-156051,-129307.3,-127932.4,-148149.2,-153787.1,-73975.42,-100135.8,0.00,0.00,0.89,-4,0,-2,73,0
'[17:04:02.808 23/10/2025]',-78224.4,-160764.2,-133796.9,-132458.1,-152831.9,-158942.6,-79237.38,-104445.8,-0.02,-0.02,0.89,-4,0,-2,73,0
'[17:04:02.812 23/10/2025]',-75746.17,-158292.2,-131540.4,-130644.9,-150476.4,-156060.5,-76157.17,-102669.9,-0.02,-0.02,0.89,-4,0,-2,73,0
'[17:04:02.816 23/10/2025]',-70668.34,-153139.1,-126640.9,-125730.9,-145360,-150409,-70376.21,-97995.68,-0.02,-0.02,0.89,-4,0,-2,73,0
'[17:04:02.820 23/10/2025]',-72672.31,-155136.6,-128448.9,-127124,-147250.5,-152765.7,-72918.01,-99360.7,-0.02,-0.02,0.89,-4,0,-2,73,0
'[17:04:02.824 23/10/2025]',-77814.55,-160346,-133386.4,-132001.2,-152405.4,-158498.5,-78810.23,-104017,-0.02,-0.02,0.89,-4,0,-2,73,0
'[17:04:02.828 23/10/2025]',-76671.48,-159227.2,-132414.2,-131457.7,-151388.5,-157112.4,-77253.84,-103457,-0.02,-0.02,0.89,-4,0,-2,73,0
'[17:04:02.832 23/10/2025]',-71146,-153625.2,-127113.6,-126258.9,-145855.1,-150924.3,-70891.33,-98488.66,-0.02,-0.02,0.89,-4,0,-2,73,0
'[17:04:02.836 23/10/2025]',-71857.05,-154313.2,-127684.6,-126422.9,-146455.5,-151839.8,-71966.22,-98682.32,-0.02,-0.02,0.89,-4,0,-2,73,0
'[17:04:02.840 23/10/2025]',-77195.05,-159709.4,-132778.8,-131363.8,-151773.3,-157818.1,-78122.79,-103405.2,-0.02,-0.02,0.89,-4,0,-2,73,0
'[17:04:02.844 23/10/2025]',-77449.64,-160005.9,-133143.1,-132109.2,-152148.1,-158000.1,-78184.52,-104080.2,0.00,0.00,0.89,-4,0,-2,73,0
'[17:04:02.848 23/10/2025]',-71839.94,-154331.4,-127791.4,-126967.3,-146557.6,-151683,-71652.41,-99160.25,0.00,0.00,0.89,-4,0,-2,73,0
'[17:04:02.852 23/10/2025]',-71186.82,-153637.8,-127059.6,-125863.3,-145793,-151074.5,-71133.17,-98151.47,0.00,0.00,0.89,-4,0,-2,73,0
'[17:04:02.856 23/10/2025]',-76418.29,-158920.5,-132029,-130591.3,-150983.7,-156959.5,-77231.17,-102677.4,0.00,0.00,0.89,-4,0,-2,73,0
'[17:04:02.860 23/10/2025]',-78015.99,-160573.1,-133667.8,-132543.3,-152689.4,-158649.8,-78871.13,-104498.5,0.00,0.00,0.89,-4,0,-2,73,0
'[17:04:02.864 23/10/2025]',-72698.91,-155201.4,-128626.2,-127811.6,-147428.8,-152638.7,-72624.21,-99963.93,0.00,0.00,0.89,-4,0,-2,73,0
'[17:04:02.868 23/10/2025]',-70707.1,-153156.4,-126621.4,-125496.6,-145338.5,-150520.1,-70556.95,-97799.3,0.00,0.00,0.89,-4,0,-2,73,0
'[17:04:02.872 23/10/2025]',-75530.21,-158017,-131167.8,-129734.7,-150088.2,-155966.7,-76221.95,-101856.1,0.00,0.00,0.89,-4,0,-2,73,0
'[17:04:02.876 23/10/2025]',-78340.72,-160892.5,-133955.2,-132751.3,-152989.6,-159034.8,-79286.91,-104707.1,0.00,0.00,0.89,-4,0,-2,73,0
'[17:04:02.880 23/10/2025]',-73673.54,-156191.7,-129566.8,-128747.1,-148408.3,-153731.3,-73740.37,-100857.1,0.00,0.00,0.89,-4,0,-2,73,0
'[17:04:02.884 23/10/2025]',-70442.46,-152893.8,-126390.4,-125339.7,-145089.7,-150200,-70199.85,-97627.99,0.00,0.00,0.89,-4,0,-2,73,0
'[17:04:02.888 23/10/2025]',-74570.96,-157050.1,-130255.1,-128840.7,-149130.8,-154897.1,-75125.64,-100994.5,0.00,0.00,0.89,-4,0,-2,73,0
'[17:04:02.892 23/10/2025]',-78419.08,-160967.9,-134008.8,-132732.1,-153043.8,-159144.7,-79419.91,-104698.6,0.00,0.00,0.89,-4,0,-2,73,0
'[17:04:02.896 23/10/2025]',-74706.86,-157246.1,-130562.3,-129713.9,-149445,-154900.4,-74932.08,-101784.6,0.00,0.00,0.89,-4,0,-2,73,0
'[17:04:02.900 23/10/2025]',-70396.86,-152879.4,-126393.1,-125412,-145092.1,-150160.4,-70123.77,-97708.19,0.00,0.00,0.89,-4,0,-2,73,0
'[17:04:02.904 23/10/2025]',-73577.73,-156071.8,-129337.2,-127955.1,-148171.4,-153817.9,-74002.87,-100154.6,0.00,0.00,0.89,-4,0,-2,73,0
'[17:04:02.908 23/10/2025]',-78219.21,-160780.5,-133819.5,-132479.9,-152849.5,-158963.5,-79257.41,-104461.3,0.00,0.00,0.89,-4,0,-2,73,0
'[17:04:02.912 23/10/2025]',-75715.81,-158283.7,-131542.2,-130646.2,-150469.3,-156062.6,-76138.09,-102689.5,0.00,0.00,0.89,-4,0,-2,73,0
'[17:04:02.916 23/10/2025]',-70628.16,-153119.4,-126637.7,-125720.4,-145342.5,-150399.2,-70345.68,-97987.36,0.02,0.00,0.89,-4,0,-2,73,0
'[17:04:02.920 23/10/2025]',-72660.55,-155145,-128465.8,-127135.8,-147259.2,-152781.4,-72924.22,-99376.16,0.02,0.00,0.89,-4,0,-2,73,0
'[17:04:02.924 23/10/2025]',-77807.49,-160358,-133397.5,-132015.6,-152410.8,-158521.3,-78805.95,-104060.6,0.02,0.00,0.89,-4,0,-2,73,0
'[17:04:02.928 23/10/2025]',-76634.61,-159211.3,-132403.3,-131445.5,-151363.6,-157105.8,-77228.41,-103471,0.02,0.00,0.89,-4,0,-2,73,0
'[17:04:02.932 23/10/2025]',-71089.77,-153593.6,-127092.5,-126220.9,-145804.2,-150882.4,-70828.61,-98429.93,0.02,0.00,0.89,-4,0,-2,73,0
'[17:04:02.936 23/10/2025]',-71829.16,-154308,-127685.4,-126407.9,-146428.7,-151829.6,-71931.4,-98649.64,0.02,0.00,0.89,-4,0,-2,73,0
'[17:04:02.940 23/10/2025]',-77187.59,-159721.7,-132786.8,-131363.6,-151766.8,-157816.8,-78118.49,-103370.5,0.02,0.00,0.89,-4,0,-2,73,0
'[17:04:02.944 23/10/2025]',-77409.37,-159987.6,-133129.5,-132084,-152119.5,-157967.5,-78151.13,-104028.3,0.02,0.00,0.89,-4,0,-2,73,0
'[17:04:02.948 23/10/2025]',-71768.63,-154285,-127766.2,-126919.3,-146510.1,-151629.2,-71590.84,-99094.09,0.02,0.00,0.89,-4,0,-2,73,0
'[17:04:02.952 23/10/2025]',-71145.2,-153620.7,-127060.7,-125841.2,-145776.9,-151052.6,-71123.07,-98106.54,0.00,-0.02,0.89,-4,0,-2,73,0
'[17:04:02.956 23/10/2025]',-76411.36,-158933.4,-132042.7,-130598.9,-150993,-156968.3,-77243.78,-102657.5,0.00,-0.02,0.89,-4,0,-2,73,0
'[17:04:02.960 23/10/2025]',-77991.85,-160571.4,-133670,-132544.5,-152684,-158651,-78860.04,-104488.9,0.00,-0.02,0.89,-4,0,-2,73,0
'[17:04:02.964 23/10/2025]',-72649.47,-155182.4,-128622.3,-127794.2,-147400.6,-152614,-72579.2,-99932.68,0.00,-0.02,0.89,-4,0,-2,73,0
'[17:04:02.968 23/10/2025]',-70675.59,-153155,-126634.7,-125493.8,-145325.3,-150513.7,-70533.7,-97773.77,0.00,-0.02,0.89,-4,0,-2,73,0
'[17:04:02.972 23/10/2025]',-75521.18,-158038.4,-131184.3,-129751.2,-150092.8,-155981.4,-76227.54,-101847.7,0.00,-0.02,0.89,-4,0,-2,73,0
'[17:04:02.976 23/10/2025]',-78322.84,-160906,-133958.7,-132763.4,-152983.5,-159041.4,-79274.88,-104697.1,0.00,-0.02,0.89,-4,0,-2,73,0
'[17:04:02.980 23/10/2025]',-73625.08,-156179.1,-129558.9,-128735.9,-148376.6,-153709.1,-73693.74,-100825.6,0.00,-0.02,0.89,-4,0,-2,73,0
'[17:04:02.984 23/10/2025]',-70400.98,-152890.4,-126393.3,-125334.8,-145069.7,-150193.2,-70174.82,-97612.39,0.00,-0.02,0.89,-4,0,-2,73,0
'[17:04:02.988 23/10/2025]',-74553.21,-157064.8,-130261.7,-128852.8,-149129.1,-154914.3,-75127.12,-100990.4,0.00,-0.02,0.89,-4,0,-2,73,0
'[17:04:02.992 23/10/2025]',-78392.08,-160970.5,-133997.6,-132733.7,-153027.6,-159144.8,-79398.89,-104678.1,0.00,-0.02,0.89,-4,0,-2,73,0
'[17:04:02.996 23/10/2025]',-74667.52,-157236,-130547.7,-129699.9,-149412.6,-154881.8,-74896.89,-101752.2,0.00,-0.02,0.89,-4,0,-2,73,0
'[17:04:03.000 23/10/2025]',-70384.39,-152882,-126392.9,-125407.2,-145066.4,-150153.9,-70098.73,-97679.09,0.00,-0.02,0.89,-4,0,-2,73,0
'[17:04:03.004 23/10/2025]',-73583.33,-156086.3,-129336.8,-127964,-148154.7,-153826.4,-73983.42,-100139.7,0.00,-0.02,0.89,-4,0,-2,73,0
'[17:04:03.008 23/10/2025]',-78211.16,-160783.1,-133798.4,-132478.2,-152814.6,-158961.1,-79217.75,-104436,0.00,-0.02,0.89,-4,0,-2,73,0
'[17:04:03.012 23/10/2025]',-75679.88,-158261.6,-131507.9,-130618.5,-150414.2,-156026,-76075.63,-102626.6,0.00,-0.02,0.89,-4,0,-2,73,0
'[17:04:03.016 23/10/2025]',-70607.46,-153112.4,-126631.8,-125704.1,-145313.8,-150380.5,-70319.03,-97948.88,0.00,-0.02,0.89,-4,0,-2,73,0
'[17:04:03.020 23/10/2025]',-72665.92,-155162.1,-128481.6,-127143.5,-147257.3,-152793.7,-72924.76,-99355.69,0.00,-0.02,0.89,-4,0,-2,73,0
'[17:04:03.024 23/10/2025]',-77807.8,-160366.6,-133401.7,-132018.7,-152401.3,-158517.9,-78788.38,-103999,0.00,-0.02,0.89,-4,0,-2,73,0
'[17:04:03.028 23/10/2025]',-76616.81,-159203.7,-132394.3,-131432,-151340.2,-157079.3,-77173.69,-103406.3,0.00,-0.02,0.89,-4,0,-2,73,0
'[17:04:03.032 23/10/2025]',-71055.34,-153573.2,-127077.8,-126202.5,-145781.7,-150860.9,-70779.3,-98418.04,0.00,-0.02,0.89,-4,0,-2,73,0
'[17:04:03.036 23/10/2025]',-71842.35,-154334.8,-127714,-126431.4,-146444.9,-151862.3,-71943.87,-98660.87,0.00,-0.02,0.89,-4,0,-2,73,0
'[17:04:03.040 23/10/2025]',-77200.42,-159747.5,-132812.1,-131396.6,-151782.5,-157858,-78119.84,-103406.7,0.00,-0.02,0.89,-4,0,-2,73,0
'[17:04:03.044 23/10/2025]',-77400.34,-159992.5,-133132.2,-132100.1,-152108,-157989.3,-78114.2,-104067.7,0.00,-0.02,0.89,-4,0,-2,73,0
'[17:04:03.048 23/10/2025]',-71773.2,-154298.7,-127776.3,-126940.7,-146505.9,-151653.7,-71577.7,-99114.34,0.00,-0.02,0.89,-4,0,-2,73,0
'[17:04:03.052 23/10/2025]',-71164.42,-153649.1,-127078.9,-125873.5,-145784.1,-151078.8,-71133.48,-98098.41,0.00,-0.02,0.89,-4,0,-2,73,0
'[17:04:03.056 23/10/2025]',-76411.45,-158944.7,-132041.4,-130612.5,-150976.1,-156973.4,-77223.76,-102635.3,0.00,-0.02,0.89,-4,0,-2,73,0
'[17:04:03.060 23/10/2025]',-77971.11,-160561.6,-133648,-132536.3,-152644.6,-158627.7,-78810.37,-104447.3,0.00,-0.02,0.89,-4,0,-2,73,0
'[17:04:03.064 23/10/2025]',-72617.55,-155158,-128584.6,-127771.6,-147351.9,-152576.8,-72511.6,-99880.6,0.00,-0.02,0.89,-4,0,-2,73,0
'[17:04:03.068 23/10/2025]',-70672.28,-153158.9,-126624.5,-125493.4,-145302.8,-150513,-70506.88,-97748.51,0.00,-0.02,0.89,-4,0,-2,73,0
'[17:04:03.072 23/10/2025]',-75535.17,-158058.6,-131203.9,-129774.1,-150093.4,-156006.5,-76227.13,-101855.2,0.00,-0.02,0.89,-4,0,-2,73,0
'[17:04:03.076 23/10/2025]',-78308.09,-160895.1,-133956.2,-132759.8,-152960.2,-159031.9,-79249.72,-104671.7,0.00,-0.02,0.89,-4,0,-2,73,0
'[17:04:03.080 23/10/2025]',-73607.06,-156158.8,-129537.2,-128716.5,-148343,-153683.7,-73649.4,-100779.8,0.00,-0.02,0.89,-4,0,-2,73,0
'[17:04:03.084 23/10/2025]',-70401.33,-152886.9,-126385.7,-125330.1,-145054,-150186.7,-70152.16,-97583.82,0.00,-0.02,0.89,-4,0,-2,73,0
'[17:04:03.088 23/10/2025]',-74565.02,-157074.8,-130280.6,-128862,-149126.7,-154920.4,-75109.19,-100977.8,0.00,-0.02,0.89,-4,0,-2,73,0
'[17:04:03.092 23/10/2025]',-78381.35,-160956.7,-134005,-132723.9,-153009.4,-159126.3,-79367.11,-104652.4,0.00,-0.02,0.89,-4,0,-2,73,0
'[17:04:03.096 23/10/2025]',-74641.95,-157203.9,-130527,-129669.2,-149378.9,-154839.7,-74854.02,-101701.5,0.00,0.00,0.89,-4,0,-2,73,0
'[17:04:03.100 23/10/2025]',-70385.41,-152873.7,-126392,-125394.4,-145059.8,-150135.4,-70086.26,-97639.75,0.00,0.00,0.89,-4,0,-2,73,0
'[17:04:03.104 23/10/2025]',-73617.75,-156111.6,-129385.4,-127984.4,-148189.5,-153848.3,-74027.81,-100143.7,0.00,0.00,0.89,-4,0,-2,73,0
'[17:04:03.108 23/10/2025]',-78228.11,-160790.8,-133843,-132486.6,-152838.8,-158965.7,-79244.45,-104430.3,0.00,0.00,0.89,-4,0,-2,73,0
'[17:04:03.112 23/10/2025]',-75672.01,-158239.2,-131514,-130603.9,-150407.1,-156006.4,-76068.08,-102598.6,0.00,0.00,0.89,-4,0,-2,73,0
'[17:04:03.116 23/10/2025]',-70614.43,-153106.1,-126636.1,-125704.9,-145313.8,-150381.9,-70314.43,-97936.76,0.00,0.00,0.89,-4,0,-2,73,0
'[17:04:03.120 23/10/2025]',-72691.45,-155177.1,-128514,-127168.8,-147276.5,-152820.3,-72942.73,-99368.25,0.00,0.00,0.89,-4,0,-2,73,0
'[17:04:03.124 23/10/2025]',-77802.17,-160357.7,-133420.4,-132025.7,-152402.9,-158526.7,-78788.06,-104003.2,0.00,0.00,0.89,-4,0,-2,73,0
'[17:04:03.128 23/10/2025]',-76582.7,-159167.2,-132374.7,-131410.2,-151307.1,-157051.3,-77141.27,-103357,0.00,0.00,0.89,-4,0,-2,73,0
'[17:04:03.132 23/10/2025]',-71056.23,-153567.2,-127072.1,-126202.2,-145769.9,-150864.8,-70781.63,-98389.16,0.00,-0.02,0.91,-4,0,0,73,0
'[17:04:03.136 23/10/2025]',-71837.97,-154327.4,-127707.7,-126430.9,-146436.5,-151863.6,-71939.58,-98652.82,0.00,-0.02,0.91,-4,0,0,73,0
'[17:04:03.140 23/10/2025]',-77185.27,-159734.4,-132805.9,-131382.7,-151757.8,-157839.1,-78090.33,-103374.2,0.00,-0.02,0.91,-4,0,0,73,0
'[17:04:03.144 23/10/2025]',-77372.53,-159960.9,-133104.2,-132067.4,-152063.7,-157942.9,-78073.88,-103991,0.00,-0.02,0.91,-4,0,0,73,0
'[17:04:03.148 23/10/2025]',-71745.34,-154269.7,-127736.5,-126909.1,-146459,-151613.7,-71528.75,-99052.02,0.00,-0.02,0.91,-4,0,0,73,0
'[17:04:03.152 23/10/2025]',-71167.68,-153653.5,-127074.7,-125872.8,-145766.1,-151084.5,-71115.29,-98092.77,0.00,-0.02,0.91,-4,0,0,73,0
'[17:04:03.156 23/10/2025]',-76422.04,-158953.8,-132055.7,-130621.9,-150972,-156984.5,-77233.63,-102632.1,0.00,-0.02,0.91,-4,0,0,73,0
'[17:04:03.160 23/10/2025]',-77954.08,-160544,-133638.2,-132521.9,-152616.7,-158612.1,-78782.7,-104425.7,0.00,-0.02,0.91,-4,0,0,73,0
'[17:04:03.164 23/10/2025]',-72607,-155149.4,-128576.6,-127760.8,-147331.6,-152571.5,-72507.36,-99864.55,0.00,-0.02,0.91,-4,0,0,73,0
'[17:04:03.168 23/10/2025]',-70674.07,-153162.5,-126631.6,-125496,-145302.3,-150519.3,-70515.2,-97740.69,0.00,0.00,0.91,-4,0,-2,73,0
'[17:04:03.172 23/10/2025]',-75530.38,-158054.1,-131208.5,-129764.3,-150087.4,-155999.2,-76223.96,-101833.1,0.00,0.00,0.91,-4,0,-2,73,0
'[17:04:03.176 23/10/2025]',-78295.07,-160881.4,-133951.2,-132735.9,-152944.3,-159013,-79232.64,-104651.6,0.00,0.00,0.91,-4,0,-2,73,0
'[17:04:03.180 23/10/2025]',-73582.25,-156136.6,-129526.9,-128687.4,-148324.3,-153663,-73636.57,-100761,0.00,0.00,0.91,-4,0,-2,73,0
'[17:04:03.184 23/10/2025]',-70400.08,-152886.8,-126397.4,-125321.1,-145053.3,-150190.1,-70161.09,-97580.07,0.00,0.00,0.91,-4,0,-2,73,0
'[17:04:03.188 23/10/2025]',-74581.87,-157091.7,-130303.4,-128869.5,-149138,-154939.1,-75145.58,-100984.9,0.00,0.00,0.91,-4,0,-2,73,0
'[17:04:03.192 23/10/2025]',-78379.97,-160960,-134005.3,-132722.2,-153002.1,-159128.9,-79382.53,-104645,0.00,0.00,0.91,-4,0,-2,73,0
'[17:04:03.196 23/10/2025]',-74614.41,-157181.8,-130508.1,-129649.1,-149346.5,-154821.3,-74835.29,-101681.5,0.00,0.00,0.91,-4,0,-2,73,0
'[17:04:03.200 23/10/2025]',-70376.56,-152868.6,-126391.9,-125393.8,-145043.1,-150142.3,-70088.77,-97649.18,0.00,0.00,0.91,-4,0,-2,73,0
'[17:04:03.204 23/10/2025]',-73606.57,-156108.9,-129370.8,-127985.1,-148166.1,-153855.5,-74015.2,-100146.4,-0.02,0.00,0.89,-4,0,-2,73,0
'[17:04:03.208 23/10/2025]',-78205.8,-160777.9,-133809.7,-132474.4,-152802.9,-158954,-79213.06,-104400.6,-0.02,0.00,0.89,-4,0,-2,73,0
'[17:04:03.212 23/10/2025]',-75641.48,-158220.8,-131480.1,-130581.9,-150364.5,-155982.1,-76023.6,-102565.2,-0.02,0.00,0.89,-4,0,-2,73,0
'[17:04:03.216 23/10/2025]',-70599.19,-153106.6,-126625.5,-125697.3,-145287.9,-150372.4,-70295.43,-97914.63,-0.02,0.00,0.89,-4,0,-2,73,0
'[17:04:03.220 23/10/2025]',-72681.48,-155179.5,-128497.9,-127163.1,-147255.6,-152814.7,-72929.9,-99348.23,-0.02,0.00,0.89,-4,0,-2,73,0
'[17:04:03.224 23/10/2025]',-77795.65,-160357.9,-133395,-132015.8,-152375.8,-158513.7,-78771.44,-103969.6,-0.02,0.00,0.89,-4,0,-2,73,0
'[17:04:03.228 23/10/2025]',-76567.82,-159154,-132348,-131392.8,-151274.8,-157033,-77121.83,-103346.1,-0.02,0.00,0.89,-4,0,-2,73,0
'[17:04:03.232 23/10/2025]',-71044.7,-153557.5,-127062.9,-126190.6,-145745.3,-150850.3,-70777.29,-98373.29,-0.02,0.00,0.89,-4,0,-2,73,0
'[17:04:03.236 23/10/2025]',-71854.2,-154341.3,-127717,-126441.5,-146433.6,-151873.5,-71958.13,-98649.29,-0.02,0.00,0.89,-4,0,-2,73,0
'[17:04:03.240 23/10/2025]',-77194.52,-159736.2,-132798.4,-131385.7,-151749.2,-157845.3,-78111.7,-103366.4,0.00,-0.02,0.89,-4,0,-2,73,0
'[17:04:03.244 23/10/2025]',-77358.8,-159943.6,-133085,-132054.2,-152037.4,-157929.4,-78066.82,-103977.4,0.00,-0.02,0.89,-4,0,-2,73,0
'[17:04:03.248 23/10/2025]',-71739.62,-154262.8,-127741.6,-126901.3,-146446.5,-151608,-71535.95,-99053.41,0.00,-0.02,0.89,-4,0,-2,73,0
'[17:04:03.252 23/10/2025]',-71181.81,-153665,-127097.6,-125880.6,-145780.7,-151100.3,-71142.7,-98124.52,0.00,-0.02,0.89,-4,0,-2,73,0
'[17:04:03.256 23/10/2025]',-76435.99,-158965.3,-132067,-130625.6,-150982.3,-156994.9,-77244.5,-102651.6,0.00,-0.02,0.89,-4,0,-2,73,0
'[17:04:03.260 23/10/2025]',-77958.45,-160541,-133639.6,-132514.2,-152616.5,-158606.2,-78800,-104435.9,0.00,-0.02,0.89,-4,0,-2,73,0
'[17:04:03.264 23/10/2025]',-72589.79,-155121.2,-128565.5,-127733.3,-147311.9,-152540.4,-72490.37,-99856.41,0.00,-0.02,0.89,-4,0,-2,73,0
'[17:04:03.268 23/10/2025]',-70677.95,-153154.8,-126638.1,-125485.3,-145298.8,-150510.6,-70518.95,-97737.78,0.00,-0.02,0.89,-4,0,-2,73,0
'[17:04:03.272 23/10/2025]',-75550.68,-158064.4,-131222.7,-129776.9,-150101.3,-156015.4,-76247.52,-101844.1,0.00,-0.02,0.89,-4,0,-2,73,0
'[17:04:03.276 23/10/2025]',-78308.04,-160886.2,-133954.9,-132752.2,-152949.5,-159024.8,-79244.04,-104665.1,-0.02,-0.02,0.91,-4,0,-2,73,0
'[17:04:03.280 23/10/2025]',-73595.09,-156140.4,-129531.9,-128702.4,-148324.2,-153673.3,-73642.06,-100780,-0.02,-0.02,0.91,-4,0,-2,73,0
'[17:04:03.284 23/10/2025]',-70435.93,-152914.7,-126426.3,-125360.7,-145083.3,-150228.3,-70201.59,-97618.07,-0.02,-0.02,0.91,-4,0,-2,73,0
'[17:04:03.288 23/10/2025]',-74618.97,-157119.2,-130327.3,-128912.1,-149169.3,-154979.4,-75176.24,-101019.7,-0.02,-0.02,0.91,-4,0,-2,73,0
'[17:04:03.292 23/10/2025]',-78411.21,-160978.4,-134020.2,-132753.7,-153018.1,-159152.2,-79389.77,-104652.3,-0.02,-0.02,0.91,-4,0,-2,73,0
'[17:04:03.296 23/10/2025]',-74645.48,-157201.4,-130521,-129679.3,-149357.8,-154844.1,-74838.06,-101694.7,-0.02,-0.02,0.91,-4,0,-2,73,0
'[17:04:03.300 23/10/2025]',-70405.94,-152889.9,-126401.2,-125423.1,-145055.8,-150165.7,-70099.27,-97657.72,-0.02,-0.02,0.91,-4,0,-2,73,0
'[17:04:03.304 23/10/2025]',-73649.89,-156141.3,-129395.4,-128021.8,-148192,-153883.2,-74042.56,-100160.8,-0.02,-0.02,0.91,-4,0,-2,73,0
'[17:04:03.308 23/10/2025]',-78251.71,-160813.7,-133840.4,-132514.1,-152831.3,-158983.2,-79257.36,-104429.2,-0.02,-0.02,0.91,-4,0,-2,73,0
'[17:04:03.312 23/10/2025]',-75663.06,-158237.5,-131484,-130598.7,-150363.5,-155986.8,-76024.23,-102564.8,0.00,-0.02,0.89,-4,0,-2,73,0
'[17:04:03.316 23/10/2025]',-70618.81,-153118,-126621.6,-125709.9,-145285.4,-150380,-70290.69,-97923.75,0.00,-0.02,0.89,-4,0,-2,73,0
'[17:04:03.320 23/10/2025]',-72709.02,-155195.8,-128505.4,-127182.9,-147261.6,-152829.2,-72938.61,-99359.85,0.00,-0.02,0.89,-4,0,-2,73,0
'[17:04:03.324 23/10/2025]',-77848.75,-160399.6,-133435.7,-132060.4,-152408.9,-158557.1,-78817.26,-104011,0.00,-0.02,0.89,-4,0,-2,73,0
'[17:04:03.328 23/10/2025]',-76613.06,-159188.3,-132383.4,-131433.3,-151306.9,-157073.6,-77162.24,-103384.3,0.00,-0.02,0.89,-4,0,-2,73,0
'[17:04:03.332 23/10/2025]',-71063.75,-153567.3,-127066.6,-126205.2,-145756.1,-150863.9,-70782.07,-98395.46,0.00,-0.02,0.89,-4,0,-2,73,0
'[17:04:03.336 23/10/2025]',-71857.01,-154336.3,-127708,-126435.7,-146427.5,-151864.3,-71935.33,-98648.17,0.00,-0.02,0.89,-4,0,-2,73,0
'[17:04:03.340 23/10/2025]',-77237.16,-159771.8,-132840.6,-131415.1,-151784.6,-157879.7,-78139.59,-103404,0.00,-0.02,0.89,-4,0,-2,73,0
'[17:04:03.344 23/10/2025]',-77403.73,-159981.6,-133126.9,-132087.9,-152077.9,-157964.9,-78091.94,-104020,0.00,-0.02,0.89,-4,0,-2,73,0
'[17:04:03.348 23/10/2025]',-71734.66,-154250.5,-127724.6,-126890.7,-146440.1,-151592.1,-71507.56,-99048.66,0.00,0.00,0.89,-4,0,-2,73,0
'[17:04:03.352 23/10/2025]',-71168.94,-153643.6,-127073.3,-125861.5,-145761,-151075.1,-71105.45,-98093.13,0.00,0.00,0.89,-4,0,-2,73,0
'[17:04:03.356 23/10/2025]',-76471.04,-158993.6,-132102.9,-130655.4,-151015.5,-157031.7,-77282.9,-102684.5,0.00,0.00,0.89,-4,0,-2,73,0
'[17:04:03.360 23/10/2025]',-78000.39,-160579.7,-133683.4,-132557.8,-152655.9,-158651.3,-78832.32,-104466.8,0.00,0.00,0.89,-4,0,-2,73,0
'[17:04:03.364 23/10/2025]',-72603.7,-155130,-128570,-127749.9,-147319.3,-152553,-72495.55,-99862.95,0.00,0.00,0.89,-4,0,-2,73,0
'[17:04:03.368 23/10/2025]',-70674.91,-153147.8,-126622.9,-125484.4,-145288,-150503.4,-70499.32,-97735.32,0.00,0.00,0.89,-4,0,-2,73,0
'[17:04:03.372 23/10/2025]',-75565.21,-158075.7,-131233.4,-129788.7,-150103.6,-156022.1,-76250.6,-101837.5,0.00,0.00,0.89,-4,0,-2,73,0
'[17:04:03.376 23/10/2025]',-78325.3,-160900.2,-133969.8,-132765.7,-152948.4,-159034.5,-79239.39,-104662.7,0.00,0.00,0.89,-4,0,-2,73,0
'[17:04:03.380 23/10/2025]',-73587.26,-156128,-129511.3,-128688.4,-148295,-153650.4,-73606.75,-100742.8,0.00,0.00,0.89,-4,0,-2,73,0
'[17:04:03.384 23/10/2025]',-70420.06,-152896.2,-126391.9,-125335,-145040.7,-150195,-70144.16,-97571.4,0.00,0.00,0.89,-4,0,-2,73,0
'[17:04:03.388 23/10/2025]',-74613.7,-157117.3,-130315.7,-128900,-149141.9,-154963.3,-75139.59,-100992.7,0.00,0.00,0.89,-4,0,-2,73,0
'[17:04:03.392 23/10/2025]',-78413.67,-160984.8,-134026.4,-132755.3,-153008.6,-159154.8,-79383.47,-104656.9,0.00,0.00,0.89,-4,0,-2,73,0
'[17:04:03.396 23/10/2025]',-74631.22,-157184.8,-130505.4,-129661.2,-149336.7,-154823.6,-74815.27,-101679.1,0.00,0.00,0.89,-4,0,-2,73,0
'[17:04:03.400 23/10/2025]',-70389.04,-152868.2,-126379.4,-125394.8,-145029.5,-150137.6,-70062.97,-97633.13,0.00,0.00,0.89,-4,0,-2,73,0
'[17:04:03.404 23/10/2025]',-73647.84,-156136.6,-129395.8,-128010.1,-148179,-153876.1,-74022.13,-100144.8,0.00,0.00,0.89,-4,0,-2,73,0
'[17:04:03.408 23/10/2025]',-78251.09,-160809,-133849.8,-132509,-152823.3,-158987.1,-79234.74,-104436.3,0.00,0.00,0.89,-4,0,-2,73,0
'[17:04:03.412 23/10/2025]',-75659.18,-158224.6,-131488.6,-130589.2,-150358,-155983.6,-76008.98,-102572,0.00,0.00,0.89,-4,0,-2,73,0
'[17:04:03.416 23/10/2025]',-70618.41,-153108.3,-126626.5,-125696.9,-145278.4,-150373.5,-70285.02,-97915.66,0.00,0.00,0.89,-4,0,-2,73,0
'[17:04:03.420 23/10/2025]',-72742.63,-155223.7,-128545.7,-127201.1,-147284.9,-152857.4,-72969.05,-99377.06,0.00,0.00,0.89,-4,0,-2,73,0
'[17:04:03.424 23/10/2025]',-77870.7,-160418.4,-133463.9,-132071.8,-152418.7,-158568.8,-78822.26,-104007.4,0.00,0.00,0.89,-4,0,-2,73,0
'[17:04:03.428 23/10/2025]',-76603.31,-159177.5,-132380.7,-131417.3,-151285.7,-157051.4,-77134.84,-103364.9,0.00,0.00,0.89,-4,0,-2,73,0
'[17:04:03.432 23/10/2025]',-71071.8,-153572.8,-127080.1,-126203,-145749.1,-150866,-70770.94,-98401.14,0.00,0.00,0.89,-4,0,-2,73,0
'[17:04:03.436 23/10/2025]',-71900.91,-154379.1,-127758.7,-126473.5,-146462.3,-151909.6,-71988.57,-98668.24,0.00,0.00,0.89,-4,0,-2,73,0
'[17:04:03.440 23/10/2025]',-77261.57,-159799.5,-132871,-131447.1,-151805,-157908.5,-78168.12,-103409,0.00,0.00,0.89,-4,0,-2,73,0
'[17:04:03.444 23/10/2025]',-77391.75,-159975.5,-133123.3,-132088.3,-152062.9,-157957.8,-78092.25,-103993.8,0.00,0.00,0.89,-4,0,-2,73,0
'[17:04:03.448 23/10/2025]',-71751.29,-154270.9,-127752.2,-126913.6,-146450.5,-151616.9,-71525.49,-99047.82,0.00,0.00,0.89,-4,0,-2,73,0
'[17:04:03.452 23/10/2025]',-71221.69,-153701.1,-127131.5,-125921.2,-145804.7,-151143.9,-71154.41,-98139.53,0.00,0.00,0.89,-4,0,-2,73,0
'[17:04:03.456 23/10/2025]',-76502.06,-159029.4,-132130.8,-130697.2,-151030.2,-157069.5,-77297.2,-102689,0.02,0.02,0.89,-4,0,-2,73,0
'[17:04:03.460 23/10/2025]',-77994.22,-160579.3,-133673,-132563.8,-152631.9,-158650.2,-78800.05,-104447.5,0.02,0.02,0.89,-4,0,-2,73,0
'[17:04:03.464 23/10/2025]',-72618.31,-155154.3,-128583.9,-127770.3,-147313.6,-152576.3,-72483.44,-99854.13,0.02,0.02,0.89,-4,0,-2,73,0
'[17:04:03.468 23/10/2025]',-70728.83,-153211.7,-126674.1,-125544.3,-145322.2,-150572,-70539.73,-97767.91,0.02,0.02,0.89,-4,0,-2,73,0
'[17:04:03.472 23/10/2025]',-75611.79,-158132.6,-131269,-129846.1,-150130.4,-156086.4,-76283.91,-101885.6,0.02,0.02,0.89,-4,0,-2,73,0
'[17:04:03.476 23/10/2025]',-78342.41,-160927.1,-133980.2,-132795.8,-152952.2,-159063.1,-79252.27,-104675.1,0.02,0.02,0.89,-4,0,-2,73,0
'[17:04:03.480 23/10/2025]',-73591.95,-156142.1,-129522.2,-128707.1,-148296,-153668.7,-73620.03,-100754.5,0.02,0.02,0.89,-4,0,-2,73,0
'[17:04:03.484 23/10/2025]',-70446.62,-152932.7,-126431.5,-125374,-145068.9,-150239.7,-70192.56,-97605.37,0.02,0.02,0.89,-4,0,-2,73,0
'[17:04:03.488 23/10/2025]',-74661.93,-157170.4,-130368.2,-128954.4,-149185.7,-155025.6,-75199.58,-101032.5,0.02,0.02,0.89,-4,0,-2,73,0
'[17:04:03.492 23/10/2025]',-78448.09,-161023.9,-134062,-132794.7,-153035.1,-159198.3,-79418.65,-104682.2,0.00,0.00,0.89,-4,0,-2,73,0
'[17:04:03.496 23/10/2025]',-74641.5,-157204,-130531.2,-129679.5,-149344.7,-154844.2,-74824.66,-101687,0.00,0.00,0.89,-4,0,-2,73,0
'[17:04:03.500 23/10/2025]',-70417.65,-152906.1,-126430.7,-125431.6,-145062.3,-150183.1,-70101.05,-97668.8,0.00,0.00,0.89,-4,0,-2,73,0
'[17:04:03.504 23/10/2025]',-73696.2,-156188.4,-129452.7,-128057.7,-148226.8,-153937.6,-74078.06,-100193.9,0.00,0.00,0.89,-4,0,-2,73,0
'[17:04:03.508 23/10/2025]',-78285.38,-160844.8,-133883.9,-132539.3,-152852.2,-159022.7,-79276.41,-104450.2,0.00,0.00,0.89,-4,0,-2,73,0
'[17:04:03.512 23/10/2025]',-75668.03,-158234.6,-131507.2,-130600.7,-150368,-155994.3,-76041.66,-102581.4,0.00,0.00,0.89,-4,0,-2,73,0
'[17:04:03.516 23/10/2025]',-70630.21,-153123.9,-126655.1,-125715.7,-145296,-150396.7,-70302.85,-97948.73,0.00,0.00,0.89,-4,0,-2,73,0
'[17:04:03.520 23/10/2025]',-72760.29,-155246.2,-128574.3,-127225.6,-147306.4,-152889.1,-72996.73,-99403.3,0.00,0.00,0.89,-4,0,-2,73,0
'[17:04:03.524 23/10/2025]',-77888.41,-160438.8,-133485.3,-132095.9,-152437,-158598.2,-78858.38,-104027.3,0.00,0.00,0.89,-4,0,-2,73,0
'[17:04:03.528 23/10/2025]',-76608.41,-159185.6,-132390.6,-131429.7,-151285.6,-157062.9,-77132.56,-103358.4,-0.02,0.00,0.89,-4,0,-2,73,0
'[17:04:03.532 23/10/2025]',-71080.38,-153587,-127101.3,-126220.9,-145757.5,-150880,-70777.42,-98387.46,-0.02,0.00,0.89,-4,0,-2,73,0
'[17:04:03.536 23/10/2025]',-71931.35,-154413.1,-127792.1,-126507.1,-146485.5,-151947.6,-72010.39,-98688.72,-0.02,0.00,0.89,-4,0,-2,73,0
