'Time and date','Fp1','Fp2','F3','Fz','F4','P3','Pz','P4','AccX','AccY','AccZ','GyroX','GyroY','GyroZ','Battery','Event'
'[hh:mm:ss.mmm dd/mm/yyyy]','uV','uV','uV','uV','uV','uV','uV','uV','G','G','G','Deg/s','Deg/s','Deg/s','%','Button'
'[12:06:00.000 21/01/2026]',-136355.8,-199731.5,-112692.6,-12916.13,-375000,-375000,-148594.9,-118601.5,0.03,0.00,0.88,-4,0,-2,26,0
'[12:06:00.004 21/01/2026]',-136288.4,-199697.6,-112559.2,-12855.34,-375000,-375000,-148523.9,-118544.9,0.03,0.00,0.88,-4,0,-2,26,0
'[12:06:00.008 21/01/2026]',-136342.4,-199733.5,-112663.7,-12907.55,-375000,-375000,-148588.7,-118582.8,0.03,0.00,0.88,-4,0,-2,26,0
'[12:06:00.012 21/01/2026]',-136413.2,-199785.3,-112819.3,-12992.89,-375000,-375000,-148668.8,-118640,0.03,0.00,0.88,-4,0,-2,26,0
'[12:06:00.016 21/01/2026]',-136364.5,-199751.5,-112714.3,-12927.04,-375000,-375000,-148605.3,-118600.8,0.03,0.00,0.88,-4,0,-2,26,0
'[12:06:00.020 21/01/2026]',-136281.9,-199672.7,-112542.9,-12840.67,-375000,-375000,-148513.9,-118532.8,0.03,0.00,0.88,-4,0,-2,26,0
'[12:06:00.024 21/01/2026]',-136313.3,-199696.8,-112628.9,-12881.67,-375000,-375000,-148560.8,-118555.3,0.03,0.00,0.88,-4,0,-2,26,0
'[12:06:00.028 21/01/2026]',-136415.2,-199782.7,-112805.7,-12979.7,-375000,-375000,-148656.2,-118621.8,0.03,0.00,0.88,-4,0,-2,26,0
'[12:06:00.032 21/01/2026]',-136385.5,-199776.8,-112757.6,-12952.75,-375000,-375000,-148634.2,-118618.2,0.03,0.00,0.88,-4,0,-2,26,0
'[12:06:00.036 21/01/2026]',-136355.8,-199731.5,-112692.6,-12916.13,-375000,-375000,-148594.9,-118601.5,0.03,0.00,0.88,-4,0,-2,26,0
'[12:06:00.040 21/01/2026]',-136288.4,-199697.6,-112559.2,-12855.34,-375000,-375000,-148523.9,-118544.9,0.03,0.00,0.88,-4,0,-2,26,0
'[12:06:00.044 21/01/2026]',-136342.4,-199733.5,-112663.7,-12907.55,-375000,-375000,-148588.7,-118582.8,0.03,0.00,0.88,-4,0,-2,26,0
'[12:06:00.048 21/01/2026]',-136413.2,-199785.3,-112819.3,-12992.89,-375000,-375000,-148668.8,-118640,0.03,0.00,0.88,-4,0,-2,26,0
'[12:06:00.052 21/01/2026]',-136364.5,-199751.5,-112714.3,-12927.04,-375000,-375000,-148605.3,-118600.8,0.03,0.00,0.88,-4,0,-2,26,0
'[12:06:00.056 21/01/2026]',-136281.9,-199672.7,-112542.9,-12840.67,-375000,-375000,-148513.9,-118532.8,0.03,0.00,0.88,-4,0,-2,26,0
'[12:06:00.060 21/01/2026]',-136313.3,-199696.8,-112628.9,-12881.67,-375000,-375000,-148560.8,-118555.3,0.03,0.00,0.88,-4,0,-2,26,0
'[12:06:00.064 21/01/2026]',-136415.2,-199782.7,-112805.7,-12979.7,-375000,-375000,-148656.2,-118621.8,0.03,0.00,0.88,-4,0,-2,26,0
'[12:06:00.068 21/01/2026]',-136385.5,-199776.8,-112757.6,-12952.75,-375000,-375000,-148634.2,-118618.2,0.03,0.00,0.88,-4,0,-2,26,0
'[12:06:00.072 21/01/2026]',-136270.7,-199696.7,-112537.6,-12855.07,-375000,-375000,-148527.8,-118544.5,0.03,-0.02,0.88,-4,0,-2,26,0
'[12:06:00.076 21/01/2026]',-136314.6,-199698.4,-112609.8,-12870.18,-375000,-375000,-148541.4,-118539.3,0.03,-0.02,0.88,-4,0,-2,26,0
'[12:06:00.080 21/01/2026]',-136412.6,-199767.3,-112804.5,-12962.85,-375000,-375000,-148636.5,-118606.7,0.03,-0.02,0.88,-4,0,-2,26,0
'[12:06:00.084 21/01/2026]',-136424.8,-199774.3,-112784,-12961.82,-375000,-375000,-148640.5,-118621.6,0.03,-0.02,0.88,-4,0,-2,26,0
'[12:06:00.088 21/01/2026]',-136327.2,-199719,-112592.2,-12881.49,-375000,-375000,-148554.2,-118569.9,0.03,-0.02,0.88,-4,0,-2,26,0
'[12:06:00.092 21/01/2026]',-136297.3,-199703.4,-112597.2,-12865.62,-375000,-375000,-148538.4,-118543.9,0.03,-0.02,0.88,-4,0,-2,26,0
'[12:06:00.096 21/01/2026]',-136377.8,-199762,-112779.9,-12944.16,-375000,-375000,-148614.2,-118584.2,0.03,-0.02,0.88,-4,0,-2,26,0
'[12:06:00.100 21/01/2026]',-136394.9,-199771.3,-112804.6,-12949.88,-375000,-375000,-148624.8,-118599.6,0.03,-0.02,0.88,-4,0,-2,26,0
'[12:06:00.104 21/01/2026]',-136301.1,-199708.5,-112618.9,-12863.03,-375000,-375000,-148545.9,-118558.8,0.03,-0.02,0.88,-4,0,-2,26,0
'[12:06:00.108 21/01/2026]',-136248.3,-199680.1,-112556.9,-12843.67,-375000,-375000,-148531.3,-118545.9,0.03,0.00,0.88,-4,0,-2,26,0
'[12:06:00.112 21/01/2026]',-136358.3,-199722.6,-112698.4,-12915.69,-375000,-375000,-148602.5,-118581.5,0.03,0.00,0.88,-4,0,-2,26,0
'[12:06:00.116 21/01/2026]',-136421.6,-199768.6,-112789.5,-12961.2,-375000,-375000,-148642.6,-118619.2,0.03,0.00,0.88,-4,0,-2,26,0
'[12:06:00.120 21/01/2026]',-136351.2,-199739.7,-112640.2,-12876.79,-375000,-375000,-148573.3,-118587,0.03,0.00,0.88,-4,0,-2,26,0
'[12:06:00.124 21/01/2026]',-136268.6,-199682.5,-112545.9,-12830.26,-375000,-375000,-148509.5,-118528.7,0.03,0.00,0.88,-4,0,-2,26,0
'[12:06:00.128 21/01/2026]',-136364.4,-199730.4,-112696.1,-12898.03,-375000,-375000,-148575.6,-118572.5,0.03,0.00,0.88,-4,0,-2,26,0
'[12:06:00.132 21/01/2026]',-136438.3,-199791.2,-112824.7,-12972.77,-375000,-375000,-148644.8,-118626.1,0.03,0.00,0.88,-4,0,-2,26,0
'[12:06:00.136 21/01/2026]',-136348,-199741.1,-112656.9,-12889.67,-375000,-375000,-148573.3,-118588.3,0.03,0.00,0.88,-4,0,-2,26,0
'[12:06:00.140 21/01/2026]',-136242.2,-199685.7,-112527.8,-12818.46,-375000,-375000,-148500.3,-118533,0.03,0.00,0.88,-4,0,-2,26,0
'[12:06:00.144 21/01/2026]',-136305.7,-199715.7,-112651.2,-12875.45,-375000,-375000,-148564.8,-118559.5,0.03,-0.02,0.88,-4,0,-2,26,0
'[12:06:00.148 21/01/2026]',-136402.5,-199779.3,-112814.7,-12958.92,-375000,-375000,-148646.4,-118617.8,0.03,-0.02,0.88,-4,0,-2,26,0
'[12:06:00.152 21/01/2026]',-136378.6,-199753.9,-112712.8,-12904.2,-375000,-375000,-148600.2,-118604.3,0.03,-0.02,0.88,-4,0,-2,26,0
'[12:06:00.156 21/01/2026]',-136305,-199692.8,-112535.3,-12831.02,-375000,-375000,-148526.1,-118556.1,0.03,-0.02,0.88,-4,0,-2,26,0
'[12:06:00.160 21/01/2026]',-136332.8,-199705.6,-112609.7,-12879.52,-375000,-375000,-148567.1,-118569.3,0.03,-0.02,0.88,-4,0,-2,26,0
'[12:06:00.164 21/01/2026]',-136408.3,-199761.1,-112813.3,-12966.43,-375000,-375000,-148646.9,-118618.5,0.03,-0.02,0.88,-4,0,-2,26,0
'[12:06:00.168 21/01/2026]',-136384.6,-199757.8,-112734.5,-12924.63,-375000,-375000,-148624.9,-118619.5,0.03,-0.02,0.88,-4,0,-2,26,0
'[12:06:00.172 21/01/2026]',-136297,-199708.1,-112557.8,-12839.56,-375000,-375000,-148553,-118579,0.03,-0.02,0.88,-4,0,-2,26,0
'[12:06:00.176 21/01/2026]',-136292.9,-199706.6,-112615.4,-12860.79,-375000,-375000,-148569.4,-118580.2,0.03,-0.02,0.88,-4,0,-2,26,0
'[12:06:00.180 21/01/2026]',-136393.6,-199758.6,-112794.7,-12942.6,-375000,-375000,-148640.9,-118619,0.03,0.00,0.88,-4,0,-2,26,0
'[12:06:00.184 21/01/2026]',-136394.6,-199776.4,-112785.2,-12943.45,-375000,-375000,-148640.8,-118633.4,0.03,0.00,0.88,-4,0,-2,26,0
'[12:06:00.188 21/01/2026]',-136305.8,-199720.3,-112575.6,-12853.06,-375000,-375000,-148552.7,-118577,0.03,0.00,0.88,-4,0,-2,26,0
'[12:06:00.192 21/01/2026]',-136297.8,-199700.1,-112561.7,-12844.38,-375000,-375000,-148545.2,-118557.2,0.03,0.00,0.88,-4,0,-2,26,0
'[12:06:00.196 21/01/2026]',-136387,-199761.3,-112766.3,-12943.13,-375000,-375000,-148636.9,-118614,0.03,0.00,0.88,-4,0,-2,26,0
'[12:06:00.200 21/01/2026]',-136425.9,-199779.1,-112798.7,-12971.25,-375000,-375000,-148656.5,-118634.7,0.03,0.00,0.88,-4,0,-2,26,0
'[12:06:00.204 21/01/2026]',-136335.4,-199728.3,-112600.2,-12874.65,-375000,-375000,-148580.4,-118593.3,0.03,0.00,0.88,-4,0,-2,26,0
'[12:06:00.208 21/01/2026]',-136289,-199701.9,-112564.9,-12851.4,-375000,-375000,-148543,-118559.7,0.03,0.00,0.88,-4,0,-2,26,0
'[12:06:00.212 21/01/2026]',-136365,-199743.9,-112737.9,-12931.33,-375000,-375000,-148618.8,-118600,0.03,0.00,0.88,-4,0,-2,26,0
'[12:06:00.216 21/01/2026]',-136420.7,-199775.9,-112827.1,-12980.37,-375000,-375000,-148664.8,-118636.6,0.02,0.00,0.88,-4,0,-2,26,0
'[12:06:00.220 21/01/2026]',-136341.4,-199729.6,-112646.4,-12883.9,-375000,-375000,-148588.5,-118591.2,0.02,0.00,0.88,-4,0,-2,26,0
'[12:06:00.224 21/01/2026]',-136279.8,-199682.6,-112557.7,-12846.44,-375000,-375000,-148536.7,-118553.1,0.02,0.00,0.88,-4,0,-2,26,0
'[12:06:00.228 21/01/2026]',-136371.2,-199729.4,-112702.7,-12912.92,-375000,-375000,-148612.5,-118592.5,0.02,0.00,0.88,-4,0,-2,26,0
'[12:06:00.232 21/01/2026]',-136418.6,-199763.8,-112820,-12970,-375000,-375000,-148656.3,-118619,0.02,0.00,0.88,-4,0,-2,26,0
'[12:06:00.236 21/01/2026]',-136339.8,-199709.3,-112686.4,-12902.72,-375000,-375000,-148594.2,-118587.6,0.02,0.00,0.88,-4,0,-2,26,0
'[12:06:00.240 21/01/2026]',-136262.8,-199682.3,-112542.9,-12834.64,-375000,-375000,-148532.3,-118541.8,0.02,0.00,0.88,-4,0,-2,26,0
'[12:06:00.244 21/01/2026]',-136352.7,-199743.4,-112671.7,-12907.77,-375000,-375000,-148592.8,-118578.1,0.02,0.00,0.88,-4,0,-2,26,0
'[12:06:00.248 21/01/2026]',-136441.4,-199787.1,-112826.7,-12991.59,-375000,-375000,-148672.9,-118633.7,0.02,0.00,0.88,-4,0,-2,26,0
'[12:06:00.252 21/01/2026]',-136380,-199731.9,-112711.8,-12919.4,-375000,-375000,-148626.7,-118613.6,0.02,0.00,0.86,-4,0,-2,26,0
'[12:06:00.256 21/01/2026]',-136289.8,-199682.1,-112551.4,-12837.86,-375000,-375000,-148536.8,-118552.1,0.02,0.00,0.86,-4,0,-2,26,0
'[12:06:00.260 21/01/2026]',-136323.6,-199694.2,-112630.2,-12877.82,-375000,-375000,-148568.3,-118556,0.02,0.00,0.86,-4,0,-2,26,0
'[12:06:00.264 21/01/2026]',-136418.6,-199775.8,-112811.8,-12975.59,-375000,-375000,-148655.5,-118615.6,0.02,0.00,0.86,-4,0,-2,26,0
'[12:06:00.268 21/01/2026]',-136392.8,-199767.1,-112754,-12940.09,-375000,-375000,-148635.3,-118621.1,0.02,0.00,0.86,-4,0,-2,26,0
'[12:06:00.272 21/01/2026]',-136284.5,-199698.7,-112570.3,-12848.41,-375000,-375000,-148549.8,-118566.9,0.02,0.00,0.86,-4,0,-2,26,0
'[12:06:00.276 21/01/2026]',-136299,-199696.1,-112600.7,-12859.32,-375000,-375000,-148558.1,-118554.2,0.02,0.00,0.86,-4,0,-2,26,0
'[12:06:00.280 21/01/2026]',-136406.9,-199772.7,-112780.4,-12945.5,-375000,-375000,-148645.7,-118611.5,0.02,0.00,0.86,-4,0,-2,26,0
'[12:06:00.284 21/01/2026]',-136410.6,-199772.8,-112783.3,-12933.7,-375000,-375000,-148638.1,-118617.5,0.02,0.00,0.86,-4,0,-2,26,0
'[12:06:00.288 21/01/2026]',-136320.4,-199698.7,-112580.8,-12851.22,-375000,-375000,-148551.6,-118566.2,0.03,0.00,0.88,-4,0,-2,26,0
'[12:06:00.292 21/01/2026]',-136311.5,-199680.2,-112568.8,-12853.33,-375000,-375000,-148547.9,-118555.8,0.03,0.00,0.88,-4,0,-2,26,0
'[12:06:00.296 21/01/2026]',-136401.4,-199756,-112754.5,-12936.34,-375000,-375000,-148643.9,-118616.9,0.03,0.00,0.88,-4,0,-2,26,0
'[12:06:00.300 21/01/2026]',-136398.5,-199774.3,-112777.3,-12946.31,-375000,-375000,-148658.8,-118636.5,0.03,0.00,0.88,-4,0,-2,26,0
'[12:06:00.304 21/01/2026]',-136337,-199709.2,-112586.4,-12857.35,-375000,-375000,-148575.5,-118591.3,0.03,0.00,0.88,-4,0,-2,26,0
'[12:06:00.308 21/01/2026]',-136300.4,-199677.1,-112560.8,-12826.41,-375000,-375000,-148546.4,-118559.8,0.03,0.00,0.88,-4,0,-2,26,0
'[12:06:00.312 21/01/2026]',-136374,-199738,-112729.5,-12907.42,-375000,-375000,-148630.3,-118608.1,0.03,0.00,0.88,-4,0,-2,26,0
'[12:06:00.316 21/01/2026]',-136403.8,-199771.3,-112814.1,-12953.77,-375000,-375000,-148668,-118641,0.03,0.00,0.88,-4,0,-2,26,0
'[12:06:00.320 21/01/2026]',-136319.3,-199719.9,-112646.2,-12880.73,-375000,-375000,-148582.1,-118597,0.03,0.00,0.88,-4,0,-2,26,0
'[12:06:00.324 21/01/2026]',-136284.7,-199685.3,-112538.9,-12828.56,-375000,-375000,-148532.3,-118549.8,0.03,0.00,0.89,-4,0,-2,26,0
'[12:06:00.328 21/01/2026]',-136340.8,-199734.6,-112680.1,-12894.54,-375000,-375000,-148604.1,-118584,0.03,0.00,0.89,-4,0,-2,26,0
'[12:06:00.332 21/01/2026]',-136437.6,-199792.5,-112816.2,-12970.18,-375000,-375000,-148679.4,-118651.2,0.03,0.00,0.89,-4,0,-2,26,0
'[12:06:00.336 21/01/2026]',-136366.3,-199736.6,-112680,-12897.72,-375000,-375000,-148625.9,-118636.7,0.03,0.00,0.89,-4,0,-2,26,0
'[12:06:00.340 21/01/2026]',-136292.8,-199670.2,-112528,-12841.93,-375000,-375000,-148553.8,-118579.4,0.03,0.00,0.89,-4,0,-2,26,0
'[12:06:00.344 21/01/2026]',-136362.1,-199705.8,-112645.9,-12891.68,-375000,-375000,-148591.5,-118584.2,0.03,0.00,0.89,-4,0,-2,26,0
'[12:06:00.348 21/01/2026]',-136444.8,-199786,-112821.4,-12969.2,-375000,-375000,-148664.3,-118640.4,0.03,0.00,0.89,-4,0,-2,26,0
'[12:06:00.352 21/01/2026]',-136415.4,-199796.7,-112727.1,-12928.29,-375000,-375000,-148629.1,-118622,0.03,0.00,0.89,-4,0,-2,26,0
'[12:06:00.356 21/01/2026]',-136328,-199745.4,-112577.2,-12853.73,-375000,-375000,-148553.9,-118567.9,0.03,0.00,0.89,-4,0,-2,26,0
'[12:06:00.360 21/01/2026]',-136324.4,-199750.7,-112636.4,-12891.82,-375000,-375000,-148573.1,-118570,0.03,0.00,0.88,-4,0,-2,26,0
'[12:06:00.364 21/01/2026]',-136450.4,-199800.5,-112831.5,-12977.74,-375000,-375000,-148657.5,-118629.7,0.03,0.00,0.88,-4,0,-2,26,0
'[12:06:00.368 21/01/2026]',-136461.5,-199798.3,-112783.5,-12941.84,-375000,-375000,-148636.4,-118630.9,0.03,0.00,0.88,-4,0,-2,26,0
'[12:06:00.372 21/01/2026]',-136333.8,-199753.8,-112595.5,-12859.32,-375000,-375000,-148553.5,-118569.5,0.03,0.00,0.88,-4,0,-2,26,0
'[12:06:00.376 21/01/2026]',-136368.7,-199756.5,-112615.1,-12877.55,-375000,-375000,-148573,-118572.9,0.03,0.00,0.88,-4,0,-2,26,0
'[12:06:00.380 21/01/2026]',-136461.4,-199809.1,-112790.2,-12964.32,-375000,-375000,-148667.8,-118636.1,0.03,0.00,0.88,-4,0,-2,26,0
'[12:06:00.384 21/01/2026]',-136443.5,-199815.3,-112799.5,-12967.1,-375000,-375000,-148674.2,-118655.5,0.03,0.00,0.88,-4,0,-2,26,0
'[12:06:00.388 21/01/2026]',-136347.3,-199759,-112604,-12877.38,-375000,-375000,-148583.5,-118599,0.03,0.00,0.88,-4,0,-2,26,0
'[12:06:00.392 21/01/2026]',-136363.7,-199743.1,-112592.3,-12873.53,-375000,-375000,-148573.3,-118589.9,0.03,0.00,0.88,-4,0,-2,26,0
'[12:06:00.396 21/01/2026]',-136449.5,-199797,-112776,-12960.61,-375000,-375000,-148658.5,-118639.1,0.02,0.00,0.88,-4,0,-2,26,0
'[12:06:00.400 21/01/2026]',-136457.7,-199809,-112814.9,-12977.29,-375000,-375000,-148674.7,-118659.2,0.02,0.00,0.88,-4,0,-2,26,0
'[12:06:00.404 21/01/2026]',-136339,-199729.9,-112631.5,-12887.52,-375000,-375000,-148573.3,-118604.6,0.02,0.00,0.88,-4,0,-2,26,0
'[12:06:00.408 21/01/2026]',-136336.1,-199704.5,-112563.8,-12865.8,-375000,-375000,-148534.4,-118577.8,0.02,0.00,0.88,-4,0,-2,26,0
'[12:06:00.412 21/01/2026]',-136412.4,-199758.9,-112733.1,-12942.24,-375000,-375000,-148611.9,-118631.9,0.02,0.00,0.88,-4,0,-2,26,0
'[12:06:00.416 21/01/2026]',-136448,-199785.3,-112833.9,-12986.77,-375000,-375000,-148646.6,-118671.6,0.02,0.00,0.88,-4,0,-2,26,0
'[12:06:00.420 21/01/2026]',-136385.5,-199713.6,-112638,-12893.92,-375000,-375000,-148561.1,-118625.8,0.02,0.00,0.88,-4,0,-2,26,0
'[12:06:00.424 21/01/2026]',-136341.1,-199667,-112540.2,-12848.81,-375000,-375000,-148512.6,-118584.9,0.02,0.00,0.88,-4,0,-2,26,0
'[12:06:00.428 21/01/2026]',-136418,-199722.1,-112720.3,-12932.14,-375000,-375000,-148593.6,-118631.5,0.02,0.00,0.88,-4,0,-2,26,0
'[12:06:00.432 21/01/2026]',-136470.8,-199772.4,-112833.5,-12990.79,-375000,-375000,-148652.3,-118667.9,0.03,-0.02,0.89,-4,0,-2,26,0
'[12:06:00.436 21/01/2026]',-136379.8,-199723.6,-112690.2,-12917.39,-375000,-375000,-148593.8,-118638.6,0.03,-0.02,0.89,-4,0,-2,26,0
'[12:06:00.440 21/01/2026]',-136307.1,-199671.8,-112559,-12859.49,-375000,-375000,-148533.2,-118595.2,0.03,-0.02,0.89,-4,0,-2,26,0
'[12:06:00.444 21/01/2026]',-136376.4,-199696.6,-112680.7,-12909.38,-375000,-375000,-148604.1,-118627.3,0.03,-0.02,0.89,-4,0,-2,26,0
'[12:06:00.448 21/01/2026]',-136470.1,-199762,-112850.3,-12987.3,-375000,-375000,-148688.6,-118690.9,0.03,-0.02,0.89,-4,0,-2,26,0
'[12:06:00.452 21/01/2026]',-136421.1,-199747.4,-112744.9,-12928.74,-375000,-375000,-148632.5,-118651,0.03,-0.02,0.89,-4,0,-2,26,0
'[12:06:00.456 21/01/2026]',-136326.7,-199678.3,-112561.6,-12854.17,-375000,-375000,-148558.5,-118596.6,0.03,-0.02,0.89,-4,0,-2,26,0
'[12:06:00.460 21/01/2026]',-136373.8,-199682.5,-112636.3,-12886.94,-375000,-375000,-148587.9,-118606.4,0.03,-0.02,0.89,-4,0,-2,26,0
'[12:06:00.464 21/01/2026]',-136448.7,-199751.2,-112818.4,-12972.59,-375000,-375000,-148651.7,-118653.1,0.03,-0.02,0.89,-4,0,-2,26,0
'[12:06:00.468 21/01/2026]',-136420.7,-199752.6,-112770,-12946.76,-375000,-375000,-148637.7,-118666,0.02,0.00,0.88,-4,0,-2,26,0
'[12:06:00.472 21/01/2026]',-136317.2,-199706.4,-112586.4,-12851.63,-375000,-375000,-148549.2,-118613,0.02,0.00,0.88,-4,0,-2,26,0
'[12:06:00.476 21/01/2026]',-136354.3,-199712,-112620.3,-12874.51,-375000,-375000,-148560.5,-118603.8,0.02,0.00,0.88,-4,0,-2,26,0
'[12:06:00.480 21/01/2026]',-136450.3,-199766.3,-112797,-12978.63,-375000,-375000,-148664.4,-118677.3,0.02,0.00,0.88,-4,0,-2,26,0
'[12:06:00.484 21/01/2026]',-136446.6,-199757.6,-112776,-12967.5,-375000,-375000,-148653,-118679,0.02,0.00,0.88,-4,0,-2,26,0
'[12:06:00.488 21/01/2026]',-136349.8,-199702.1,-112595.2,-12881.04,-375000,-375000,-148548.4,-118609.3,0.02,0.00,0.88,-4,0,-2,26,0
'[12:06:00.492 21/01/2026]',-136354.3,-199694.6,-112599.2,-12873.44,-375000,-375000,-148548.7,-118598.2,0.02,0.00,0.88,-4,0,-2,26,0
'[12:06:00.496 21/01/2026]',-136460.6,-199756.5,-112762.6,-12959.59,-375000,-375000,-148660.4,-118666.1,0.02,0.00,0.88,-4,0,-2,26,0
'[12:06:00.500 21/01/2026]',-136446.6,-199766.1,-112786.3,-12984.44,-375000,-375000,-148669.7,-118677.8,0.02,0.00,0.88,-4,0,-2,26,0
'[12:06:00.504 21/01/2026]',-136345.5,-199706.7,-112602,-12882.96,-375000,-375000,-148569.3,-118610.5,0.03,0.00,0.88,-4,0,-2,26,0
'[12:06:00.508 21/01/2026]',-136307.8,-199682.1,-112562.9,-12855.87,-375000,-375000,-148545,-118587.8,0.03,0.00,0.88,-4,0,-2,26,0
'[12:06:00.512 21/01/2026]',-136426.2,-199738.4,-112742.6,-12937.14,-375000,-375000,-148643.8,-118654.1,0.03,0.00,0.88,-4,0,-2,26,0
'[12:06:00.516 21/01/2026]',-136474.5,-199789.8,-112821.1,-12991.24,-375000,-375000,-148691.8,-118695.3,0.03,0.00,0.88,-4,0,-2,26,0
'[12:06:00.520 21/01/2026]',-136402.1,-199735.8,-112646.3,-12916.22,-375000,-375000,-148609.3,-118653.9,0.03,0.00,0.88,-4,0,-2,26,0
'[12:06:00.524 21/01/2026]',-136322,-199675.5,-112540.5,-12859.23,-375000,-375000,-148546.4,-118595.5,0.03,0.00,0.88,-4,0,-2,26,0
'[12:06:00.528 21/01/2026]',-136407.1,-199731.9,-112704.9,-12924.05,-375000,-375000,-148625.2,-118634.6,0.03,0.00,0.88,-4,0,-2,26,0
'[12:06:00.532 21/01/2026]',-136488.1,-199795.9,-112828.1,-12998.7,-375000,-375000,-148698.6,-118688.9,0.03,0.00,0.88,-4,0,-2,26,0
'[12:06:00.536 21/01/2026]',-136411.6,-199760.5,-112678,-12926.46,-375000,-375000,-148635,-118660,0.03,0.00,0.88,-4,0,-2,26,0
'[12:06:00.540 21/01/2026]',-136329.5,-199712,-112556.4,-12871.61,-375000,-375000,-148566.5,-118612.8,0.02,0.00,0.88,-4,0,-2,26,0
'[12:06:00.544 21/01/2026]',-136397,-199732.9,-112685.9,-12915.64,-375000,-375000,-148615.7,-118626.3,0.02,0.00,0.88,-4,0,-2,26,0
'[12:06:00.548 21/01/2026]',-136461.2,-199786.8,-112847.3,-12996.11,-375000,-375000,-148702,-118684.6,0.02,0.00,0.88,-4,0,-2,26,0
'[12:06:00.552 21/01/2026]',-136408.8,-199756.9,-112737.4,-12948.9,-375000,-375000,-148664.6,-118672.6,0.02,0.00,0.88,-4,0,-2,26,0
'[12:06:00.556 21/01/2026]',-136332.5,-199694.4,-112584.9,-12877.78,-375000,-375000,-148572,-118611.6,0.02,0.00,0.88,-4,0,-2,26,0
'[12:06:00.560 21/01/2026]',-136350,-199724.5,-112631.7,-12895.88,-375000,-375000,-148580.3,-118592.6,0.02,0.00,0.88,-4,0,-2,26,0
'[12:06:00.564 21/01/2026]',-136465.2,-199810.2,-112825.5,-12978.54,-375000,-375000,-148675.6,-118656.3,0.02,0.00,0.88,-4,0,-2,26,0
'[12:06:00.568 21/01/2026]',-136442.3,-199791.5,-112778.3,-12951.72,-375000,-375000,-148657.2,-118662.2,0.02,0.00,0.88,-4,0,-2,26,0
'[12:06:00.572 21/01/2026]',-136339.2,-199713.2,-112581,-12856.68,-375000,-375000,-148557.2,-118592.6,0.02,0.00,0.88,-4,0,-2,26,0
'[12:06:00.576 21/01/2026]',-136351.1,-199707.1,-112610.6,-12869.28,-375000,-375000,-148577.1,-118596.8,0.03,0.00,0.88,-4,0,-2,26,0
'[12:06:00.580 21/01/2026]',-136464.5,-199789.9,-112803.7,-12964.15,-375000,-375000,-148670.7,-118655.8,0.03,0.00,0.88,-4,0,-2,26,0
'[12:06:00.584 21/01/2026]',-136458.8,-199801.2,-112802.9,-12957.48,-375000,-375000,-148657.6,-118659.5,0.03,0.00,0.88,-4,0,-2,26,0
'[12:06:00.588 21/01/2026]',-136332.7,-199720.3,-112586.9,-12871.74,-375000,-375000,-148558.3,-118604.3,0.03,0.00,0.88,-4,0,-2,26,0
'[12:06:00.592 21/01/2026]',-136348,-199706.1,-112567.2,-12876.75,-375000,-375000,-148550.3,-118594.6,0.03,0.00,0.88,-4,0,-2,26,0
'[12:06:00.596 21/01/2026]',-136444.5,-199766.7,-112766.2,-12956.95,-375000,-375000,-148643.4,-118654.3,0.03,0.00,0.88,-4,0,-2,26,0
'[12:06:00.600 21/01/2026]',-136451,-199791.8,-112825.8,-12973.13,-375000,-375000,-148656.5,-118679.9,0.03,0.00,0.88,-4,0,-2,26,0
'[12:06:00.604 21/01/2026]',-136364.2,-199725,-112624.3,-12873.58,-375000,-375000,-148560.1,-118621,0.03,0.00,0.88,-4,0,-2,26,0
'[12:06:00.608 21/01/2026]',-136340.8,-199668.7,-112554.8,-12849.75,-375000,-375000,-148522.5,-118586,0.03,0.00,0.88,-4,0,-2,26,0
'[12:06:00.612 21/01/2026]',-136447,-199729.6,-112747.4,-12949.57,-375000,-375000,-148613.7,-118654.9,0.02,0.00,0.88,-4,0,-2,26,0
'[12:06:00.616 21/01/2026]',-136471.8,-199774,-112838.2,-12984.84,-375000,-375000,-148647.4,-118685.9,0.02,0.00,0.88,-4,0,-2,26,0
'[12:06:00.620 21/01/2026]',-136382.4,-199714.8,-112652.7,-12903.53,-375000,-375000,-148570.4,-118652.4,0.02,0.00,0.88,-4,0,-2,26,0
'[12:06:00.624 21/01/2026]',-136323,-199652.5,-112545.7,-12862.13,-375000,-375000,-148513.4,-118606.7,0.02,0.00,0.88,-4,0,-2,26,0
'[12:06:00.628 21/01/2026]',-136402.9,-199679.5,-112689.8,-12926.91,-375000,-375000,-148575.5,-118633.5,0.02,0.00,0.88,-4,0,-2,26,0
'[12:06:00.632 21/01/2026]',-136480.2,-199732.1,-112806.4,-12989.58,-375000,-375000,-148636.7,-118680.7,0.02,0.00,0.88,-4,0,-2,26,0
'[12:06:00.636 21/01/2026]',-136416.2,-199699.8,-112676.2,-12918.37,-375000,-375000,-148577.7,-118654,0.02,0.00,0.88,-4,0,-2,26,0
'[12:06:00.640 21/01/2026]',-136334,-199630.9,-112532.8,-12844.34,-375000,-375000,-148503.8,-118600,0.02,0.00,0.88,-4,0,-2,26,0
'[12:06:00.644 21/01/2026]',-136377.3,-199663.5,-112642.9,-12905.76,-375000,-375000,-148564.3,-118630.9,0.02,0.00,0.88,-4,0,-2,26,0
'[12:06:00.648 21/01/2026]',-136475.2,-199738.6,-112822.2,-12992.17,-375000,-375000,-148646.5,-118693.1,0.02,0.00,0.88,-4,0,-2,26,0
'[12:06:00.652 21/01/2026]',-136433.1,-199699.8,-112724.3,-12949.84,-375000,-375000,-148591.1,-118672.6,0.02,0.00,0.88,-4,0,-2,26,0
'[12:06:00.656 21/01/2026]',-136350.4,-199636.7,-112555,-12863.83,-375000,-375000,-148512.8,-118615.6,0.02,0.00,0.88,-4,0,-2,26,0
'[12:06:00.660 21/01/2026]',-136388.6,-199663.2,-112628.5,-12900.89,-375000,-375000,-148552.3,-118629.5,0.02,0.00,0.88,-4,0,-2,26,0
'[12:06:00.664 21/01/2026]',-136478.1,-199713.9,-112799.3,-12979.57,-375000,-375000,-148633.6,-118672.1,0.02,0.00,0.88,-4,0,-2,26,0
'[12:06:00.668 21/01/2026]',-136442.6,-199692.1,-112743.4,-12954.13,-375000,-375000,-148613.7,-118668.9,0.02,0.00,0.88,-4,0,-2,26,0
'[12:06:00.672 21/01/2026]',-136341.2,-199634.3,-112542.9,-12868.75,-375000,-375000,-148519.5,-118604.9,0.02,0.00,0.88,-4,0,-2,26,0
'[12:06:00.676 21/01/2026]',-136338.9,-199641.6,-112597,-12882.83,-375000,-375000,-148537.6,-118603.4,0.02,0.00,0.88,-4,0,-2,26,0
'[12:06:00.680 21/01/2026]',-136450.9,-199713.5,-112789.7,-12974.61,-375000,-375000,-148643,-118673.4,0.02,0.00,0.88,-4,0,-2,26,0
'[12:06:00.684 21/01/2026]',-136460.8,-199724,-112791.5,-12974.2,-375000,-375000,-148639.9,-118680.6,0.03,0.00,0.88,-4,0,-2,26,0
'[12:06:00.688 21/01/2026]',-136375.2,-199670.4,-112597.2,-12875.01,-375000,-375000,-148551.8,-118620.5,0.03,0.00,0.88,-4,0,-2,26,0
'[12:06:00.692 21/01/2026]',-136357.3,-199664,-112584.5,-12871.12,-375000,-375000,-148550.7,-118609.4,0.03,0.00,0.88,-4,0,-2,26,0
'[12:06:00.696 21/01/2026]',-136454.1,-199728.8,-112766.8,-12958.6,-375000,-375000,-148638.2,-118660.6,0.03,0.00,0.88,-4,0,-2,26,0
'[12:06:00.700 21/01/2026]',-136481.3,-199760,-112813.6,-12990.74,-375000,-375000,-148671.2,-118692.6,0.03,0.00,0.88,-4,0,-2,26,0
'[12:06:00.704 21/01/2026]',-136379.2,-199697.1,-112618.2,-12896.42,-375000,-375000,-148591.8,-118645.4,0.03,0.00,0.88,-4,0,-2,26,0
'[12:06:00.708 21/01/2026]',-136332.7,-199654.9,-112561.7,-12862,-375000,-375000,-148542.1,-118597,0.03,0.00,0.88,-4,0,-2,26,0
'[12:06:00.712 21/01/2026]',-136418.3,-199731.3,-112754.4,-12966.78,-375000,-375000,-148642.5,-118666.9,0.03,0.00,0.88,-4,0,-2,26,0
'[12:06:00.716 21/01/2026]',-136483.3,-199778.9,-112841.7,-13011.44,-375000,-375000,-148695.3,-118702.4,0.03,0.00,0.88,-4,0,-2,26,0
'[12:06:00.720 21/01/2026]',-136395.8,-199722.1,-112650.1,-12915.96,-375000,-375000,-148612.8,-118650.1,0.02,0.00,0.89,-4,0,-2,26,0
'[12:06:00.724 21/01/2026]',-136328.3,-199676.3,-112574.8,-12860.84,-375000,-375000,-148549.7,-118601.1,0.02,0.00,0.89,-4,0,-2,26,0
'[12:06:00.728 21/01/2026]',-136406,-199712.6,-112729.3,-12909.65,-375000,-375000,-148604.6,-118628.2,0.02,0.00,0.89,-4,0,-2,26,0
'[12:06:00.732 21/01/2026]',-136465.7,-199749.7,-112831.4,-12964.95,-375000,-375000,-148662.9,-118670.8,0.02,0.00,0.89,-4,0,-2,26,0
'[12:06:00.736 21/01/2026]',-136396.1,-199708.6,-112683.1,-12895.79,-375000,-375000,-148603.4,-118646.2,0.02,0.00,0.89,-4,0,-2,26,0
'[12:06:00.740 21/01/2026]',-136317.5,-199647.2,-112541.7,-12826.77,-375000,-375000,-148528.6,-118594,0.02,0.00,0.89,-4,0,-2,26,0
'[12:06:00.744 21/01/2026]',-136374.2,-199668.4,-112645.6,-12874.11,-375000,-375000,-148584.8,-118625.6,0.02,0.00,0.89,-4,0,-2,26,0
'[12:06:00.748 21/01/2026]',-136448.4,-199722.9,-112816.5,-12967.45,-375000,-375000,-148661.5,-118686.1,0.02,0.00,0.89,-4,0,-2,26,0
'[12:06:00.752 21/01/2026]',-136393.3,-199685.7,-112715.4,-12899.59,-375000,-375000,-148600.3,-118648.2,0.02,0.00,0.89,-4,0,-2,26,0
'[12:06:00.756 21/01/2026]',-136293,-199628.2,-112546.8,-12824.04,-375000,-375000,-148519.6,-118599.8,0.03,0.00,0.89,-4,0,-2,26,0
'[12:06:00.760 21/01/2026]',-136318.6,-199642.5,-112632.7,-12865.98,-375000,-375000,-148564.7,-118626.1,0.03,0.00,0.89,-4,0,-2,26,0
'[12:06:00.764 21/01/2026]',-136419.6,-199699.6,-112808.1,-12962,-375000,-375000,-148642.1,-118671,0.03,0.00,0.89,-4,0,-2,26,0
'[12:06:00.768 21/01/2026]',-136414.5,-199677.9,-112745.3,-12929.19,-375000,-375000,-148606.2,-118649.8,0.03,0.00,0.89,-4,0,-2,26,0
'[12:06:00.772 21/01/2026]',-136315.4,-199613.5,-112567.9,-12839.69,-375000,-375000,-148522,-118596.5,0.03,0.00,0.89,-4,0,-2,26,0
'[12:06:00.776 21/01/2026]',-136300.5,-199614.7,-112598.5,-12843.18,-375000,-375000,-148527.7,-118584.9,0.03,0.00,0.89,-4,0,-2,26,0
'[12:06:00.780 21/01/2026]',-136426.3,-199689.9,-112796,-12952.08,-375000,-375000,-148632.2,-118657.3,0.03,0.00,0.89,-4,0,-2,26,0
'[12:06:00.784 21/01/2026]',-136428.1,-199688.5,-112784.5,-12945.46,-375000,-375000,-148630.8,-118672.5,0.03,0.00,0.89,-4,0,-2,26,0
'[12:06:00.788 21/01/2026]',-136334.3,-199626.3,-112579.9,-12847.74,-375000,-375000,-148546.5,-118624.7,0.03,0.00,0.89,-4,0,-2,26,0
'[12:06:00.792 21/01/2026]',-136299.8,-199609.7,-112561.5,-12846.31,-375000,-375000,-148533,-118600.4,0.03,0.02,0.88,-4,0,-2,26,0
'[12:06:00.796 21/01/2026]',-136363.7,-199671.6,-112753.9,-12921.95,-375000,-375000,-148618,-118642.7,0.03,0.02,0.88,-4,0,-2,26,0
'[12:06:00.800 21/01/2026]',-136428.5,-199694.5,-112803.4,-12949.66,-375000,-375000,-148656.3,-118684.6,0.03,0.02,0.88,-4,0,-2,26,0
'[12:06:00.804 21/01/2026]',-136354.3,-199651.6,-112625.8,-12856.46,-375000,-375000,-148561.6,-118633.7,0.03,0.02,0.88,-4,0,-2,26,0
'[12:06:00.808 21/01/2026]',-136316.8,-199627,-112558.8,-12833.48,-375000,-375000,-148530.2,-118603.8,0.03,0.02,0.88,-4,0,-2,26,0
'[12:06:00.812 21/01/2026]',-136405.5,-199682.7,-112715.8,-12924.9,-375000,-375000,-148622.8,-118664.9,0.03,0.02,0.88,-4,0,-2,26,0
'[12:06:00.816 21/01/2026]',-136425.6,-199714.2,-112810.9,-12972.19,-375000,-375000,-148650.2,-118691.4,0.03,0.02,0.88,-4,0,-2,26,0
'[12:06:00.820 21/01/2026]',-136333.4,-199662.2,-112666.1,-12892.75,-375000,-375000,-148569.1,-118652.2,0.03,0.02,0.88,-4,0,-2,26,0
'[12:06:00.824 21/01/2026]',-136270.9,-199621.6,-112563.3,-12854.98,-375000,-375000,-148515.1,-118614.9,0.03,0.02,0.88,-4,0,-2,26,0
'[12:06:00.828 21/01/2026]',-136349.6,-199679.5,-112717.9,-12926.1,-375000,-375000,-148591.7,-118673.5,0.03,0.00,0.88,-4,0,-2,26,0
'[12:06:00.832 21/01/2026]',-136462.4,-199741.3,-112852.8,-12991.73,-375000,-375000,-148663.1,-118736.4,0.03,0.00,0.88,-4,0,-2,26,0
'[12:06:00.836 21/01/2026]',-136394.9,-199704.3,-112711.3,-12909.65,-375000,-375000,-148589.1,-118704.2,0.03,0.00,0.88,-4,0,-2,26,0
'[12:06:00.840 21/01/2026]',-136308.2,-199647.7,-112564.6,-12842.6,-375000,-375000,-148499.3,-118651.9,0.03,0.00,0.88,-4,0,-2,26,0
'[12:06:00.844 21/01/2026]',-136347.9,-199673,-112664.1,-12894.68,-375000,-375000,-148545.5,-118681.8,0.03,0.00,0.88,-4,0,-2,26,0
'[12:06:00.848 21/01/2026]',-136424.3,-199717.4,-112825.4,-12971.03,-375000,-375000,-148618.6,-118737.5,0.03,0.00,0.88,-4,0,-2,26,0
'[12:06:00.852 21/01/2026]',-136387.6,-199689.7,-112728.1,-12905.94,-375000,-375000,-148562.3,-118701.4,0.03,0.00,0.88,-4,0,-2,26,0
'[12:06:00.856 21/01/2026]',-136290.3,-199642,-112549.8,-12826.41,-375000,-375000,-148469.8,-118630,0.03,0.00,0.88,-4,0,-2,26,0
'[12:06:00.860 21/01/2026]',-136306,-199656.5,-112645.1,-12873.75,-375000,-375000,-148519.3,-118658.8,0.03,0.00,0.88,-4,0,-2,26,0
'[12:06:00.864 21/01/2026]',-136420.3,-199716.9,-112845.3,-12967.54,-375000,-375000,-148598.7,-118715.5,0.02,0.00,0.88,-4,0,-2,26,0
'[12:06:00.868 21/01/2026]',-136416.5,-199708.5,-112771,-12929.99,-375000,-375000,-148562.4,-118702.8,0.02,0.00,0.88,-4,0,-2,26,0
'[12:06:00.872 21/01/2026]',-136300.7,-199635.6,-112570.8,-12845.28,-375000,-375000,-148474.3,-118648.5,0.02,0.00,0.88,-4,0,-2,26,0
'[12:06:00.876 21/01/2026]',-136295.1,-199640.6,-112608.4,-12869.55,-375000,-375000,-148496.1,-118660.8,0.02,0.00,0.88,-4,0,-2,26,0
'[12:06:00.880 21/01/2026]',-136397,-199719.4,-112807,-12964.41,-375000,-375000,-148590.1,-118732.4,0.02,0.00,0.88,-4,0,-2,26,0
'[12:06:00.884 21/01/2026]',-136408.9,-199710.8,-112788.2,-12955.03,-375000,-375000,-148574,-118727.8,0.02,0.00,0.88,-4,0,-2,26,0
'[12:06:00.888 21/01/2026]',-136311.4,-199647.6,-112580.8,-12855.11,-375000,-375000,-148479.6,-118671.8,0.02,0.00,0.88,-4,0,-2,26,0
'[12:06:00.892 21/01/2026]',-136311.5,-199646.5,-112575.7,-12869.2,-375000,-375000,-148486.9,-118674.8,0.02,0.00,0.88,-4,0,-2,26,0
'[12:06:00.896 21/01/2026]',-136404.4,-199704.4,-112754.3,-12956.37,-375000,-375000,-148564.5,-118724.1,0.02,0.00,0.88,-4,0,-2,26,0
'[12:06:00.900 21/01/2026]',-136416.9,-199718.5,-112774.9,-12976.8,-375000,-375000,-148572.3,-118739.7,0.03,-0.02,0.88,-4,0,-2,26,0
'[12:06:00.904 21/01/2026]',-136325.7,-199664.1,-112595.8,-12878.09,-375000,-375000,-148483.3,-118687.7,0.03,-0.02,0.88,-4,0,-2,26,0
'[12:06:00.908 21/01/2026]',-136283.8,-199616.5,-112542,-12836.38,-375000,-375000,-148447,-118650.6,0.03,-0.02,0.88,-4,0,-2,26,0
'[12:06:00.912 21/01/2026]',-136394.4,-199655.1,-112737,-12912.65,-375000,-375000,-148535.3,-118706,0.03,-0.02,0.88,-4,0,-2,26,0
'[12:06:00.916 21/01/2026]',-136446.8,-199677.8,-112826.5,-12952.75,-375000,-375000,-148573.2,-118735.9,0.03,-0.02,0.88,-4,0,-2,26,0
'[12:06:00.920 21/01/2026]',-136353.6,-199618.8,-112652.4,-12872.46,-375000,-375000,-148502.1,-118693.3,0.03,-0.02,0.88,-4,0,-2,26,0
'[12:06:00.924 21/01/2026]',-136288.6,-199563.2,-112553.1,-12827.31,-375000,-375000,-148449.4,-118643,0.03,-0.02,0.88,-4,0,-2,26,0
'[12:06:00.928 21/01/2026]',-136345.7,-199574.5,-112687.1,-12886.36,-375000,-375000,-148501,-118652.8,0.03,-0.02,0.88,-4,0,-2,26,0
'[12:06:00.932 21/01/2026]',-136408.6,-199618.1,-112813.5,-12944.3,-375000,-375000,-148571.5,-118702.7,0.03,-0.02,0.88,-4,0,-2,26,0
'[12:06:00.936 21/01/2026]',-136345.9,-199606.4,-112670.5,-12884.93,-375000,-375000,-148521.2,-118684,0.03,0.00,0.88,-4,0,-2,26,0
'[12:06:00.940 21/01/2026]',-136289.9,-199554.2,-112514.7,-12822.7,-375000,-375000,-148460.1,-118633.4,0.03,0.00,0.88,-4,0,-2,26,0
'[12:06:00.944 21/01/2026]',-136353.6,-199574.3,-112632.8,-12882.38,-375000,-375000,-148522.5,-118662.5,0.03,0.00,0.88,-4,0,-2,26,0
'[12:06:00.948 21/01/2026]',-136435.5,-199627.1,-112767.4,-12962.63,-375000,-375000,-148589.5,-118700.8,0.03,0.00,0.88,-4,0,-2,26,0
'[12:06:00.952 21/01/2026]',-136389.3,-199603.3,-112666,-12908,-375000,-375000,-148548.8,-118685,0.03,0.00,0.88,-4,0,-2,26,0
'[12:06:00.956 21/01/2026]',-136292,-199551.9,-112538.4,-12827.67,-375000,-375000,-148459.6,-118616,0.03,0.00,0.88,-4,0,-2,26,0
'[12:06:00.960 21/01/2026]',-136337.6,-199567.7,-112612,-12864.72,-375000,-375000,-148501,-118633.1,0.03,0.00,0.88,-4,0,-2,26,0
'[12:06:00.964 21/01/2026]',-136449,-199616.1,-112782.3,-12949.3,-375000,-375000,-148590.9,-118694.9,0.03,0.00,0.88,-4,0,-2,26,0
'[12:06:00.968 21/01/2026]',-136411.6,-199590.3,-112735.1,-12912.2,-375000,-375000,-148569.5,-118685.9,0.03,0.00,0.88,-4,0,-2,26,0
'[12:06:00.972 21/01/2026]',-136296.7,-199527.8,-112548.7,-12822.26,-375000,-375000,-148481.3,-118623.7,0.03,0.00,0.88,-4,0,-2,26,0
'[12:06:00.976 21/01/2026]',-136310.7,-199542.7,-112583.9,-12852.61,-375000,-375000,-148504.5,-118632.4,0.03,0.00,0.88,-4,0,-2,26,0
'[12:06:00.980 21/01/2026]',-136420.5,-199611,-112765.1,-12936.38,-375000,-375000,-148590.1,-118682.1,0.03,0.00,0.88,-4,0,-2,26,0
'[12:06:00.984 21/01/2026]',-136407.9,-199615.2,-112742.6,-12925.97,-375000,-375000,-148590,-118683.6,0.03,0.00,0.88,-4,0,-2,26,0
'[12:06:00.988 21/01/2026]',-136286,-199555.5,-112556,-12834.19,-375000,-375000,-148510.8,-118638.8,0.03,0.00,0.88,-4,0,-2,26,0
'[12:06:00.992 21/01/2026]',-136266.5,-199533.2,-112562.1,-12833.97,-375000,-375000,-148513.8,-118629.3,0.03,0.00,0.88,-4,0,-2,26,0
'[12:06:00.996 21/01/2026]',-136363.8,-199594.7,-112739.4,-12913.45,-375000,-375000,-148586.9,-118654.6,0.03,0.00,0.88,-4,0,-2,26,0
'[12:06:01.000 21/01/2026]',-136416.1,-199629.9,-112754.1,-12930.48,-375000,-375000,-148607.7,-118676.4,0.03,0.00,0.88,-4,0,-2,26,0
'[12:06:01.004 21/01/2026]',-136326.4,-199573.6,-112561,-12852.34,-375000,-375000,-148529.8,-118637.3,0.03,0.00,0.88,-4,0,-2,26,0
'[12:06:01.008 21/01/2026]',-136297,-199545.9,-112526.7,-12826.59,-375000,-375000,-148501,-118601.4,0.03,0.00,0.88,-4,0,-2,26,0
'[12:06:01.012 21/01/2026]',-136383.8,-199607.5,-112699.8,-12899.95,-375000,-375000,-148600.6,-118664.7,0.03,0.00,0.88,-4,0,-2,26,0
'[12:06:01.016 21/01/2026]',-136437.1,-199648.3,-112796.6,-12947.2,-375000,-375000,-148659.5,-118714.2,0.03,0.00,0.88,-4,0,-2,26,0
'[12:06:01.020 21/01/2026]',-136333.6,-199593.1,-112626.9,-12859.45,-375000,-375000,-148563,-118652.1,0.03,0.00,0.88,-4,0,-2,26,0
'[12:06:01.024 21/01/2026]',-136275.9,-199539.5,-112511.1,-12805.67,-375000,-375000,-148493.5,-118587,0.03,0.00,0.88,-4,0,-2,26,0
'[12:06:01.028 21/01/2026]',-136383.6,-199610.9,-112662.6,-12876.57,-375000,-375000,-148583.6,-118642.3,0.03,0.00,0.88,-4,0,-2,26,0
'[12:06:01.032 21/01/2026]',-136429.3,-199666.7,-112806.1,-12933.25,-375000,-375000,-148648.3,-118688,0.03,0.00,0.88,-4,0,-2,26,0
'[12:06:01.036 21/01/2026]',-136348.5,-199648.9,-112682.5,-12876.93,-375000,-375000,-148603.7,-118673,0.03,0.00,0.88,-4,0,-2,26,0
'[12:06:01.040 21/01/2026]',-136269.3,-199603.2,-112527,-12809.07,-375000,-375000,-148529.4,-118614,0.03,0.00,0.88,-4,0,-2,26,0
'[12:06:01.044 21/01/2026]',-136331.6,-199626.2,-112640.1,-12850.64,-375000,-375000,-148589.7,-118639.4,0.03,0.00,0.88,-4,0,-2,26,0
'[12:06:01.048 21/01/2026]',-136415.2,-199686.4,-112772.5,-12919.71,-375000,-375000,-148656.8,-118687.4,0.03,0.00,0.88,-4,0,-2,26,0
'[12:06:01.052 21/01/2026]',-136390.7,-199671.3,-112680.6,-12865.08,-375000,-375000,-148607.2,-118665.5,0.03,0.00,0.88,-4,0,-2,26,0
'[12:06:01.056 21/01/2026]',-136296.4,-199610.8,-112542.1,-12794.9,-375000,-375000,-148532.3,-118613.6,0.03,0.00,0.88,-4,0,-2,26,0
'[12:06:01.060 21/01/2026]',-136317.4,-199621.7,-112620.2,-12830.66,-375000,-375000,-148571.4,-118627.3,0.03,0.00,0.88,-4,0,-2,26,0
'[12:06:01.064 21/01/2026]',-136411,-199700.1,-112779.6,-12932.54,-375000,-375000,-148659.3,-118686.3,0.03,0.00,0.88,-4,0,-2,26,0
'[12:06:01.068 21/01/2026]',-136403.7,-199710,-112720.3,-12907.15,-375000,-375000,-148628.5,-118682.7,0.03,0.00,0.88,-4,0,-2,26,0
'[12:06:01.072 21/01/2026]',-136304.8,-199651.2,-112554.1,-12822.66,-375000,-375000,-148547.1,-118633.8,0.03,0.00,0.88,-4,0,-2,26,0
'[12:06:01.076 21/01/2026]',-136332.8,-199647.9,-112583.1,-12840.45,-375000,-375000,-148578.8,-118646.7,0.03,0.00,0.88,-4,0,-2,26,0
'[12:06:01.080 21/01/2026]',-136416.5,-199718.1,-112791.7,-12938.93,-375000,-375000,-148663.4,-118700.9,0.03,0.00,0.88,-4,0,-2,26,0
'[12:06:01.084 21/01/2026]',-136424.4,-199722.8,-112784.8,-12932.85,-375000,-375000,-148651.8,-118697.7,0.03,0.00,0.88,-4,0,-2,26,0
'[12:06:01.088 21/01/2026]',-136330.4,-199675.3,-112596.6,-12837.41,-375000,-375000,-148565.4,-118637.8,0.03,0.00,0.88,-4,0,-2,26,0
'[12:06:01.092 21/01/2026]',-136312.9,-199665,-112582.5,-12828.2,-375000,-375000,-148556.8,-118623,0.03,0.00,0.88,-4,0,-2,26,0
'[12:06:01.096 21/01/2026]',-136390.9,-199715.4,-112762,-12922.79,-375000,-375000,-148654,-118679.4,0.03,0.00,0.88,-4,0,-2,26,0
'[12:06:01.100 21/01/2026]',-136426.1,-199737.1,-112789,-12945.64,-375000,-375000,-148679.2,-118707.9,0.03,0.00,0.88,-4,0,-2,26,0
'[12:06:01.104 21/01/2026]',-136347.9,-199689.5,-112604.7,-12854.31,-375000,-375000,-148595.1,-118658.3,0.03,0.00,0.88,-4,0,-2,26,0
'[12:06:01.108 21/01/2026]',-136301.9,-199652.5,-112547.7,-12827.49,-375000,-375000,-148561,-118621.3,0.03,0.00,0.88,-4,0,-2,26,0
'[12:06:01.112 21/01/2026]',-136369,-199703,-112733.5,-12913.05,-375000,-375000,-148646.6,-118674.1,0.03,0.00,0.88,-4,0,-2,26,0
'[12:06:01.116 21/01/2026]',-136442.4,-199749.5,-112832.5,-12971.79,-375000,-375000,-148697.6,-118713.8,0.02,0.00,0.88,-4,0,-2,26,0
'[12:06:01.120 21/01/2026]',-136386.3,-199718,-112666.8,-12878.36,-375000,-375000,-148614.2,-118668.6,0.02,0.00,0.88,-4,0,-2,26,0
'[12:06:01.124 21/01/2026]',-136311.5,-199672.2,-112550.8,-12818.14,-375000,-375000,-148545.9,-118610.5,0.02,0.00,0.88,-4,0,-2,26,0
'[12:06:01.128 21/01/2026]',-136376.2,-199717.3,-112701.4,-12892.44,-375000,-375000,-148625,-118662,0.02,0.00,0.88,-4,0,-2,26,0
'[12:06:01.132 21/01/2026]',-136444.3,-199770.7,-112831.2,-12956.9,-375000,-375000,-148690.5,-118713.6,0.02,0.00,0.88,-4,0,-2,26,0
'[12:06:01.136 21/01/2026]',-136390,-199738.2,-112693.2,-12883.63,-375000,-375000,-148631.1,-118677.6,0.02,0.00,0.88,-4,0,-2,26,0
'[12:06:01.140 21/01/2026]',-136303.3,-199677.6,-112555.6,-12829.9,-375000,-375000,-148567.8,-118634,0.02,0.00,0.88,-4,0,-2,26,0
'[12:06:01.144 21/01/2026]',-136352.7,-199711.1,-112648.4,-12892.4,-375000,-375000,-148617.5,-118658.1,0.02,0.00,0.88,-4,0,-2,26,0
'[12:06:01.148 21/01/2026]',-136444.5,-199779.8,-112808.5,-12972.19,-375000,-375000,-148702.2,-118722.9,0.02,0.00,0.88,-4,0,-2,26,0
'[12:06:01.152 21/01/2026]',-136390.7,-199746,-112728.1,-12906.43,-375000,-375000,-148651.7,-118694.6,0.02,0.02,0.88,-4,0,-2,26,0
'[12:06:01.156 21/01/2026]',-136301.8,-199683.4,-112566.8,-12829.41,-375000,-375000,-148552.4,-118620.6,0.02,0.02,0.88,-4,0,-2,26,0
'[12:06:01.160 21/01/2026]',-136358.3,-199685.2,-112640.9,-12857.13,-375000,-375000,-148592.5,-118637.6,0.02,0.02,0.88,-4,0,-2,26,0
'[12:06:01.164 21/01/2026]',-136445.6,-199755.1,-112822.4,-12951.36,-375000,-375000,-148686.8,-118702.3,0.02,0.02,0.88,-4,0,-2,26,0
'[12:06:01.168 21/01/2026]',-136420.9,-199756.6,-112768.3,-12922.48,-375000,-375000,-148660.8,-118693.9,0.02,0.02,0.88,-4,0,-2,26,0
'[12:06:01.172 21/01/2026]',-136318,-199694.1,-112556.9,-12831.78,-375000,-375000,-148577.5,-118642.5,0.02,0.02,0.88,-4,0,-2,26,0
'[12:06:01.176 21/01/2026]',-136315.5,-199700.1,-112604.4,-12851.76,-375000,-375000,-148598.8,-118656.6,0.02,0.02,0.88,-4,0,-2,26,0
'[12:06:01.180 21/01/2026]',-136433.7,-199763.2,-112808.7,-12943.98,-375000,-375000,-148673.3,-118694.9,0.02,0.02,0.88,-4,0,-2,26,0
'[12:06:01.184 21/01/2026]',-136417.8,-199756.7,-112791,-12926.95,-375000,-375000,-148660.9,-118689.2,0.02,0.02,0.88,-4,0,-2,26,0
'[12:06:01.188 21/01/2026]',-136332,-199693.7,-112588.2,-12828.65,-375000,-375000,-148572.1,-118626.3,0.03,0.00,0.88,-4,0,-2,26,0
'[12:06:01.192 21/01/2026]',-136314.7,-199677.3,-112564.5,-12823.51,-375000,-375000,-148564,-118612.3,0.03,0.00,0.88,-4,0,-2,26,0
'[12:06:01.196 21/01/2026]',-136398.4,-199731.6,-112760.1,-12933.21,-375000,-375000,-148663.3,-118682.9,0.03,0.00,0.88,-4,0,-2,26,0
'[12:06:01.200 21/01/2026]',-136437.7,-199775.9,-112823.6,-12956.86,-375000,-375000,-148697.3,-118721.8,0.03,0.00,0.88,-4,0,-2,26,0
'[12:06:01.204 21/01/2026]',-136349.6,-199714.6,-112618.4,-12848.63,-375000,-375000,-148586.7,-118646.9,0.03,0.00,0.88,-4,0,-2,26,0
'[12:06:01.208 21/01/2026]',-136296.8,-199667.5,-112547.8,-12808.62,-375000,-375000,-148544.1,-118599.5,0.03,0.00,0.88,-4,0,-2,26,0
'[12:06:01.212 21/01/2026]',-136380.9,-199731.9,-112729.2,-12900.93,-375000,-375000,-148645.6,-118669.1,0.03,0.00,0.88,-4,0,-2,26,0
'[12:06:01.216 21/01/2026]',-136446,-199783.5,-112818.6,-12957.84,-375000,-375000,-148694.8,-118719.4,0.03,0.00,0.88,-4,0,-2,26,0
'[12:06:01.220 21/01/2026]',-136370.4,-199728.3,-112638.6,-12860.08,-375000,-375000,-148615.3,-118677,0.03,0.00,0.88,-4,0,-2,26,0
'[12:06:01.224 21/01/2026]',-136286.9,-199676.8,-112531.3,-12807.82,-375000,-375000,-148567.2,-118639.9,0.02,0.00,0.86,-4,0,-2,26,0
'[12:06:01.228 21/01/2026]',-136357.4,-199718.6,-112680.9,-12895.12,-375000,-375000,-148638.7,-118679.3,0.02,0.00,0.86,-4,0,-2,26,0
'[12:06:01.232 21/01/2026]',-136459.2,-199768.3,-112826.7,-12966.29,-375000,-375000,-148707.2,-118731,0.02,0.00,0.86,-4,0,-2,26,0
'[12:06:01.236 21/01/2026]',-136375.9,-199732.7,-112679.1,-12874.2,-375000,-375000,-148625.9,-118674.4,0.02,0.00,0.86,-4,0,-2,26,0
'[12:06:01.240 21/01/2026]',-136297.6,-199678.5,-112535.2,-12807.15,-375000,-375000,-148548.7,-118621.5,0.02,0.00,0.86,-4,0,-2,26,0
'[12:06:01.244 21/01/2026]',-136353.5,-199704.4,-112656.2,-12863.96,-375000,-375000,-148608.2,-118659.6,0.02,0.00,0.86,-4,0,-2,26,0
'[12:06:01.248 21/01/2026]',-136411.1,-199752.3,-112788.7,-12935.22,-375000,-375000,-148680.9,-118705.4,0.02,0.00,0.86,-4,0,-2,26,0
'[12:06:01.252 21/01/2026]',-136355.6,-199733.3,-112681,-12865.08,-375000,-375000,-148628.8,-118679.3,0.02,0.00,0.86,-4,0,-2,26,0
'[12:06:01.256 21/01/2026]',-136287.6,-199677,-112537.3,-12789.89,-375000,-375000,-148550.2,-118626,0.02,0.00,0.86,-4,0,-2,26,0
'[12:06:01.260 21/01/2026]',-136325.9,-199686.5,-112620.6,-12828.29,-375000,-375000,-148577.2,-118633,0.02,0.00,0.88,-4,0,-2,26,0
'[12:06:01.264 21/01/2026]',-136403.7,-199750.9,-112787.9,-12909.43,-375000,-375000,-148659,-118687.4,0.02,0.00,0.88,-4,0,-2,26,0
'[12:06:01.268 21/01/2026]',-136397.4,-199746.8,-112724.5,-12883.81,-375000,-375000,-148640.7,-118690.5,0.02,0.00,0.88,-4,0,-2,26,0
'[12:06:01.272 21/01/2026]',-136302.1,-199680.3,-112538.5,-12797.71,-375000,-375000,-148553.3,-118635,0.02,0.00,0.88,-4,0,-2,26,0
'[12:06:01.276 21/01/2026]',-136311.3,-199665.2,-112559.5,-12810.5,-375000,-375000,-148562.2,-118625.5,0.02,0.00,0.88,-4,0,-2,26,0
'[12:06:01.280 21/01/2026]',-136411.7,-199737.9,-112735.4,-12902.59,-375000,-375000,-148661.3,-118689,0.02,0.00,0.88,-4,0,-2,26,0
'[12:06:01.284 21/01/2026]',-136421,-199752.9,-112749.8,-12902.05,-375000,-375000,-148660.1,-118703.2,0.02,0.00,0.88,-4,0,-2,26,0
'[12:06:01.288 21/01/2026]',-136298.1,-199679.4,-112554.6,-12794.09,-375000,-375000,-148552.8,-118630.4,0.02,0.00,0.88,-4,0,-2,26,0
'[12:06:01.292 21/01/2026]',-136265.7,-199671.2,-112543.3,-12794.99,-375000,-375000,-148549,-118621.2,0.02,0.00,0.88,-4,0,-2,26,0
'[12:06:01.296 21/01/2026]',-136377.7,-199749.4,-112737.6,-12894.45,-375000,-375000,-148648.8,-118688.2,0.03,0.00,0.88,-4,0,-2,26,0
'[12:06:01.300 21/01/2026]',-136436.6,-199781.5,-112784.5,-12918.19,-375000,-375000,-148679.2,-118728.7,0.03,0.00,0.88,-4,0,-2,26,0
'[12:06:01.304 21/01/2026]',-136328.3,-199706.8,-112603.3,-12821.05,-375000,-375000,-148589.2,-118673.2,0.03,0.00,0.88,-4,0,-2,26,0
'[12:06:01.308 21/01/2026]',-136289.6,-199660,-112536.5,-12796.55,-375000,-375000,-148553.3,-118626.4,0.03,0.00,0.88,-4,0,-2,26,0
'[12:06:01.312 21/01/2026]',-136393.2,-199733.3,-112709,-12886.54,-375000,-375000,-148639.3,-118682,0.03,0.00,0.88,-4,0,-2,26,0
'[12:06:01.316 21/01/2026]',-136448.3,-199771.9,-112807,-12930.48,-375000,-375000,-148691.6,-118727.5,0.03,0.00,0.88,-4,0,-2,26,0
'[12:06:01.320 21/01/2026]',-136341.3,-199720.9,-112639,-12847.25,-375000,-375000,-148608.2,-118677.2,0.03,0.00,0.88,-4,0,-2,26,0
'[12:06:01.324 21/01/2026]',-136273.1,-199690.2,-112526.2,-12806.74,-375000,-375000,-148552.8,-118639.2,0.03,0.00,0.88,-4,0,-2,26,0
'[12:06:01.328 21/01/2026]',-136377.5,-199744.9,-112668,-12897.67,-375000,-375000,-148631.4,-118688.2,0.03,0.00,0.88,-4,0,-2,26,0
'[12:06:01.332 21/01/2026]',-136443.1,-199782.8,-112808.2,-12953.86,-375000,-375000,-148680.6,-118717.8,0.02,0.00,0.89,-4,0,-2,26,0
'[12:06:01.336 21/01/2026]',-136388.8,-199729.4,-112682.1,-12865.35,-375000,-375000,-148620.8,-118687.4,0.02,0.00,0.89,-4,0,-2,26,0
'[12:06:01.340 21/01/2026]',-136295.9,-199680.7,-112512.5,-12794,-375000,-375000,-148547,-118629.5,0.02,0.00,0.89,-4,0,-2,26,0
'[12:06:01.344 21/01/2026]',-136361.9,-199724.6,-112654.7,-12849.62,-375000,-375000,-148607.5,-118661.1,0.02,0.00,0.89,-4,0,-2,26,0
'[12:06:01.348 21/01/2026]',-136449.8,-199787.2,-112828,-12938.89,-375000,-375000,-148688.5,-118724.1,0.02,0.00,0.89,-4,0,-2,26,0
'[12:06:01.352 21/01/2026]',-136389.9,-199747.4,-112710.2,-12876.79,-375000,-375000,-148634.9,-118698.2,0.02,0.00,0.89,-4,0,-2,26,0
'[12:06:01.356 21/01/2026]',-136292.4,-199681.6,-112538.9,-12797.98,-375000,-375000,-148547.3,-118630.9,0.02,0.00,0.89,-4,0,-2,26,0
'[12:06:01.360 21/01/2026]',-136342.9,-199718.3,-112610.1,-12847.6,-375000,-375000,-148595,-118662.3,0.02,0.00,0.89,-4,0,-2,26,0
'[12:06:01.364 21/01/2026]',-136425.8,-199772.5,-112793.1,-12942.38,-375000,-375000,-148687.3,-118729.2,0.02,0.00,0.89,-4,0,-2,26,0
'[12:06:01.368 21/01/2026]',-136390.5,-199745,-112741.7,-12901.83,-375000,-375000,-148651.1,-118704.7,0.02,0.00,0.88,-4,0,-2,26,0
'[12:06:01.372 21/01/2026]',-136330.2,-199706.5,-112571.4,-12815.19,-375000,-375000,-148580.3,-118667.4,0.02,0.00,0.88,-4,0,-2,26,0
'[12:06:01.376 21/01/2026]',-136333.5,-199706.6,-112605.9,-12846.98,-375000,-375000,-148597.9,-118663.3,0.02,0.00,0.88,-4,0,-2,26,0
'[12:06:01.380 21/01/2026]',-136433.4,-199772,-112785,-12932.18,-375000,-375000,-148667,-118701.9,0.02,0.00,0.88,-4,0,-2,26,0
'[12:06:01.384 21/01/2026]',-136431.3,-199783.1,-112772.9,-12916.8,-375000,-375000,-148656.4,-118703.9,0.02,0.00,0.88,-4,0,-2,26,0
'[12:06:01.388 21/01/2026]',-136314.2,-199718.5,-112577.8,-12823.42,-375000,-375000,-148569.2,-118651.5,0.02,0.00,0.88,-4,0,-2,26,0
'[12:06:01.392 21/01/2026]',-136313.8,-199687,-112573.9,-12821.27,-375000,-375000,-148568.9,-118642.2,0.02,0.00,0.88,-4,0,-2,26,0
'[12:06:01.396 21/01/2026]',-136425.3,-199752.5,-112760.1,-12919.13,-375000,-375000,-148661.8,-118702.1,0.02,0.00,0.88,-4,0,-2,26,0
'[12:06:01.400 21/01/2026]',-136454.1,-199802,-112786.5,-12941.39,-375000,-375000,-148673.5,-118720.4,0.02,0.00,0.88,-4,0,-2,26,0
'[12:06:01.404 21/01/2026]',-136369,-199754.4,-112619.3,-12857.08,-375000,-375000,-148602,-118680.1,0.03,0.00,0.88,-4,0,-2,26,0
'[12:06:01.408 21/01/2026]',-136337.2,-199729.2,-112575,-12835,-375000,-375000,-148575.9,-118651.2,0.03,0.00,0.88,-4,0,-2,26,0
'[12:06:01.412 21/01/2026]',-136417,-199797.9,-112744.4,-12917.12,-375000,-375000,-148659.7,-118697.8,0.03,0.00,0.88,-4,0,-2,26,0
'[12:06:01.416 21/01/2026]',-136449.3,-199820.2,-112807.9,-12960.26,-375000,-375000,-148692.6,-118728.9,0.03,0.00,0.88,-4,0,-2,26,0
'[12:06:01.420 21/01/2026]',-136403.4,-199781.5,-112640.1,-12873,-375000,-375000,-148615,-118683.4,0.03,0.00,0.88,-4,0,-2,26,0
'[12:06:01.424 21/01/2026]',-136341.7,-199738.7,-112556.9,-12828.6,-375000,-375000,-148557.8,-118636.4,0.03,0.00,0.88,-4,0,-2,26,0
'[12:06:01.428 21/01/2026]',-136407.7,-199781.5,-112712.7,-12907.06,-375000,-375000,-148638.9,-118689.5,0.03,0.00,0.88,-4,0,-2,26,0
'[12:06:01.432 21/01/2026]',-136491.6,-199844,-112851.7,-12999.64,-375000,-375000,-148721.4,-118757.2,0.03,0.00,0.88,-4,0,-2,26,0
'[12:06:01.436 21/01/2026]',-136429.6,-199791.6,-112699.5,-12905.09,-375000,-375000,-148636.5,-118694.5,0.03,0.00,0.88,-4,0,-2,26,0
'[12:06:01.440 21/01/2026]',-136344.8,-199732.1,-112549.8,-12828.38,-375000,-375000,-148557.9,-118640.5,0.03,0.00,0.88,-4,0,-2,26,0
'[12:06:01.444 21/01/2026]',-136409.9,-199761.2,-112676,-12884.98,-375000,-375000,-148627.8,-118682.4,0.03,0.00,0.88,-4,0,-2,26,0
'[12:06:01.448 21/01/2026]',-136478.7,-199827.7,-112826.1,-12969.33,-375000,-375000,-148712.9,-118745.7,0.03,0.00,0.88,-4,0,-2,26,0
'[12:06:01.452 21/01/2026]',-136422.6,-199801,-112719.5,-12908.76,-375000,-375000,-148656.9,-118717.8,0.03,0.00,0.88,-4,0,-2,26,0
'[12:06:01.456 21/01/2026]',-136353.1,-199731,-112562,-12830.97,-375000,-375000,-148573,-118656.7,0.03,0.00,0.88,-4,0,-2,26,0
'[12:06:01.460 21/01/2026]',-136385.5,-199741.3,-112622.2,-12873.53,-375000,-375000,-148618.4,-118678.7,0.03,0.00,0.88,-4,0,-2,26,0
'[12:06:01.464 21/01/2026]',-136466.4,-199801.9,-112804.6,-12961.64,-375000,-375000,-148694.3,-118721.9,0.03,0.00,0.88,-4,0,-2,26,0
'[12:06:01.468 21/01/2026]',-136439.2,-199782.7,-112766.1,-12927.44,-375000,-375000,-148663.9,-118711.7,0.03,0.00,0.88,-4,0,-2,26,0
'[12:06:01.472 21/01/2026]',-136325.8,-199717.9,-112575.8,-12838.75,-375000,-375000,-148582.8,-118662.3,0.03,0.00,0.88,-4,0,-2,26,0
'[12:06:01.476 21/01/2026]',-136346.8,-199730.7,-112596.9,-12836.43,-375000,-375000,-148590,-118651.1,0.03,0.00,0.88,-4,0,-2,26,0
'[12:06:01.480 21/01/2026]',-136462.9,-199804.5,-112778.7,-12934.33,-375000,-375000,-148676.5,-118712.2,0.03,0.00,0.88,-4,0,-2,26,0
'[12:06:01.484 21/01/2026]',-136450.6,-199808.6,-112773.8,-12930.22,-375000,-375000,-148676.4,-118723.7,0.03,0.00,0.88,-4,0,-2,26,0
'[12:06:01.488 21/01/2026]',-136328.7,-199737.5,-112599.5,-12837.1,-375000,-375000,-148585.3,-118661.9,0.03,0.00,0.88,-4,0,-2,26,0
'[12:06:01.492 21/01/2026]',-136319.6,-199717.2,-112587,-12832.63,-375000,-375000,-148583.6,-118653.5,0.03,0.00,0.88,-4,0,-2,26,0
'[12:06:01.496 21/01/2026]',-136451.1,-199783.9,-112762.8,-12931.2,-375000,-375000,-148682.1,-118719.2,0.03,0.00,0.88,-4,0,-2,26,0
'[12:06:01.500 21/01/2026]',-136471.5,-199805.9,-112790.2,-12949.57,-375000,-375000,-148698.1,-118745.3,0.03,0.00,0.88,-4,0,-2,26,0
'[12:06:01.504 21/01/2026]',-136361.5,-199746.1,-112583.3,-12839.51,-375000,-375000,-148607.6,-118691,0.03,0.00,0.88,-4,0,-2,26,0
'[12:06:01.508 21/01/2026]',-136326,-199710,-112543,-12807.1,-375000,-375000,-148570.8,-118652.1,0.03,0.00,0.88,-4,0,-2,26,0
'[12:06:01.512 21/01/2026]',-136440.6,-199769.5,-112753,-12921.63,-375000,-375000,-148660.6,-118716.5,0.03,0.00,0.88,-4,0,-2,26,0
'[12:06:01.516 21/01/2026]',-136477.2,-199811.7,-112826.5,-12958.96,-375000,-375000,-148701,-118748.4,0.03,0.00,0.88,-4,0,-2,26,0
'[12:06:01.520 21/01/2026]',-136382.8,-199774.6,-112649.6,-12866.74,-375000,-375000,-148626.4,-118708.2,0.03,0.00,0.88,-4,0,-2,26,0
'[12:06:01.524 21/01/2026]',-136334.6,-199730.4,-112548.8,-12821.59,-375000,-375000,-148568.2,-118661.5,0.03,0.00,0.88,-4,0,-2,26,0
'[12:06:01.528 21/01/2026]',-136426.4,-199764.3,-112683.3,-12890.7,-375000,-375000,-148637,-118701.6,0.03,0.00,0.88,-4,0,-2,26,0
'[12:06:01.532 21/01/2026]',-136482.3,-199804.4,-112799.3,-12957.84,-375000,-375000,-148706.4,-118756.5,0.03,0.00,0.88,-4,0,-2,26,0
'[12:06:01.536 21/01/2026]',-136403.3,-199773.5,-112666.5,-12882.43,-375000,-375000,-148636,-118713.7,0.03,0.00,0.88,-4,0,-2,26,0
'[12:06:01.540 21/01/2026]',-136319.7,-199727.2,-112545.2,-12825.25,-375000,-375000,-148555.1,-118651.6,0.03,0.00,0.88,-4,0,-2,26,0
'[12:06:01.544 21/01/2026]',-136388.2,-199752.1,-112675.9,-12887.52,-375000,-375000,-148618.1,-118689.7,0.03,0.00,0.88,-4,0,-2,26,0
'[12:06:01.548 21/01/2026]',-136486.8,-199813.3,-112829.8,-12966.11,-375000,-375000,-148705.3,-118749.5,0.03,0.00,0.89,-4,0,-2,26,0
'[12:06:01.552 21/01/2026]',-136417.8,-199798.2,-112708.3,-12913.27,-375000,-375000,-148656.3,-118719.7,0.03,0.00,0.89,-4,0,-2,26,0
'[12:06:01.556 21/01/2026]',-136337.2,-199732.1,-112552,-12825.97,-375000,-375000,-148573,-118660.9,0.03,0.00,0.89,-4,0,-2,26,0
'[12:06:01.560 21/01/2026]',-136388.4,-199746.8,-112638.3,-12877.02,-375000,-375000,-148613.3,-118676.6,0.03,0.00,0.89,-4,0,-2,26,0
'[12:06:01.564 21/01/2026]',-136475.5,-199788.1,-112802.3,-12956.28,-375000,-375000,-148684.9,-118719.7,0.03,0.00,0.89,-4,0,-2,26,0
'[12:06:01.568 21/01/2026]',-136446.3,-199789.5,-112762.4,-12928.65,-375000,-375000,-148676.6,-118732.4,0.03,0.00,0.89,-4,0,-2,26,0
'[12:06:01.572 21/01/2026]',-136345.5,-199738.9,-112579.7,-12842.87,-375000,-375000,-148593.8,-118684.2,0.03,0.00,0.89,-4,0,-2,26,0
'[12:06:01.576 21/01/2026]',-136356.1,-199737,-112601.6,-12856.32,-375000,-375000,-148595.9,-118672.8,0.03,0.00,0.89,-4,0,-2,26,0
'[12:06:01.580 21/01/2026]',-136450.5,-199798.5,-112777,-12932.05,-375000,-375000,-148688.5,-118732.9,0.03,0.00,0.89,-4,0,-2,26,0
'[12:06:01.584 21/01/2026]',-136448.6,-199798.5,-112762.9,-12937.28,-375000,-375000,-148679.9,-118732.8,0.02,0.00,0.88,-4,0,-2,26,0
'[12:06:01.588 21/01/2026]',-136340.6,-199730.8,-112566.4,-12844.74,-375000,-375000,-148593.1,-118677.5,0.02,0.00,0.88,-4,0,-2,26,0
'[12:06:01.592 21/01/2026]',-136342,-199717.7,-112581.1,-12848.45,-375000,-375000,-148608,-118684.4,0.02,0.00,0.88,-4,0,-2,26,0
'[12:06:01.596 21/01/2026]',-136448.1,-199777,-112759.5,-12924.27,-375000,-375000,-148689,-118731.4,0.02,0.00,0.88,-4,0,-2,26,0
'[12:06:01.600 21/01/2026]',-136480,-199801.3,-112783.1,-12945.24,-375000,-375000,-148689.1,-118745,0.02,0.00,0.88,-4,0,-2,26,0
'[12:06:01.604 21/01/2026]',-136379.6,-199750,-112620.2,-12853.91,-375000,-375000,-148593.6,-118688.9,0.02,0.00,0.88,-4,0,-2,26,0
'[12:06:01.608 21/01/2026]',-136330.5,-199726.9,-112566.4,-12829.36,-375000,-375000,-148569.7,-118660.5,0.02,0.00,0.88,-4,0,-2,26,0
'[12:06:01.612 21/01/2026]',-136418.8,-199765.4,-112736.2,-12911.08,-375000,-375000,-148660.3,-118712,0.02,0.00,0.88,-4,0,-2,26,0
'[12:06:01.616 21/01/2026]',-136495.7,-199795.4,-112826.6,-12957.17,-375000,-375000,-148704.7,-118753.3,0.02,0.00,0.88,-4,0,-2,26,0
'[12:06:01.620 21/01/2026]',-136411.9,-199757.6,-112641.5,-12864.64,-375000,-375000,-148624.6,-118711.5,0.02,0.00,0.89,-4,0,-2,26,0
'[12:06:01.624 21/01/2026]',-136334.5,-199711.5,-112544.9,-12824.4,-375000,-375000,-148582.8,-118679.4,0.02,0.00,0.89,-4,0,-2,26,0
'[12:06:01.628 21/01/2026]',-136396.3,-199751.3,-112683.1,-12897.45,-375000,-375000,-148655.6,-118728,0.02,0.00,0.89,-4,0,-2,26,0
'[12:06:01.632 21/01/2026]',-136480.3,-199807.9,-112797.3,-12951.05,-375000,-375000,-148691.4,-118755.2,0.02,0.00,0.89,-4,0,-2,26,0
'[12:06:01.636 21/01/2026]',-136392.8,-199753.7,-112672.1,-12872.64,-375000,-375000,-148610.1,-118703.9,0.02,0.00,0.89,-4,0,-2,26,0
'[12:06:01.640 21/01/2026]',-136332.8,-199686.3,-112511.9,-12801.56,-375000,-375000,-148545.6,-118659.7,0.02,0.00,0.89,-4,0,-2,26,0
'[12:06:01.644 21/01/2026]',-136401.5,-199710.9,-112645,-12861.51,-375000,-375000,-148606.7,-118695.9,0.02,0.00,0.89,-4,0,-2,26,0
'[12:06:01.648 21/01/2026]',-136463.8,-199779.4,-112828.7,-12930.98,-375000,-375000,-148688.2,-118763.1,0.02,0.00,0.89,-4,0,-2,26,0
'[12:06:01.652 21/01/2026]',-136431.8,-199753.9,-112725.7,-12872.64,-375000,-375000,-148648.2,-118755.1,0.02,0.00,0.89,-4,0,-2,26,0
'[12:06:01.656 21/01/2026]',-136337.7,-199666.6,-112560.6,-12781.13,-375000,-375000,-148539.8,-118676.2,0.03,0.02,0.88,-4,0,-2,26,0
'[12:06:01.660 21/01/2026]',-136363.4,-199671.5,-112643,-12827.26,-375000,-375000,-148569.8,-118688.5,0.03,0.02,0.88,-4,0,-2,26,0
'[12:06:01.664 21/01/2026]',-136463.3,-199726.6,-112816.6,-12925.75,-375000,-375000,-148657.5,-118749.5,0.03,0.02,0.88,-4,0,-2,26,0
'[12:06:01.668 21/01/2026]',-136425.3,-199704.2,-112731,-12875.36,-375000,-375000,-148622.8,-118739.6,0.03,0.02,0.88,-4,0,-2,26,0
'[12:06:01.672 21/01/2026]',-136312,-199635.3,-112566.3,-12786.05,-375000,-375000,-148526,-118676.5,0.03,0.02,0.88,-4,0,-2,26,0
'[12:06:01.676 21/01/2026]',-136335.3,-199628.1,-112625.2,-12807.37,-375000,-375000,-148546.8,-118681.5,0.03,0.02,0.88,-4,0,-2,26,0
'[12:06:01.680 21/01/2026]',-136446.9,-199713.3,-112809.9,-12892.67,-375000,-375000,-148628.2,-118727,0.03,0.02,0.88,-4,0,-2,26,0
'[12:06:01.684 21/01/2026]',-136425.9,-199722.1,-112773.5,-12874.83,-375000,-375000,-148623.9,-118727.2,0.03,0.02,0.88,-4,0,-2,26,0
'[12:06:01.688 21/01/2026]',-136354.8,-199669.7,-112603.3,-12812.02,-375000,-375000,-148558.3,-118694.8,0.03,0.02,0.88,-4,0,-2,26,0
'[12:06:01.692 21/01/2026]',-136348.7,-199655.2,-112604.5,-12814.52,-375000,-375000,-148535.8,-118662.2,0.03,0.00,0.88,-4,0,-2,26,0
'[12:06:01.696 21/01/2026]',-136448.2,-199716.5,-112774.4,-12900.58,-375000,-375000,-148630,-118721.8,0.03,0.00,0.88,-4,0,-2,26,0
'[12:06:01.700 21/01/2026]',-136462.5,-199739.7,-112825.6,-12917.21,-375000,-375000,-148662.1,-118750.8,0.03,0.00,0.88,-4,0,-2,26,0
'[12:06:01.704 21/01/2026]',-136356.1,-199683.5,-112630.5,-12822.52,-375000,-375000,-148559.8,-118686,0.03,0.00,0.88,-4,0,-2,26,0
'[12:06:01.708 21/01/2026]',-136322.7,-199649.4,-112572.6,-12801.96,-375000,-375000,-148522.8,-118647.4,0.03,0.00,0.88,-4,0,-2,26,0
'[12:06:01.712 21/01/2026]',-136422.2,-199703,-112742.5,-12888.33,-375000,-375000,-148614.2,-118706.5,0.03,0.00,0.88,-4,0,-2,26,0
'[12:06:01.716 21/01/2026]',-136467.8,-199730.1,-112819.8,-12917.83,-375000,-375000,-148650,-118732.5,0.03,0.00,0.88,-4,0,-2,26,0
'[12:06:01.720 21/01/2026]',-136363.5,-199679.2,-112651.7,-12837.77,-375000,-375000,-148578.8,-118700.2,0.03,0.00,0.88,-4,0,-2,26,0
'[12:06:01.724 21/01/2026]',-136308.4,-199633.3,-112568.7,-12803.57,-375000,-375000,-148529.3,-118659.5,0.03,0.00,0.88,-4,0,-2,26,0
'[12:06:01.728 21/01/2026]',-136408.8,-199672.3,-112706.6,-12870.09,-375000,-375000,-148593.2,-118694.9,0.03,-0.02,0.88,-4,0,-2,26,0
'[12:06:01.732 21/01/2026]',-136452.9,-199716.7,-112825.2,-12923.64,-375000,-375000,-148644.3,-118738.6,0.03,-0.02,0.88,-4,0,-2,26,0
'[12:06:01.736 21/01/2026]',-136378.5,-199679.9,-112696.1,-12851.45,-375000,-375000,-148581.9,-118717.4,0.03,-0.02,0.88,-4,0,-2,26,0
'[12:06:01.740 21/01/2026]',-136330.6,-199635,-112561.9,-12787.83,-375000,-375000,-148507.8,-118667.7,0.03,-0.02,0.88,-4,0,-2,26,0
'[12:06:01.744 21/01/2026]',-136393.9,-199655.5,-112676.1,-12831.55,-375000,-375000,-148544.5,-118672.7,0.03,-0.02,0.88,-4,0,-2,26,0
'[12:06:01.748 21/01/2026]',-136465.5,-199708.4,-112831.8,-12914.21,-375000,-375000,-148616.6,-118728.4,0.03,-0.02,0.88,-4,0,-2,26,0
'[12:06:01.752 21/01/2026]',-136422.9,-199684,-112746.1,-12860.52,-375000,-375000,-148572,-118719.4,0.03,-0.02,0.88,-4,0,-2,26,0
'[12:06:01.756 21/01/2026]',-136323.8,-199621.5,-112582.9,-12779.56,-375000,-375000,-148483.9,-118660.1,0.03,-0.02,0.88,-4,0,-2,26,0
'[12:06:01.760 21/01/2026]',-136360.4,-199634.5,-112660.5,-12821.05,-375000,-375000,-148525.4,-118676.5,0.03,-0.02,0.88,-4,0,-2,26,0
'[12:06:01.764 21/01/2026]',-136451.5,-199709.3,-112852.3,-12931.83,-375000,-375000,-148622.3,-118749.9,0.03,0.00,0.88,-4,0,-2,26,0
'[12:06:01.768 21/01/2026]',-136433.1,-199697,-112795.5,-12883.63,-375000,-375000,-148592.4,-118741.5,0.03,0.00,0.88,-4,0,-2,26,0
'[12:06:01.772 21/01/2026]',-136359.3,-199649.7,-112622.3,-12796.64,-375000,-375000,-148518,-118697.5,0.03,0.00,0.88,-4,0,-2,26,0
'[12:06:01.776 21/01/2026]',-136375.2,-199674.8,-112667.8,-12820.78,-375000,-375000,-148546.3,-118703.9,0.03,0.00,0.88,-4,0,-2,26,0
'[12:06:01.780 21/01/2026]',-136474.2,-199734.8,-112846,-12913.5,-375000,-375000,-148633.5,-118750.4,0.03,0.00,0.88,-4,0,-2,26,0
'[12:06:01.784 21/01/2026]',-136458.1,-199732.3,-112825.3,-12898.57,-375000,-375000,-148629.4,-118748.4,0.03,0.00,0.88,-4,0,-2,26,0
'[12:06:01.788 21/01/2026]',-136356.6,-199686.3,-112623,-12810.1,-375000,-375000,-148546.6,-118693.6,0.03,0.00,0.88,-4,0,-2,26,0
'[12:06:01.792 21/01/2026]',-136356,-199685.4,-112615.8,-12810.63,-375000,-375000,-148538.3,-118680.2,0.03,0.00,0.88,-4,0,-2,26,0
'[12:06:01.796 21/01/2026]',-136458.6,-199747.5,-112808.5,-12907.19,-375000,-375000,-148644.7,-118750.2,0.03,0.00,0.88,-4,0,-2,26,0
'[12:06:01.800 21/01/2026]',-136481.7,-199779.7,-112854.9,-12942.82,-375000,-375000,-148681.4,-118795.6,0.02,0.00,0.88,-4,0,-2,26,0
'[12:06:01.804 21/01/2026]',-136373.2,-199714.9,-112671.4,-12837.14,-375000,-375000,-148565.6,-118708.7,0.02,0.00,0.88,-4,0,-2,26,0
'[12:06:01.808 21/01/2026]',-136346.3,-199672.5,-112617.2,-12816,-375000,-375000,-148531.1,-118661.3,0.02,0.00,0.88,-4,0,-2,26,0
'[12:06:01.812 21/01/2026]',-136453,-199741.2,-112790.4,-12915.78,-375000,-375000,-148637.4,-118733.5,0.02,0.00,0.88,-4,0,-2,26,0
'[12:06:01.816 21/01/2026]',-136491,-199787.1,-112867.3,-12964.23,-375000,-375000,-148680.5,-118773.3,0.02,0.00,0.88,-4,0,-2,26,0
'[12:06:01.820 21/01/2026]',-136394.7,-199729.5,-112670.3,-12861.95,-375000,-375000,-148588.6,-118710.5,0.02,0.00,0.88,-4,0,-2,26,0
'[12:06:01.824 21/01/2026]',-136345.2,-199687.4,-112575.8,-12820.74,-375000,-375000,-148540,-118668.4,0.02,0.00,0.88,-4,0,-2,26,0
'[12:06:01.828 21/01/2026]',-136436.9,-199736.8,-112727.9,-12911.44,-375000,-375000,-148622.2,-118718.9,0.02,0.00,0.88,-4,0,-2,26,0
'[12:06:01.832 21/01/2026]',-136491.5,-199786.9,-112834,-12972.37,-375000,-375000,-148680.4,-118764.3,0.02,0.00,0.88,-4,0,-2,26,0
'[12:06:01.836 21/01/2026]',-136412.1,-199736.9,-112707.6,-12881.13,-375000,-375000,-148613.6,-118729.3,0.02,0.00,0.88,-4,0,-2,26,0
'[12:06:01.840 21/01/2026]',-136330.3,-199691.8,-112588.5,-12821.85,-375000,-375000,-148550.9,-118685.9,0.02,0.00,0.88,-4,0,-2,26,0
'[12:06:01.844 21/01/2026]',-136409.2,-199727.2,-112705,-12879.92,-375000,-375000,-148611.9,-118721,0.02,0.00,0.88,-4,0,-2,26,0
'[12:06:01.848 21/01/2026]',-136488.7,-199788.3,-112864.2,-12969.42,-375000,-375000,-148696.3,-118784.4,0.02,0.00,0.88,-4,0,-2,26,0
'[12:06:01.852 21/01/2026]',-136452.1,-199767.4,-112758.8,-12905.99,-375000,-375000,-148634.5,-118753.2,0.02,0.00,0.88,-4,0,-2,26,0
'[12:06:01.856 21/01/2026]',-136360.7,-199699.7,-112572.4,-12805.81,-375000,-375000,-148536.6,-118680.8,0.02,0.00,0.88,-4,0,-2,26,0
'[12:06:01.860 21/01/2026]',-136377.5,-199714.6,-112638.4,-12843.4,-375000,-375000,-148576.2,-118701.2,0.02,0.00,0.88,-4,0,-2,26,0
'[12:06:01.864 21/01/2026]',-136472.3,-199777.3,-112835,-12961.82,-375000,-375000,-148667,-118774.4,0.02,0.00,0.88,-4,0,-2,26,0
'[12:06:01.868 21/01/2026]',-136454.3,-199756.4,-112784.5,-12908.89,-375000,-375000,-148637.1,-118762.9,0.02,0.00,0.88,-4,0,-2,26,0
'[12:06:01.872 21/01/2026]',-136337.9,-199693.9,-112594.4,-12812.51,-375000,-375000,-148548.8,-118709.8,0.02,0.00,0.88,-4,0,-2,26,0
'[12:06:01.876 21/01/2026]',-136351.5,-199687.4,-112610,-12823.33,-375000,-375000,-148557.8,-118702.3,0.02,0.00,0.88,-4,0,-2,26,0
'[12:06:01.880 21/01/2026]',-136459.6,-199756.9,-112794.7,-12935.31,-375000,-375000,-148643.2,-118755.4,0.02,0.00,0.88,-4,0,-2,26,0
'[12:06:01.884 21/01/2026]',-136446.9,-199752.9,-112792.4,-12925.79,-375000,-375000,-148646.7,-118774.5,0.02,0.00,0.88,-4,0,-2,26,0
'[12:06:01.888 21/01/2026]',-136340.2,-199674.9,-112613.7,-12815.64,-375000,-375000,-148554.9,-118712.5,0.02,0.00,0.88,-4,0,-2,26,0
'[12:06:01.892 21/01/2026]',-136334.6,-199662.8,-112603.7,-12805.63,-375000,-375000,-148533.9,-118677.1,0.02,0.00,0.88,-4,0,-2,26,0
'[12:06:01.896 21/01/2026]',-136440.1,-199740.3,-112779.1,-12910.68,-375000,-375000,-148624.9,-118734.2,0.02,0.00,0.88,-4,0,-2,26,0
'[12:06:01.900 21/01/2026]',-136442.4,-199762.5,-112807.6,-12926.28,-375000,-375000,-148645,-118757.3,0.02,0.00,0.88,-4,0,-2,26,0
'[12:06:01.904 21/01/2026]',-136341.4,-199690.5,-112635.6,-12816.8,-375000,-375000,-148549.9,-118694.8,0.02,0.00,0.88,-4,0,-2,26,0
'[12:06:01.908 21/01/2026]',-136320.7,-199652.8,-112585.7,-12804.46,-375000,-375000,-148527.1,-118665.9,0.02,0.00,0.88,-4,0,-2,26,0
'[12:06:01.912 21/01/2026]',-136408,-199712.1,-112752.7,-12896.38,-375000,-375000,-148627.1,-118724.4,0.02,0.00,0.88,-4,0,-2,26,0
'[12:06:01.916 21/01/2026]',-136469.8,-199759.4,-112831.5,-12931.65,-375000,-375000,-148660.1,-118756.3,0.02,0.00,0.88,-4,0,-2,26,0
'[12:06:01.920 21/01/2026]',-136407.1,-199719.9,-112649.3,-12836.25,-375000,-375000,-148588,-118720.5,0.02,0.00,0.88,-4,0,-2,26,0
'[12:06:01.924 21/01/2026]',-136347.9,-199680.6,-112556.6,-12807.37,-375000,-375000,-148540.1,-118674.5,0.02,0.00,0.88,-4,0,-2,26,0
'[12:06:01.928 21/01/2026]',-136409.5,-199715.5,-112724.5,-12883.77,-375000,-375000,-148608.3,-118711.3,0.02,0.00,0.88,-4,0,-2,26,0
'[12:06:01.932 21/01/2026]',-136463.4,-199749.7,-112851.3,-12953.86,-375000,-375000,-148677.8,-118766.4,0.02,0.00,0.88,-4,0,-2,26,0
'[12:06:01.936 21/01/2026]',-136375.5,-199703.7,-112682.8,-12865.62,-375000,-375000,-148616.7,-118736.8,0.02,0.00,0.88,-4,0,-2,26,0
'[12:06:01.940 21/01/2026]',-136319.1,-199675.3,-112573,-12818.55,-375000,-375000,-148563.1,-118699.7,0.02,0.00,0.88,-4,0,-2,26,0
'[12:06:01.944 21/01/2026]',-136409.1,-199718.8,-112689.1,-12883.1,-375000,-375000,-148626.4,-118734.7,0.03,0.00,0.88,-4,0,-2,26,0
'[12:06:01.948 21/01/2026]',-136498.4,-199772.7,-112843.7,-12954.22,-375000,-375000,-148699,-118780.6,0.03,0.00,0.88,-4,0,-2,26,0
'[12:06:01.952 21/01/2026]',-136432.7,-199743.7,-112734.2,-12896.42,-375000,-375000,-148654.8,-118762.8,0.03,0.00,0.88,-4,0,-2,26,0
'[12:06:01.956 21/01/2026]',-136331.9,-199684,-112576.1,-12831.33,-375000,-375000,-148574.9,-118706.3,0.03,0.00,0.88,-4,0,-2,26,0
'[12:06:01.960 21/01/2026]',-136380.9,-199698.5,-112651.8,-12861.55,-375000,-375000,-148597.8,-118704.4,0.03,0.00,0.88,-4,0,-2,26,0
'[12:06:01.964 21/01/2026]',-136474.1,-199760.2,-112826.3,-12941.7,-375000,-375000,-148688.5,-118760.9,0.03,0.00,0.88,-4,0,-2,26,0
'[12:06:01.968 21/01/2026]',-136440.2,-199747.1,-112752.7,-12900.71,-375000,-375000,-148671,-118760.7,0.03,0.00,0.88,-4,0,-2,26,0
'[12:06:01.972 21/01/2026]',-136344.3,-199685.1,-112585,-12821.45,-375000,-375000,-148574.5,-118693.4,0.03,0.00,0.88,-4,0,-2,26,0
'[12:06:01.976 21/01/2026]',-136349.5,-199679.3,-112624.7,-12833.43,-375000,-375000,-148576.4,-118687.9,0.03,0.00,0.88,-4,0,-2,26,0
'[12:06:01.980 21/01/2026]',-136429.4,-199743.5,-112821.1,-12932.36,-375000,-375000,-148674.3,-118756.2,0.02,0.02,0.88,-4,0,-2,26,0
'[12:06:01.984 21/01/2026]',-136419,-199752.9,-112810.8,-12927.22,-375000,-375000,-148681.4,-118770,0.02,0.02,0.88,-4,0,-2,26,0
'[12:06:01.988 21/01/2026]',-136353.5,-199689.7,-112617.3,-12830.75,-375000,-375000,-148589.7,-118710.9,0.02,0.02,0.88,-4,0,-2,26,0
'[12:06:01.992 21/01/2026]',-136360.9,-199669.1,-112617.4,-12832.63,-375000,-375000,-148586.3,-118703,0.02,0.02,0.88,-4,0,-2,26,0
'[12:06:01.996 21/01/2026]',-136456.7,-199743.9,-112805.2,-12946.62,-375000,-375000,-148685.9,-118770.3,0.02,0.02,0.88,-4,0,-2,26,0
'[12:06:02.000 21/01/2026]',-136469.5,-199765,-112840.2,-12958.07,-375000,-375000,-148695,-118781.5,0.02,0.02,0.88,-4,0,-2,26,0
'[12:06:02.004 21/01/2026]',-136356.2,-199691.7,-112646.4,-12838.8,-375000,-375000,-148585.2,-118709.3,0.02,0.02,0.88,-4,0,-2,26,0
'[12:06:02.008 21/01/2026]',-136319,-199658.7,-112600.8,-12813.45,-375000,-375000,-148558.8,-118680.4,0.02,0.02,0.88,-4,0,-2,26,0
'[12:06:02.012 21/01/2026]',-136417.4,-199713.8,-112782.3,-12910.9,-375000,-375000,-148657.2,-118743,0.02,0.02,0.88,-4,0,-2,26,0
'[12:06:02.016 21/01/2026]',-136457,-199757.4,-112865.2,-12966.29,-375000,-375000,-148697.3,-118784.1,0.02,0.00,0.88,-4,0,-2,26,0
'[12:06:02.020 21/01/2026]',-136389.3,-199706.4,-112693.2,-12870.18,-375000,-375000,-148609.3,-118734.3,0.02,0.00,0.88,-4,0,-2,26,0
'[12:06:02.024 21/01/2026]',-136337,-199669.2,-112597.2,-12829.99,-375000,-375000,-148561.1,-118690.3,0.02,0.00,0.88,-4,0,-2,26,0
'[12:06:02.028 21/01/2026]',-136418.8,-199719.6,-112778.2,-12919.17,-375000,-375000,-148643.3,-118749.6,0.02,0.00,0.88,-4,0,-2,26,0
'[12:06:02.032 21/01/2026]',-136485.5,-199756.1,-112906.3,-12979.39,-375000,-375000,-148693.1,-118788.7,0.02,0.00,0.88,-4,0,-2,26,0
'[12:06:02.036 21/01/2026]',-136404.1,-199694.7,-112748.4,-12885.87,-375000,-375000,-148607.9,-118735.8,0.02,0.00,0.88,-4,0,-2,26,0
'[12:06:02.040 21/01/2026]',-136338.9,-199643.3,-112619.5,-12826.5,-375000,-375000,-148544.3,-118698,0.02,0.00,0.88,-4,0,-2,26,0
'[12:06:02.044 21/01/2026]',-136395.9,-199668.9,-112746.2,-12880.82,-375000,-375000,-148591.8,-118722,0.02,0.00,0.88,-4,0,-2,26,0
'[12:06:02.048 21/01/2026]',-136470.8,-199717.1,-112895.5,-12956.19,-375000,-375000,-148657,-118767.4,0.02,0.00,0.88,-4,0,-2,26,0
'[12:06:02.052 21/01/2026]',-136413.9,-199678.5,-112791.9,-12888.1,-375000,-375000,-148602.3,-118744.8,0.02,0.00,0.89,-4,0,-2,26,0
'[12:06:02.056 21/01/2026]',-136318,-199618.4,-112619,-12813.54,-375000,-375000,-148518.5,-118694.5,0.02,0.00,0.89,-4,0,-2,26,0
'[12:06:02.060 21/01/2026]',-136364.5,-199631.5,-112723.1,-12861.91,-375000,-375000,-148555.9,-118711.4,0.02,0.00,0.89,-4,0,-2,26,0
'[12:06:02.064 21/01/2026]',-136480.4,-199687.4,-112900.4,-12952.7,-375000,-375000,-148635.5,-118773.2,0.02,0.00,0.89,-4,0,-2,26,0
'[12:06:02.068 21/01/2026]',-136440.6,-199669.3,-112825,-12918.91,-375000,-375000,-148619,-118779.7,0.02,0.00,0.89,-4,0,-2,26,0
'[12:06:02.072 21/01/2026]',-136333.4,-199573.1,-112619.8,-12819.89,-375000,-375000,-148523.1,-118710,0.02,0.00,0.89,-4,0,-2,26,0
'[12:06:02.076 21/01/2026]',-136363.8,-199580.5,-112650.5,-12849.17,-375000,-375000,-148519.8,-118695,0.02,0.00,0.89,-4,0,-2,26,0
'[12:06:02.080 21/01/2026]',-136461.3,-199660.6,-112828.6,-12933.52,-375000,-375000,-148606.6,-118753,0.02,0.00,0.89,-4,0,-2,26,0
'[12:06:02.084 21/01/2026]',-136449.9,-199654.6,-112803.5,-12932.05,-375000,-375000,-148597.6,-118761.5,0.02,0.00,0.89,-4,0,-2,26,0
'[12:06:02.088 21/01/2026]',-136341.6,-199583.1,-112598,-12827.08,-375000,-375000,-148504.7,-118699.7,0.02,0.02,0.88,-4,0,-2,26,0
'[12:06:02.092 21/01/2026]',-136348.8,-199578.1,-112607.5,-12845.59,-375000,-375000,-148516.4,-118707.7,0.02,0.02,0.88,-4,0,-2,26,0
'[12:06:02.096 21/01/2026]',-136433.2,-199632,-112780.7,-12941.17,-375000,-375000,-148607,-118769.8,0.02,0.02,0.88,-4,0,-2,26,0
'[12:06:02.100 21/01/2026]',-136447.6,-199646.5,-112805.8,-12938.4,-375000,-375000,-148616.6,-118780.2,0.02,0.02,0.88,-4,0,-2,26,0
'[12:06:02.104 21/01/2026]',-136344.3,-199579.2,-112601.6,-12844.29,-375000,-375000,-148523.6,-118722.1,0.02,0.02,0.88,-4,0,-2,26,0
'[12:06:02.108 21/01/2026]',-136339.3,-199543.5,-112518.9,-12814.79,-375000,-375000,-148479.8,-118675.8,0.02,0.02,0.88,-4,0,-2,26,0
'[12:06:02.112 21/01/2026]',-136437.8,-199600.1,-112712.8,-12900.58,-375000,-375000,-148572.5,-118734.6,0.02,0.02,0.88,-4,0,-2,26,0
'[12:06:02.116 21/01/2026]',-136466.9,-199627.5,-112797.9,-12943.63,-375000,-375000,-148613.7,-118771.8,0.02,0.02,0.88,-4,0,-2,26,0
'[12:06:02.120 21/01/2026]',-136368,-199554.1,-112616.2,-12847.16,-375000,-375000,-148529.5,-118710.5,0.02,0.02,0.88,-4,0,-2,26,0
'[12:06:02.124 21/01/2026]',-136319.8,-199527.8,-112517.1,-12806.97,-375000,-375000,-148497.7,-118679.4,0.02,0.00,0.88,-4,0,-2,26,0
'[12:06:02.128 21/01/2026]',-136414.4,-199596.7,-112661.2,-12891.68,-375000,-375000,-148579.7,-118725.9,0.02,0.00,0.88,-4,0,-2,26,0
'[12:06:02.132 21/01/2026]',-136479.3,-199659.6,-112792.3,-12957.17,-375000,-375000,-148635.7,-118768.8,0.02,0.00,0.88,-4,0,-2,26,0
'[12:06:02.136 21/01/2026]',-136425.2,-199616.5,-112649.7,-12869.06,-375000,-375000,-148574.7,-118731.5,0.02,0.00,0.88,-4,0,-2,26,0
'[12:06:02.140 21/01/2026]',-136362.7,-199584.5,-112516.4,-12820.16,-375000,-375000,-148524.9,-118690.3,0.02,0.00,0.88,-4,0,-2,26,0
'[12:06:02.144 21/01/2026]',-136408.5,-199629,-112626,-12884.89,-375000,-375000,-148584.7,-118718.9,0.02,0.00,0.88,-4,0,-2,26,0
'[12:06:02.148 21/01/2026]',-136500.7,-199695.6,-112791.5,-12977.06,-375000,-375000,-148672.9,-118781.3,0.02,0.00,0.88,-4,0,-2,26,0
'[12:06:02.152 21/01/2026]',-136434.8,-199668.8,-112670.8,-12921.95,-375000,-375000,-148627.4,-118760.3,0.02,0.00,0.88,-4,0,-2,26,0
'[12:06:02.156 21/01/2026]',-136352.2,-199610.3,-112506.3,-12827.62,-375000,-375000,-148544.1,-118693.9,0.02,0.00,0.88,-4,0,-2,26,0
'[12:06:02.160 21/01/2026]',-136406.1,-199628.9,-112596.6,-12866.69,-375000,-375000,-148589.5,-118715.2,0.02,0.00,0.88,-4,0,-2,26,0
'[12:06:02.164 21/01/2026]',-136498.2,-199707.2,-112786,-12966.07,-375000,-375000,-148690.8,-118780.4,0.02,0.00,0.88,-4,0,-2,26,0
'[12:06:02.168 21/01/2026]',-136459.8,-199693.2,-112708.4,-12915.2,-375000,-375000,-148652.3,-118761.2,0.02,0.00,0.88,-4,0,-2,26,0
'[12:06:02.172 21/01/2026]',-136353.2,-199621.9,-112518.9,-12820.11,-375000,-375000,-148558.4,-118697.4,0.02,0.00,0.88,-4,0,-2,26,0
'[12:06:02.176 21/01/2026]',-136392,-199635.2,-112584.8,-12855.11,-375000,-375000,-148592.3,-118712.3,0.02,0.00,0.88,-4,0,-2,26,0
'[12:06:02.180 21/01/2026]',-136497,-199707,-112771,-12952.92,-375000,-375000,-148680.5,-118766.6,0.02,0.00,0.88,-4,0,-2,26,0
'[12:06:02.184 21/01/2026]',-136479.9,-199718.6,-112755.2,-12936.74,-375000,-375000,-148669.9,-118768.3,0.02,0.00,0.88,-4,0,-2,26,0
'[12:06:02.188 21/01/2026]',-136378.1,-199656.3,-112552.5,-12829.86,-375000,-375000,-148583.8,-118709.6,0.02,0.00,0.88,-4,0,-2,26,0
'[12:06:02.192 21/01/2026]',-136358.8,-199664.3,-112554.8,-12842.1,-375000,-375000,-148586,-118699.6,0.02,0.00,0.88,-4,0,-2,26,0
'[12:06:02.196 21/01/2026]',-136474.3,-199730.3,-112752.5,-12944.39,-375000,-375000,-148681.4,-118763.5,0.03,0.00,0.88,-4,0,-2,26,0
'[12:06:02.200 21/01/2026]',-136499.2,-199726.6,-112773.8,-12942.33,-375000,-375000,-148695,-118778.8,0.03,0.00,0.88,-4,0,-2,26,0
'[12:06:02.204 21/01/2026]',-136398.1,-199676.6,-112571.1,-12842.78,-375000,-375000,-148610.8,-118724.3,0.03,0.00,0.88,-4,0,-2,26,0
'[12:06:02.208 21/01/2026]',-136348.4,-199665.3,-112527.5,-12820.02,-375000,-375000,-148586.8,-118691.3,0.03,0.00,0.88,-4,0,-2,26,0
'[12:06:02.212 21/01/2026]',-136462.8,-199737.9,-112700.4,-12913.81,-375000,-375000,-148687,-118757.2,0.03,0.00,0.88,-4,0,-2,26,0
'[12:06:02.216 21/01/2026]',-136505.9,-199777.8,-112777.5,-12955.92,-375000,-375000,-148719.4,-118790.9,0.03,0.00,0.88,-4,0,-2,26,0
'[12:06:02.220 21/01/2026]',-136410.8,-199719.9,-112645.5,-12874.25,-375000,-375000,-148632.3,-118745.4,0.03,0.00,0.88,-4,0,-2,26,0
'[12:06:02.224 21/01/2026]',-136350.2,-199679.1,-112568.4,-12834.01,-375000,-375000,-148588.2,-118706,0.03,0.00,0.88,-4,0,-2,26,0
'[12:06:02.228 21/01/2026]',-136458.4,-199742,-112723.9,-12904.38,-375000,-375000,-148675.5,-118755.8,0.03,0.00,0.88,-4,0,-2,26,0
'[12:06:02.232 21/01/2026]',-136515.2,-199787.8,-112848.5,-12981.31,-375000,-375000,-148747.8,-118815.7,0.03,0.00,0.88,-4,0,-2,26,0
'[12:06:02.236 21/01/2026]',-136428.8,-199738.5,-112692,-12906.92,-375000,-375000,-148682.8,-118781.5,0.03,0.00,0.88,-4,0,-2,26,0
'[12:06:02.240 21/01/2026]',-136348.5,-199692.8,-112561.4,-12828.16,-375000,-375000,-148601.6,-118712.4,0.03,0.00,0.88,-4,0,-2,26,0
'[12:06:02.244 21/01/2026]',-136425.5,-199727.4,-112683.9,-12872.95,-375000,-375000,-148641.2,-118716.4,0.03,0.00,0.88,-4,0,-2,26,0
'[12:06:02.248 21/01/2026]',-136517.6,-199779.6,-112849.7,-12956.9,-375000,-375000,-148722.3,-118782.2,0.03,0.00,0.88,-4,0,-2,26,0
'[12:06:02.252 21/01/2026]',-136457,-199745.9,-112735.2,-12895.17,-375000,-375000,-148673.1,-118769.1,0.03,0.00,0.88,-4,0,-2,26,0
'[12:06:02.256 21/01/2026]',-136366.5,-199689.5,-112568.1,-12816,-375000,-375000,-148596.9,-118714.2,0.03,0.00,0.88,-4,0,-2,26,0
'[12:06:02.260 21/01/2026]',-136408.8,-199723,-112669,-12858.65,-375000,-375000,-148638.3,-118726.3,0.03,0.00,0.88,-4,0,-2,26,0
'[12:06:02.264 21/01/2026]',-136491.5,-199798.8,-112836.3,-12955.29,-375000,-375000,-148719.1,-118778.8,0.03,0.00,0.88,-4,0,-2,26,0
'[12:06:02.268 21/01/2026]',-136460.3,-199773.4,-112785.7,-12925.7,-375000,-375000,-148688.6,-118771,0.02,0.00,0.88,-4,0,-2,26,0
'[12:06:02.272 21/01/2026]',-136383.4,-199716.7,-112610.1,-12845.73,-375000,-375000,-148618.7,-118727.1,0.02,0.00,0.88,-4,0,-2,26,0
'[12:06:02.276 21/01/2026]',-136408.7,-199731.5,-112658.7,-12865.4,-375000,-375000,-148625.5,-118724.7,0.02,0.00,0.88,-4,0,-2,26,0
'[12:06:02.280 21/01/2026]',-136507.5,-199793.1,-112840.9,-12956.86,-375000,-375000,-148718,-118787.4,0.02,0.00,0.88,-4,0,-2,26,0
'[12:06:02.284 21/01/2026]',-136498.9,-199768.5,-112811.9,-12935.09,-375000,-375000,-148714.2,-118796.7,0.02,0.00,0.88,-4,0,-2,26,0
'[12:06:02.288 21/01/2026]',-136401.4,-199714.7,-112608.4,-12846.98,-375000,-375000,-148614.9,-118732.8,0.02,0.00,0.88,-4,0,-2,26,0
'[12:06:02.292 21/01/2026]',-136382.3,-199719.2,-112600.9,-12847.38,-375000,-375000,-148604,-118712.8,0.02,0.00,0.88,-4,0,-2,26,0
'[12:06:02.296 21/01/2026]',-136474.9,-199782.2,-112805.4,-12945.55,-375000,-375000,-148704.2,-118776.8,0.02,0.00,0.88,-4,0,-2,26,0
'[12:06:02.300 21/01/2026]',-136492.7,-199802.3,-112843.8,-12960.12,-375000,-375000,-148720.6,-118800.5,0.02,0.00,0.88,-4,0,-2,26,0
'[12:06:02.304 21/01/2026]',-136399.7,-199735.2,-112645.4,-12857.44,-375000,-375000,-148639.9,-118759.3,0.03,0.00,0.86,-4,0,-2,26,0
'[12:06:02.308 21/01/2026]',-136399.6,-199723.5,-112587.7,-12844.83,-375000,-375000,-148620.5,-118732.6,0.03,0.00,0.86,-4,0,-2,26,0
'[12:06:02.312 21/01/2026]',-136471,-199788.1,-112769,-12936.61,-375000,-375000,-148690.1,-118768.1,0.03,0.00,0.86,-4,0,-2,26,0
'[12:06:02.316 21/01/2026]',-136499.2,-199813.2,-112849.4,-12969.82,-375000,-375000,-148721.6,-118797.5,0.03,0.00,0.86,-4,0,-2,26,0
'[12:06:02.320 21/01/2026]',-136418.2,-199757.8,-112666.4,-12881.13,-375000,-375000,-148644.8,-118756.3,0.03,0.00,0.86,-4,0,-2,26,0
'[12:06:02.324 21/01/2026]',-136366.2,-199716.5,-112583.9,-12837.46,-375000,-375000,-148596.7,-118714.4,0.03,0.00,0.86,-4,0,-2,26,0
'[12:06:02.328 21/01/2026]',-136453.9,-199766.7,-112739.2,-12902.23,-375000,-375000,-148677.4,-118755.7,0.03,0.00,0.86,-4,0,-2,26,0
'[12:06:02.332 21/01/2026]',-136520.2,-199814.6,-112847.8,-12976.62,-375000,-375000,-148740.4,-118805.3,0.03,0.00,0.86,-4,0,-2,26,0
'[12:06:02.336 21/01/2026]',-136442.8,-199766.7,-112697.8,-12878.4,-375000,-375000,-148659.6,-118756,0.03,0.00,0.86,-4,0,-2,26,0
'[12:06:02.340 21/01/2026]',-136366.7,-199709.8,-112570.5,-12811.8,-375000,-375000,-148582,-118698.3,0.02,0.00,0.86,-4,0,-2,26,0
'[12:06:02.344 21/01/2026]',-136421.5,-199743.5,-112682.7,-12875.54,-375000,-375000,-148642.6,-118729.6,0.02,0.00,0.86,-4,0,-2,26,0
'[12:06:02.348 21/01/2026]',-136484,-199805.8,-112830.8,-12956.14,-375000,-375000,-148715.9,-118783.7,0.02,0.00,0.86,-4,0,-2,26,0
'[12:06:02.352 21/01/2026]',-136456.6,-199787.2,-112731.5,-12897.67,-375000,-375000,-148677.4,-118773.7,0.02,0.00,0.86,-4,0,-2,26,0
'[12:06:02.356 21/01/2026]',-136364,-199730,-112588.8,-12826.95,-375000,-375000,-148609.7,-118732.9,0.02,0.00,0.86,-4,0,-2,26,0
'[12:06:02.360 21/01/2026]',-136424.9,-199757.3,-112676.8,-12880.91,-375000,-375000,-148654.4,-118756,0.02,0.00,0.86,-4,0,-2,26,0
'[12:06:02.364 21/01/2026]',-136513.2,-199821.6,-112833.9,-12958.83,-375000,-375000,-148722.5,-118792.5,0.02,0.00,0.86,-4,0,-2,26,0
'[12:06:02.368 21/01/2026]',-136474.2,-199800.6,-112758.7,-12902.99,-375000,-375000,-148674.2,-118766.5,0.02,0.00,0.86,-4,0,-2,26,0
'[12:06:02.372 21/01/2026]',-136366.7,-199735.9,-112594,-12816.8,-375000,-375000,-148600.2,-118726.3,0.02,0.00,0.86,-4,0,-2,26,0
'[12:06:02.376 21/01/2026]',-136399.2,-199745.5,-112621.9,-12844.03,-375000,-375000,-148618.6,-118726.5,0.02,0.00,0.88,-4,0,-2,26,0
'[12:06:02.380 21/01/2026]',-136499.6,-199804,-112793.5,-12939.25,-375000,-375000,-148687.1,-118761.7,0.02,0.00,0.88,-4,0,-2,26,0
'[12:06:02.384 21/01/2026]',-136465,-199804.3,-112778.7,-12924.45,-375000,-375000,-148685.9,-118774.5,0.02,0.00,0.88,-4,0,-2,26,0
'[12:06:02.388 21/01/2026]',-136358.9,-199754.8,-112605.2,-12831.06,-375000,-375000,-148601.1,-118728.6,0.02,0.00,0.88,-4,0,-2,26,0
'[12:06:02.392 21/01/2026]',-136389.3,-199744.8,-112606.3,-12830.08,-375000,-375000,-148589.2,-118701.5,0.02,0.00,0.88,-4,0,-2,26,0
'[12:06:02.396 21/01/2026]',-136481.8,-199811,-112796.2,-12939.96,-375000,-375000,-148695.9,-118777.8,0.02,0.00,0.88,-4,0,-2,26,0
'[12:06:02.400 21/01/2026]',-136508,-199831.3,-112810.3,-12941.35,-375000,-375000,-148717.4,-118806.5,0.02,0.00,0.88,-4,0,-2,26,0
'[12:06:02.404 21/01/2026]',-136399.8,-199754,-112614.8,-12836.34,-375000,-375000,-148599.7,-118716.6,0.02,0.00,0.88,-4,0,-2,26,0
'[12:06:02.408 21/01/2026]',-136355.2,-199718.7,-112559.4,-12815.33,-375000,-375000,-148570.9,-118683.6,0.02,0.00,0.88,-4,0,-2,26,0
'[12:06:02.412 21/01/2026]',-136454.7,-199782.3,-112733.8,-12907.73,-375000,-375000,-148671.5,-118750.5,0.03,0.00,0.89,-4,0,-2,26,0
'[12:06:02.416 21/01/2026]',-136515.8,-199818.7,-112820.7,-12968.08,-375000,-375000,-148734.4,-118812.6,0.03,0.00,0.89,-4,0,-2,26,0
'[12:06:02.420 21/01/2026]',-136424.7,-199749.3,-112647.5,-12868.61,-375000,-375000,-148658.2,-118767.3,0.03,0.00,0.89,-4,0,-2,26,0
'[12:06:02.424 21/01/2026]',-136371.2,-199727,-112562.7,-12828.16,-375000,-375000,-148599.3,-118717.8,0.03,0.00,0.89,-4,0,-2,26,0
'[12:06:02.428 21/01/2026]',-136447.4,-199801.1,-112688.2,-12894.5,-375000,-375000,-148661.5,-118758.3,0.03,0.00,0.89,-4,0,-2,26,0
'[12:06:02.432 21/01/2026]',-136507.3,-199854.2,-112816.1,-12961.82,-375000,-375000,-148723.5,-118807.8,0.03,0.00,0.89,-4,0,-2,26,0
'[12:06:02.436 21/01/2026]',-136416.2,-199793.1,-112679.7,-12871.16,-375000,-375000,-148651.7,-118764,0.03,0.00,0.89,-4,0,-2,26,0
'[12:06:02.440 21/01/2026]',-136358.2,-199742.8,-112550.5,-12812.24,-375000,-375000,-148586.4,-118716.9,0.03,0.00,0.89,-4,0,-2,26,0
'[12:06:02.444 21/01/2026]',-136416.4,-199770.5,-112669.1,-12871.07,-375000,-375000,-148640.9,-118744.3,0.03,0.00,0.89,-4,0,-2,26,0
'[12:06:02.448 21/01/2026]',-136502.6,-199837,-112818.7,-12960.3,-375000,-375000,-148717.3,-118797.5,0.02,-0.02,0.88,-4,0,-2,26,0
'[12:06:02.452 21/01/2026]',-136455.3,-199809.4,-112718.5,-12892.58,-375000,-375000,-148664.4,-118771.7,0.02,-0.02,0.88,-4,0,-2,26,0
'[12:06:02.456 21/01/2026]',-136361.8,-199740.9,-112563.3,-12816.45,-375000,-375000,-148584.9,-118721.1,0.02,-0.02,0.88,-4,0,-2,26,0
'[12:06:02.460 21/01/2026]',-136398.5,-199757.4,-112635.1,-12862.04,-375000,-375000,-148633.1,-118742.7,0.02,-0.02,0.88,-4,0,-2,26,0
'[12:06:02.464 21/01/2026]',-136492.4,-199824.2,-112803.9,-12945.64,-375000,-375000,-148713.6,-118796.9,0.02,-0.02,0.88,-4,0,-2,26,0
'[12:06:02.468 21/01/2026]',-136464.3,-199801.3,-112747.2,-12900.8,-375000,-375000,-148675.9,-118778.4,0.02,-0.02,0.88,-4,0,-2,26,0
'[12:06:02.472 21/01/2026]',-136364.1,-199740.4,-112563.1,-12815.82,-375000,-375000,-148603.6,-118725.4,0.02,-0.02,0.88,-4,0,-2,26,0
'[12:06:02.476 21/01/2026]',-136370.7,-199747.3,-112610.5,-12834.64,-375000,-375000,-148608.3,-118715.2,0.02,-0.02,0.88,-4,0,-2,26,0
'[12:06:02.480 21/01/2026]',-136494.6,-199821,-112801.1,-12930.04,-375000,-375000,-148692.3,-118771.8,0.02,-0.02,0.88,-4,0,-2,26,0
'[12:06:02.484 21/01/2026]',-136482.5,-199815,-112769,-12910.99,-375000,-375000,-148689.1,-118785.2,0.02,0.00,0.88,-4,0,-2,26,0
'[12:06:02.488 21/01/2026]',-136361.4,-199742.5,-112582.9,-12818.32,-375000,-375000,-148598.6,-118726.1,0.02,0.00,0.88,-4,0,-2,26,0
'[12:06:02.492 21/01/2026]',-136379.4,-199730.3,-112581.6,-12816.36,-375000,-375000,-148591.4,-118707.1,0.02,0.00,0.88,-4,0,-2,26,0
'[12:06:02.496 21/01/2026]',-136481.4,-199803.1,-112761.8,-12907.1,-375000,-375000,-148688.2,-118773.5,0.02,0.00,0.88,-4,0,-2,26,0
'[12:06:02.500 21/01/2026]',-136483.6,-199819,-112792.7,-12923.42,-375000,-375000,-148712.2,-118802.2,0.02,0.00,0.88,-4,0,-2,26,0
'[12:06:02.504 21/01/2026]',-136379.8,-199731.3,-112592.8,-12813.41,-375000,-375000,-148608.7,-118732.7,0.02,0.00,0.88,-4,0,-2,26,0
'[12:06:02.508 21/01/2026]',-136351.7,-199717.9,-112565.9,-12793.38,-375000,-375000,-148583.1,-118702.7,0.02,0.00,0.88,-4,0,-2,26,0
'[12:06:02.512 21/01/2026]',-136446,-199792.9,-112741.7,-12890.7,-375000,-375000,-148680.9,-118764.3,0.02,0.00,0.88,-4,0,-2,26,0
'[12:06:02.516 21/01/2026]',-136486.9,-199823,-112803.6,-12932.67,-375000,-375000,-148721.4,-118803.5,0.02,0.00,0.88,-4,0,-2,26,0
'[12:06:02.520 21/01/2026]',-136411,-199753.2,-112625.7,-12825.16,-375000,-375000,-148630,-118751.2,0.03,-0.02,0.88,-4,0,-2,26,0
'[12:06:02.524 21/01/2026]',-136349.6,-199708.6,-112537,-12771.83,-375000,-375000,-148576.4,-118711.7,0.03,-0.02,0.88,-4,0,-2,26,0
'[12:06:02.528 21/01/2026]',-136432.9,-199763.4,-112688.3,-12859.41,-375000,-375000,-148661.1,-118763.6,0.03,-0.02,0.88,-4,0,-2,26,0
'[12:06:02.532 21/01/2026]',-136500.8,-199829.1,-112815.6,-12946.93,-375000,-375000,-148736.1,-118827.9,0.03,-0.02,0.88,-4,0,-2,26,0
'[12:06:02.536 21/01/2026]',-136425.5,-199771.3,-112669,-12856.9,-375000,-375000,-148653.3,-118779.7,0.03,-0.02,0.88,-4,0,-2,26,0
'[12:06:02.540 21/01/2026]',-136343.5,-199704.3,-112537.2,-12786.05,-375000,-375000,-148567.4,-118714,0.03,-0.02,0.88,-4,0,-2,26,0
'[12:06:02.544 21/01/2026]',-136414.8,-199749.1,-112665.5,-12856.14,-375000,-375000,-148634.8,-118752,0.03,-0.02,0.88,-4,0,-2,26,0
'[12:06:02.548 21/01/2026]',-136492.1,-199805.8,-112812.6,-12924.81,-375000,-375000,-148693.3,-118788,0.03,-0.02,0.88,-4,0,-2,26,0
'[12:06:02.552 21/01/2026]',-136437.8,-199772.8,-112690.6,-12860.25,-375000,-375000,-148652.5,-118782.2,0.03,-0.02,0.88,-4,0,-2,26,0
'[12:06:02.556 21/01/2026]',-136346.1,-199708,-112532.2,-12789.09,-375000,-375000,-148573.7,-118718.4,0.02,0.00,0.88,-4,0,-2,26,0
'[12:06:02.560 21/01/2026]',-136370.3,-199731.4,-112631.2,-12844.07,-375000,-375000,-148608.9,-118732.6,0.02,0.00,0.88,-4,0,-2,26,0
'[12:06:02.564 21/01/2026]',-136464.5,-199801.1,-112775.1,-12937.41,-375000,-375000,-148703.5,-118805,0.02,0.00,0.88,-4,0,-2,26,0
'[12:06:02.568 21/01/2026]',-136433.1,-199771.7,-112708.7,-12880.33,-375000,-375000,-148664.7,-118783.9,0.02,0.00,0.88,-4,0,-2,26,0
'[12:06:02.572 21/01/2026]',-136363,-199704.6,-112547.2,-12787.7,-375000,-375000,-148565.7,-118715.1,0.02,0.00,0.88,-4,0,-2,26,0
'[12:06:02.576 21/01/2026]',-136390.4,-199713.8,-112613.4,-12818.37,-375000,-375000,-148600.9,-118729.7,0.02,0.00,0.88,-4,0,-2,26,0
'[12:06:02.580 21/01/2026]',-136470,-199788.8,-112795,-12916.09,-375000,-375000,-148687.3,-118785.6,0.02,0.00,0.88,-4,0,-2,26,0
'[12:06:02.584 21/01/2026]',-136438.9,-199773.2,-112749.6,-12881.8,-375000,-375000,-148660.2,-118767.5,0.02,0.00,0.88,-4,0,-2,26,0
'[12:06:02.588 21/01/2026]',-136336.7,-199705,-112552.3,-12794.63,-375000,-375000,-148584.5,-118727.5,0.02,0.00,0.88,-4,0,-2,26,0
'[12:06:02.592 21/01/2026]',-136348.8,-199714.2,-112571.1,-12805,-375000,-375000,-148594,-118725.7,0.03,0.00,0.88,-4,0,-2,26,0
'[12:06:02.596 21/01/2026]',-136476.3,-199790.8,-112767.4,-12913.45,-375000,-375000,-148702.7,-118798.5,0.03,0.00,0.88,-4,0,-2,26,0
'[12:06:02.600 21/01/2026]',-136502.1,-199785.7,-112775.4,-12929.99,-375000,-375000,-148717.5,-118816,0.03,0.00,0.88,-4,0,-2,26,0
'[12:06:02.604 21/01/2026]',-136398.6,-199735.9,-112596.9,-12816.76,-375000,-375000,-148603.9,-118735.1,0.03,0.00,0.88,-4,0,-2,26,0
'[12:06:02.608 21/01/2026]',-136367.6,-199718.2,-112554.8,-12794.5,-375000,-375000,-148577.8,-118705.4,0.03,0.00,0.88,-4,0,-2,26,0
'[12:06:02.612 21/01/2026]',-136464.6,-199790.7,-112742,-12886.76,-375000,-375000,-148676.1,-118768.1,0.03,0.00,0.88,-4,0,-2,26,0
'[12:06:02.616 21/01/2026]',-136485.4,-199832.5,-112805.2,-12930.98,-375000,-375000,-148725.8,-118814.4,0.03,0.00,0.88,-4,0,-2,26,0
'[12:06:02.620 21/01/2026]',-136385,-199758.3,-112625.8,-12831.55,-375000,-375000,-148638,-118756.5,0.03,0.00,0.88,-4,0,-2,26,0
'[12:06:02.624 21/01/2026]',-136353.6,-199711.9,-112546.4,-12800.62,-375000,-375000,-148590.5,-118711.5,0.03,0.00,0.88,-4,0,-2,26,0
'[12:06:02.628 21/01/2026]',-136427.3,-199764.5,-112708.6,-12885.87,-375000,-375000,-148667.3,-118758.3,0.05,0.00,0.88,-4,0,-2,26,0
'[12:06:02.632 21/01/2026]',-136503.4,-199814.3,-112815.3,-12944.03,-375000,-375000,-148722.7,-118802.1,0.05,0.00,0.88,-4,0,-2,26,0
'[12:06:02.636 21/01/2026]',-136433.4,-199770.9,-112632.9,-12853.95,-375000,-375000,-148657,-118767.1,0.05,0.00,0.88,-4,0,-2,26,0
'[12:06:02.640 21/01/2026]',-136359.1,-199717.8,-112514.3,-12799.55,-375000,-375000,-148591.6,-118716.1,0.05,0.00,0.88,-4,0,-2,26,0
'[12:06:02.644 21/01/2026]',-136411.2,-199759.7,-112660.3,-12870.89,-375000,-375000,-148648.4,-118753.4,0.05,0.00,0.88,-4,0,-2,26,0
'[12:06:02.648 21/01/2026]',-136480.6,-199816.3,-112815.1,-12943.49,-375000,-375000,-148718.3,-118807.7,0.05,0.00,0.88,-4,0,-2,26,0
'[12:06:02.652 21/01/2026]',-136436,-199785.9,-112700.6,-12877.6,-375000,-375000,-148665.3,-118777.6,0.05,0.00,0.88,-4,0,-2,26,0
'[12:06:02.656 21/01/2026]',-136363.4,-199716.1,-112538.8,-12799.95,-375000,-375000,-148584.3,-118723.6,0.05,0.00,0.88,-4,0,-2,26,0
'[12:06:02.660 21/01/2026]',-136405.4,-199735.9,-112624.3,-12845.28,-375000,-375000,-148639.2,-118748.2,0.05,0.00,0.88,-4,0,-2,26,0
'[12:06:02.664 21/01/2026]',-136466.7,-199814,-112822.6,-12954.27,-375000,-375000,-148733.3,-118819.9,0.03,0.00,0.88,-4,0,-2,26,0
'[12:06:02.668 21/01/2026]',-136442.8,-199795.4,-112736.8,-12894.72,-375000,-375000,-148678.6,-118787,0.03,0.00,0.88,-4,0,-2,26,0
'[12:06:02.672 21/01/2026]',-136379.9,-199721.1,-112536.9,-12801.2,-375000,-375000,-148582.8,-118716.5,0.03,0.00,0.88,-4,0,-2,26,0
'[12:06:02.676 21/01/2026]',-136388.5,-199736.2,-112595.2,-12835.53,-375000,-375000,-148619.4,-118734.4,0.03,0.00,0.88,-4,0,-2,26,0
'[12:06:02.680 21/01/2026]',-136469.5,-199801.8,-112805.1,-12936.56,-375000,-375000,-148711.8,-118798.4,0.03,0.00,0.88,-4,0,-2,26,0
'[12:06:02.684 21/01/2026]',-136455.1,-199792.9,-112763.3,-12908.4,-375000,-375000,-148684.9,-118788.5,0.03,0.00,0.88,-4,0,-2,26,0
'[12:06:02.688 21/01/2026]',-136371.6,-199714.7,-112557.8,-12802.99,-375000,-375000,-148579.3,-118719.6,0.03,0.00,0.88,-4,0,-2,26,0
'[12:06:02.692 21/01/2026]',-136367.9,-199698.2,-112569.1,-12810.72,-375000,-375000,-148577.4,-118708.2,0.03,0.00,0.88,-4,0,-2,26,0
'[12:06:02.696 21/01/2026]',-136462.7,-199779.8,-112772.5,-12908.45,-375000,-375000,-148671.7,-118769.4,0.03,0.00,0.88,-4,0,-2,26,0
'[12:06:02.700 21/01/2026]',-136481.6,-199797.6,-112791.1,-12924.09,-375000,-375000,-148692.7,-118803.5,0.02,0.00,0.88,-4,0,-2,26,0
'[12:06:02.704 21/01/2026]',-136388.7,-199729,-112582.2,-12820.87,-375000,-375000,-148616.2,-118768.1,0.02,0.00,0.88,-4,0,-2,26,0
'[12:06:02.708 21/01/2026]',-136351.8,-199697.5,-112554.9,-12804.82,-375000,-375000,-148584.4,-118728.6,0.02,0.00,0.88,-4,0,-2,26,0
'[12:06:02.712 21/01/2026]',-136450,-199744.7,-112730.4,-12896.87,-375000,-375000,-148655.1,-118767.4,0.02,0.00,0.88,-4,0,-2,26,0
'[12:06:02.716 21/01/2026]',-136476.4,-199779.1,-112803.1,-12934.28,-375000,-375000,-148688.4,-118799.6,0.02,0.00,0.88,-4,0,-2,26,0
'[12:06:02.720 21/01/2026]',-136393,-199727.1,-112629.9,-12832.63,-375000,-375000,-148604.4,-118749.8,0.02,0.00,0.88,-4,0,-2,26,0
'[12:06:02.724 21/01/2026]',-136345.6,-199692.5,-112543.7,-12789.8,-375000,-375000,-148565.9,-118718.2,0.02,0.00,0.88,-4,0,-2,26,0
'[12:06:02.728 21/01/2026]',-136427.8,-199746.9,-112695.7,-12873.08,-375000,-375000,-148645.4,-118767.1,0.02,0.00,0.88,-4,0,-2,26,0
'[12:06:02.732 21/01/2026]',-136507,-199802.1,-112815.5,-12938.66,-375000,-375000,-148708.3,-118817.4,0.02,0.00,0.88,-4,0,-2,26,0
'[12:06:02.736 21/01/2026]',-136428,-199763.4,-112651.6,-12865.8,-375000,-375000,-148639,-118782.7,0.02,0.00,0.88,-4,0,-2,26,0
'[12:06:02.740 21/01/2026]',-136357.4,-199705.5,-112534.6,-12796.24,-375000,-375000,-148566.4,-118721.5,0.02,0.00,0.88,-4,0,-2,26,0
'[12:06:02.744 21/01/2026]',-136428.9,-199747.8,-112681.8,-12863.12,-375000,-375000,-148638.3,-118762,0.02,0.00,0.88,-4,0,-2,26,0
'[12:06:02.748 21/01/2026]',-136494.8,-199798.8,-112835.7,-12942.82,-375000,-375000,-148713.6,-118820.8,0.02,0.00,0.88,-4,0,-2,26,0
'[12:06:02.752 21/01/2026]',-136433.3,-199758.8,-112717.7,-12879.3,-375000,-375000,-148670.5,-118804.5,0.02,0.00,0.88,-4,0,-2,26,0
'[12:06:02.756 21/01/2026]',-136366.2,-199692.2,-112549.3,-12795.08,-375000,-375000,-148572.3,-118733.6,0.02,0.00,0.88,-4,0,-2,26,0
'[12:06:02.760 21/01/2026]',-136405,-199729.3,-112637.5,-12841.39,-375000,-375000,-148599.4,-118740.4,0.02,0.00,0.88,-4,0,-2,26,0
'[12:06:02.764 21/01/2026]',-136479.9,-199798.3,-112806.6,-12942.87,-375000,-375000,-148695.2,-118810.6,0.02,0.00,0.88,-4,0,-2,26,0
'[12:06:02.768 21/01/2026]',-136433.6,-199771.2,-112736.3,-12903.04,-375000,-375000,-148669.8,-118808.8,0.02,0.00,0.88,-4,0,-2,26,0
'[12:06:02.772 21/01/2026]',-136346.5,-199703.1,-112566.9,-12803.39,-375000,-375000,-148574.3,-118739,0.03,0.00,0.88,-4,0,-2,26,0
'[12:06:02.776 21/01/2026]',-136392,-199719,-112609.4,-12832.58,-375000,-375000,-148610.8,-118751.6,0.03,0.00,0.88,-4,0,-2,26,0
'[12:06:02.780 21/01/2026]',-136475.4,-199788.3,-112809.1,-12937.5,-375000,-375000,-148701.3,-118816,0.03,0.00,0.88,-4,0,-2,26,0
'[12:06:02.784 21/01/2026]',-136491.1,-199774.4,-112780.7,-12902.41,-375000,-375000,-148669.6,-118803.9,0.03,0.00,0.88,-4,0,-2,26,0
'[12:06:02.788 21/01/2026]',-136399.1,-199700.9,-112582,-12803.84,-375000,-375000,-148584.3,-118752.2,0.03,0.00,0.88,-4,0,-2,26,0
'[12:06:02.792 21/01/2026]',-136391.2,-199689.6,-112596.2,-12818.1,-375000,-375000,-148582.2,-118739.7,0.03,0.00,0.88,-4,0,-2,26,0
'[12:06:02.796 21/01/2026]',-136485.4,-199763.3,-112792.5,-12915.28,-375000,-375000,-148663.8,-118788.1,0.03,0.00,0.88,-4,0,-2,26,0
'[12:06:02.800 21/01/2026]',-136493.7,-199773.9,-112812.2,-12926.01,-375000,-375000,-148684.8,-118819.9,0.03,0.00,0.88,-4,0,-2,26,0
'[12:06:02.804 21/01/2026]',-136400.9,-199700.7,-112624.5,-12837.01,-375000,-375000,-148591.8,-118767.7,0.03,0.00,0.88,-4,0,-2,26,0
'[12:06:02.808 21/01/2026]',-136374.3,-199668.2,-112583,-12817.47,-375000,-375000,-148554.2,-118725.8,0.02,0.00,0.89,-4,0,-2,26,0
'[12:06:02.812 21/01/2026]',-136471.3,-199730.8,-112749.9,-12914.26,-375000,-375000,-148654,-118796,0.02,0.00,0.89,-4,0,-2,26,0
'[12:06:02.816 21/01/2026]',-136506.1,-199760.6,-112831.2,-12947.11,-375000,-375000,-148692.8,-118833.4,0.02,0.00,0.89,-4,0,-2,26,0
'[12:06:02.820 21/01/2026]',-136423.8,-199693.3,-112641.6,-12838.53,-375000,-375000,-148602.3,-118772.6,0.02,0.00,0.89,-4,0,-2,26,0
'[12:06:02.824 21/01/2026]',-136369.5,-199654.5,-112560.3,-12808.62,-375000,-375000,-148562.9,-118734,0.02,0.00,0.89,-4,0,-2,26,0
'[12:06:02.828 21/01/2026]',-136453.6,-199714,-112735.6,-12891.32,-375000,-375000,-148616.9,-118759.3,0.02,0.00,0.89,-4,0,-2,26,0
'[12:06:02.832 21/01/2026]',-136499.2,-199759,-112832.8,-12950.47,-375000,-375000,-148664,-118796.2,0.02,0.00,0.89,-4,0,-2,26,0
'[12:06:02.836 21/01/2026]',-136441.5,-199708.8,-112690.8,-12860.43,-375000,-375000,-148601.6,-118764.6,0.02,0.00,0.89,-4,0,-2,26,0
'[12:06:02.840 21/01/2026]',-136386.6,-199670.5,-112589.1,-12817.07,-375000,-375000,-148556.7,-118732.2,0.02,0.00,0.89,-4,0,-2,26,0
'[12:06:02.844 21/01/2026]',-136450.8,-199709.3,-112713.3,-12887.21,-375000,-375000,-148621.7,-118765.6,0.03,0.00,0.88,-4,0,-2,26,0
'[12:06:02.848 21/01/2026]',-136512.1,-199764.7,-112858.1,-12962.76,-375000,-375000,-148694,-118817.4,0.03,0.00,0.88,-4,0,-2,26,0
'[12:06:02.852 21/01/2026]',-136431.5,-199746.2,-112734.5,-12888.28,-375000,-375000,-148647.5,-118797.1,0.03,0.00,0.88,-4,0,-2,26,0
'[12:06:02.856 21/01/2026]',-136351.4,-199693.5,-112584.8,-12820.2,-375000,-375000,-148583.1,-118749.6,0.03,0.00,0.88,-4,0,-2,26,0
'[12:06:02.860 21/01/2026]',-136395.2,-199704.2,-112671.3,-12864.41,-375000,-375000,-148625.8,-118764,0.03,0.00,0.88,-4,0,-2,26,0
'[12:06:02.864 21/01/2026]',-136494.2,-199770.8,-112823.2,-12950.38,-375000,-375000,-148710.3,-118818.8,0.03,0.00,0.88,-4,0,-2,26,0
'[12:06:02.868 21/01/2026]',-136487.6,-199774.3,-112746.8,-12902.63,-375000,-375000,-148688.5,-118814,0.03,0.00,0.88,-4,0,-2,26,0
'[12:06:02.872 21/01/2026]',-136403.4,-199726.3,-112585.7,-12829.86,-375000,-375000,-148611,-118761.7,0.03,0.00,0.88,-4,0,-2,26,0
'[12:06:02.876 21/01/2026]',-136415.2,-199730,-112635.8,-12851.31,-375000,-375000,-148625.5,-118755.5,0.03,0.00,0.88,-4,0,-2,26,0
'[12:06:02.880 21/01/2026]',-136501.3,-199798.8,-112808.6,-12950.2,-375000,-375000,-148716.8,-118818.5,0.02,0.00,0.88,-4,0,-2,26,0
'[12:06:02.884 21/01/2026]',-136492.7,-199787.2,-112796.5,-12935.58,-375000,-375000,-148706.2,-118825,0.02,0.00,0.88,-4,0,-2,26,0
'[12:06:02.888 21/01/2026]',-136404.9,-199727.5,-112620,-12844.03,-375000,-375000,-148618.1,-118773.5,0.02,0.00,0.88,-4,0,-2,26,0
'[12:06:02.892 21/01/2026]',-136405.5,-199736,-112616.9,-12845.28,-375000,-375000,-148620,-118763.4,0.02,0.00,0.88,-4,0,-2,26,0
'[12:06:02.896 21/01/2026]',-136500.1,-199801.2,-112798.8,-12944.07,-375000,-375000,-148714.6,-118821.1,0.02,0.00,0.88,-4,0,-2,26,0
'[12:06:02.900 21/01/2026]',-136511.3,-199811.7,-112826.4,-12945.42,-375000,-375000,-148722,-118828.4,0.02,0.00,0.88,-4,0,-2,26,0
'[12:06:02.904 21/01/2026]',-136405.3,-199744.8,-112626.6,-12838.84,-375000,-375000,-148622.5,-118766.9,0.02,0.00,0.88,-4,0,-2,26,0
'[12:06:02.908 21/01/2026]',-136373,-199726.7,-112586.5,-12832.58,-375000,-375000,-148609.2,-118751.4,0.02,0.00,0.88,-4,0,-2,26,0
'[12:06:02.912 21/01/2026]',-136480.2,-199782.2,-112774.6,-12924.45,-375000,-375000,-148696.1,-118810.2,0.02,0.00,0.88,-4,0,-2,26,0
'[12:06:02.916 21/01/2026]',-136506.4,-199807.9,-112833.2,-12947.74,-375000,-375000,-148719.1,-118829.3,0.02,0.00,0.88,-4,0,-2,26,0
'[12:06:02.920 21/01/2026]',-136406.8,-199761.7,-112654.3,-12854.44,-375000,-375000,-148639.6,-118784.3,0.02,0.00,0.88,-4,0,-2,26,0
'[12:06:02.924 21/01/2026]',-136359.1,-199728.8,-112573.2,-12813.63,-375000,-375000,-148601.2,-118746.8,0.02,0.00,0.88,-4,0,-2,26,0
'[12:06:02.928 21/01/2026]',-136475.6,-199779.5,-112726.3,-12894.09,-375000,-375000,-148688.3,-118793.7,0.02,0.00,0.88,-4,0,-2,26,0
'[12:06:02.932 21/01/2026]',-136517.8,-199823.7,-112819.4,-12948.01,-375000,-375000,-148724.7,-118823.1,0.02,0.00,0.88,-4,0,-2,26,0
'[12:06:02.936 21/01/2026]',-136427.6,-199779.8,-112650.3,-12863.56,-375000,-375000,-148655.5,-118790.9,0.02,0.00,0.88,-4,0,-2,26,0
'[12:06:02.940 21/01/2026]',-136352.8,-199737.1,-112558.7,-12811.35,-375000,-375000,-148608.7,-118757.1,0.02,0.00,0.88,-4,0,-2,26,0
'[12:06:02.944 21/01/2026]',-136432,-199773.4,-112695.1,-12870.4,-375000,-375000,-148666.8,-118782.6,0.02,0.00,0.88,-4,0,-2,26,0
'[12:06:02.948 21/01/2026]',-136528.9,-199821.8,-112824.2,-12938.17,-375000,-375000,-148716.2,-118816,0.02,0.00,0.88,-4,0,-2,26,0
'[12:06:02.952 21/01/2026]',-136458.3,-199783.4,-112689.4,-12856.1,-375000,-375000,-148656.4,-118787.9,0.02,0.00,0.88,-4,0,-2,26,0
'[12:06:02.956 21/01/2026]',-136356.2,-199708.6,-112521.9,-12789.09,-375000,-375000,-148584.3,-118737.5,0.02,0.00,0.88,-4,0,-2,26,0
'[12:06:02.960 21/01/2026]',-136413.1,-199741.6,-112652.2,-12865.48,-375000,-375000,-148647.9,-118780.2,0.02,0.00,0.88,-4,0,-2,26,0
'[12:06:02.964 21/01/2026]',-136509.1,-199827.5,-112843.7,-12954.13,-375000,-375000,-148736.4,-118843.6,0.02,0.00,0.88,-4,0,-2,26,0
'[12:06:02.968 21/01/2026]',-136471.3,-199813.6,-112754.4,-12907.55,-375000,-375000,-148689.7,-118817.2,0.02,0.00,0.88,-4,0,-2,26,0
'[12:06:02.972 21/01/2026]',-136386.4,-199747.8,-112563.5,-12830.88,-375000,-375000,-148595.4,-118757.4,0.02,0.00,0.88,-4,0,-2,26,0
'[12:06:02.976 21/01/2026]',-136398.8,-199744.3,-112622.2,-12857.75,-375000,-375000,-148618.6,-118765.5,0.02,0.00,0.88,-4,0,-2,26,0
'[12:06:02.980 21/01/2026]',-136491,-199812.3,-112819.5,-12954.44,-375000,-375000,-148714.2,-118833.5,0.02,0.00,0.88,-4,0,-2,26,0
'[12:06:02.984 21/01/2026]',-136485.4,-199793.3,-112762.9,-12931.02,-375000,-375000,-148685,-118819.8,0.02,0.00,0.88,-4,0,-2,26,0
'[12:06:02.988 21/01/2026]',-136371.2,-199730.8,-112552.7,-12822.35,-375000,-375000,-148583.9,-118757.2,0.03,0.00,0.88,-4,0,-2,26,0
'[12:06:02.992 21/01/2026]',-136366.4,-199741.3,-112594.4,-12843.13,-375000,-375000,-148605.8,-118765.1,0.03,0.00,0.88,-4,0,-2,26,0
'[12:06:02.996 21/01/2026]',-136496.4,-199817.7,-112795.8,-12958.24,-375000,-375000,-148701,-118829.1,0.03,0.00,0.88,-4,0,-2,26,0
'[12:06:03.000 21/01/2026]',-136510.1,-199818.4,-112795.8,-12956.5,-375000,-375000,-148694,-118824,0.03,0.00,0.88,-4,0,-2,26,0
'[12:06:03.004 21/01/2026]',-136403.6,-199751,-112612.6,-12855.69,-375000,-375000,-148608.3,-118769.3,0.03,0.00,0.88,-4,0,-2,26,0
'[12:06:03.008 21/01/2026]',-136389.2,-199732.5,-112587.7,-12842.69,-375000,-375000,-148598.3,-118751.1,0.03,0.00,0.88,-4,0,-2,26,0
'[12:06:03.012 21/01/2026]',-136484.3,-199797.8,-112763.3,-12933.43,-375000,-375000,-148691.1,-118811.3,0.03,0.00,0.88,-4,0,-2,26,0
'[12:06:03.016 21/01/2026]',-136481.2,-199822.5,-112812.3,-12953.15,-375000,-375000,-148710.6,-118826.4,0.03,0.00,0.88,-4,0,-2,26,0
'[12:06:03.020 21/01/2026]',-136380.1,-199763.2,-112624.2,-12861.24,-375000,-375000,-148626.6,-118774.8,0.03,0.00,0.88,-4,0,-2,26,0
'[12:06:03.024 21/01/2026]',-136373.2,-199731.9,-112548.8,-12838.22,-375000,-375000,-148587.9,-118744.4,0.03,0.00,0.88,-4,0,-2,26,0
'[12:06:03.028 21/01/2026]',-136475.3,-199786.1,-112730.3,-12926.68,-375000,-375000,-148674,-118796.9,0.03,0.00,0.88,-4,0,-2,26,0
'[12:06:03.032 21/01/2026]',-136529.2,-199825.2,-112830.8,-12967.99,-375000,-375000,-148722.1,-118837.7,0.03,0.00,0.88,-4,0,-2,26,0
'[12:06:03.036 21/01/2026]',-136438.4,-199772.4,-112649.3,-12872.24,-375000,-375000,-148642.8,-118789.8,0.03,0.00,0.88,-4,0,-2,26,0
'[12:06:03.040 21/01/2026]',-136362.5,-199731.1,-112521,-12818.01,-375000,-375000,-148593.6,-118745.6,0.03,0.00,0.88,-4,0,-2,26,0
'[12:06:03.044 21/01/2026]',-136434.9,-199779.8,-112679.4,-12883.86,-375000,-375000,-148659.6,-118782.3,0.03,0.00,0.88,-4,0,-2,26,0
'[12:06:03.048 21/01/2026]',-136501,-199824.3,-112827.9,-12946.98,-375000,-375000,-148711.8,-118813.2,0.03,0.00,0.88,-4,0,-2,26,0
'[12:06:03.052 21/01/2026]',-136431.6,-199787.9,-112710.1,-12891.86,-375000,-375000,-148661.2,-118796.4,0.03,0.00,0.88,-4,0,-2,26,0
'[12:06:03.056 21/01/2026]',-136361.3,-199732.6,-112560.9,-12834.46,-375000,-375000,-148587.5,-118744.4,0.03,0.00,0.88,-4,0,-2,26,0
'[12:06:03.060 21/01/2026]',-136427.2,-199758.5,-112649.8,-12875.95,-375000,-375000,-148632.7,-118770.1,0.03,0.00,0.88,-4,0,-2,26,0
'[12:06:03.064 21/01/2026]',-136504,-199824.2,-112818.6,-12960.75,-375000,-375000,-148717.5,-118836.9,0.03,0.00,0.88,-4,0,-2,26,0
'[12:06:03.068 21/01/2026]',-136482.5,-199811.4,-112747.4,-12922.53,-375000,-375000,-148687,-118826.4,0.03,0.00,0.88,-4,0,-2,26,0
'[12:06:03.072 21/01/2026]',-136392.9,-199750.7,-112582.5,-12840.05,-375000,-375000,-148593.7,-118758.3,0.03,0.00,0.88,-4,0,-2,26,0
'[12:06:03.076 21/01/2026]',-136412.6,-199762.9,-112637.6,-12865.93,-375000,-375000,-148623.2,-118763.2,0.03,0.00,0.88,-4,0,-2,26,0
'[12:06:03.080 21/01/2026]',-136507.8,-199818,-112807.1,-12953.82,-375000,-375000,-148714.5,-118823.2,0.03,0.00,0.88,-4,0,-2,26,0
'[12:06:03.084 21/01/2026]',-136489.8,-199807.9,-112760.7,-12933.17,-375000,-375000,-148697.5,-118815.9,0.03,0.00,0.88,-4,0,-2,26,0
'[12:06:03.088 21/01/2026]',-136387.7,-199736.4,-112567,-12841.12,-375000,-375000,-148612.8,-118760.3,0.03,0.00,0.88,-4,0,-2,26,0
'[12:06:03.092 21/01/2026]',-136374.7,-199735.9,-112573.3,-12846.22,-375000,-375000,-148611,-118744.7,0.03,0.00,0.88,-4,0,-2,26,0
'[12:06:03.096 21/01/2026]',-136480.1,-199808.1,-112774.5,-12943.67,-375000,-375000,-148696.6,-118799.7,0.02,0.00,0.88,-4,0,-2,26,0
'[12:06:03.100 21/01/2026]',-136498.2,-199822.6,-112810.9,-12957.93,-375000,-375000,-148722.8,-118833,0.02,0.00,0.88,-4,0,-2,26,0
'[12:06:03.104 21/01/2026]',-136388.3,-199767.2,-112625.9,-12859.99,-375000,-375000,-148640.9,-118784.8,0.02,0.00,0.88,-4,0,-2,26,0
'[12:06:03.108 21/01/2026]',-136380.7,-199754.9,-112558.1,-12833.61,-375000,-375000,-148595.6,-118738.4,0.02,0.00,0.88,-4,0,-2,26,0
'[12:06:03.112 21/01/2026]',-136487.2,-199820.5,-112742.5,-12928.65,-375000,-375000,-148683.8,-118793.3,0.02,0.00,0.88,-4,0,-2,26,0
'[12:06:03.116 21/01/2026]',-136499.1,-199845,-112827.5,-12963.61,-375000,-375000,-148715.7,-118828.9,0.02,0.00,0.88,-4,0,-2,26,0
'[12:06:03.120 21/01/2026]',-136416.1,-199784.5,-112633.7,-12867.63,-375000,-375000,-148636.9,-118784,0.02,0.00,0.88,-4,0,-2,26,0
'[12:06:03.124 21/01/2026]',-136364.9,-199742.8,-112555,-12835.4,-375000,-375000,-148590.1,-118742,0.02,0.00,0.88,-4,0,-2,26,0
'[12:06:03.128 21/01/2026]',-136471.3,-199790.4,-112735.6,-12905.58,-375000,-375000,-148671.3,-118789.4,0.02,0.00,0.88,-4,0,-2,26,0
'[12:06:03.132 21/01/2026]',-136521.7,-199822.5,-112835.9,-12955.79,-375000,-375000,-148727.8,-118837.2,0.02,0.00,0.88,-4,0,-2,26,0
'[12:06:03.136 21/01/2026]',-136429.5,-199780.7,-112661.1,-12878.76,-375000,-375000,-148648.7,-118790.9,0.02,0.00,0.88,-4,0,-2,26,0
'[12:06:03.140 21/01/2026]',-136374.3,-199730.1,-112527,-12818.37,-375000,-375000,-148583.1,-118737.7,0.02,0.00,0.88,-4,0,-2,26,0
'[12:06:03.144 21/01/2026]',-136442.5,-199782,-112668.2,-12882.11,-375000,-375000,-148649.1,-118768.7,0.02,0.00,0.88,-4,0,-2,26,0
'[12:06:03.148 21/01/2026]',-136500.8,-199846.4,-112839.2,-12964.59,-375000,-375000,-148720.5,-118819.8,0.02,0.00,0.88,-4,0,-2,26,0
'[12:06:03.152 21/01/2026]',-136444.1,-199810.9,-112705.1,-12888.19,-375000,-375000,-148664.3,-118793.5,0.02,0.00,0.88,-4,0,-2,26,0
'[12:06:03.156 21/01/2026]',-136386.9,-199767.7,-112561.5,-12835.4,-375000,-375000,-148595.5,-118750.6,0.02,0.00,0.88,-4,0,-2,26,0
'[12:06:03.160 21/01/2026]',-136444.4,-199797.3,-112662.8,-12886.18,-375000,-375000,-148645.7,-118778.7,0.02,0.00,0.88,-4,0,-2,26,0
'[12:06:03.164 21/01/2026]',-136501.4,-199847.1,-112821.7,-12970.14,-375000,-375000,-148731,-118843.5,0.02,0.00,0.88,-4,0,-2,26,0
'[12:06:03.168 21/01/2026]',-136444.4,-199814.4,-112732.5,-12914.48,-375000,-375000,-148687.9,-118822.5,0.03,0.00,0.88,-4,0,-2,26,0
'[12:06:03.172 21/01/2026]',-136382.3,-199752.2,-112564.4,-12840.72,-375000,-375000,-148599,-118756.6,0.03,0.00,0.88,-4,0,-2,26,0
'[12:06:03.176 21/01/2026]',-136422.4,-199766.8,-112606.3,-12865.75,-375000,-375000,-148629.2,-118764.8,0.03,0.00,0.88,-4,0,-2,26,0
'[12:06:03.180 21/01/2026]',-136509.4,-199840.1,-112803.9,-12954,-375000,-375000,-148725,-118830.2,0.03,0.00,0.88,-4,0,-2,26,0
'[12:06:03.184 21/01/2026]',-136486.2,-199827.7,-112756.3,-12927.67,-375000,-375000,-148710.2,-118831.3,0.03,0.00,0.88,-4,0,-2,26,0
'[12:06:03.188 21/01/2026]',-136369.5,-199754.9,-112552.8,-12833.57,-375000,-375000,-148608.6,-118762.4,0.03,0.00,0.88,-4,0,-2,26,0
'[12:06:03.192 21/01/2026]',-136362.7,-199753.1,-112582.8,-12850.73,-375000,-375000,-148624.3,-118761.3,0.03,0.00,0.88,-4,0,-2,26,0
'[12:06:03.196 21/01/2026]',-136475,-199824.6,-112781.5,-12956.37,-375000,-375000,-148731.9,-118838,0.03,0.00,0.88,-4,0,-2,26,0
'[12:06:03.200 21/01/2026]',-136464.4,-199837.6,-112796.7,-12964.32,-375000,-375000,-148723.5,-118840.7,0.03,0.00,0.88,-4,0,-2,26,0
'[12:06:03.204 21/01/2026]',-136404.7,-199767.9,-112596.7,-12845.06,-375000,-375000,-148611,-118752.5,0.03,0.00,0.88,-4,0,-2,26,0
'[12:06:03.208 21/01/2026]',-136390.9,-199739.5,-112563.6,-12825.16,-375000,-375000,-148590.8,-118724.5,0.03,0.00,0.88,-4,0,-2,26,0
'[12:06:03.212 21/01/2026]',-136494,-199816.9,-112734.1,-12921.99,-375000,-375000,-148687.9,-118791.3,0.03,0.00,0.88,-4,0,-2,26,0
'[12:06:03.216 21/01/2026]',-136508.8,-199851.3,-112812.2,-12963.21,-375000,-375000,-148722.1,-118824.4,0.03,0.00,0.88,-4,0,-2,26,0
'[12:06:03.220 21/01/2026]',-136401.6,-199784,-112644.1,-12873.53,-375000,-375000,-148651.7,-118789.1,0.03,0.00,0.88,-4,0,-2,26,0
'[12:06:03.224 21/01/2026]',-136374.7,-199740.6,-112559.9,-12831.42,-375000,-375000,-148607.4,-118747.4,0.03,0.00,0.88,-4,0,-2,26,0
'[12:06:03.228 21/01/2026]',-136464,-199787.8,-112709.9,-12901.34,-375000,-375000,-148669,-118768.8,0.03,0.00,0.88,-4,0,-2,26,0
'[12:06:03.232 21/01/2026]',-136509.3,-199834.5,-112810.5,-12956.19,-375000,-375000,-148709,-118802.5,0.03,0.00,0.88,-4,0,-2,26,0
'[12:06:03.236 21/01/2026]',-136436.8,-199788.9,-112646.6,-12878.36,-375000,-375000,-148651.4,-118778.6,0.03,0.00,0.88,-4,0,-2,26,0
'[12:06:03.240 21/01/2026]',-136361.1,-199739.6,-112529.9,-12829.99,-375000,-375000,-148596.9,-118741.7,0.03,0.00,0.88,-4,0,-2,26,0
'[12:06:03.244 21/01/2026]',-136415.2,-199785.5,-112670.9,-12894.36,-375000,-375000,-148645.4,-118759.5,0.03,0.00,0.88,-4,0,-2,26,0
'[12:06:03.248 21/01/2026]',-136507.4,-199835.1,-112815.1,-12962.76,-375000,-375000,-148719,-118814.4,0.03,0.00,0.88,-4,0,-2,26,0
'[12:06:03.252 21/01/2026]',-136443.6,-199796.2,-112687.8,-12896.6,-375000,-375000,-148681,-118808.5,0.03,0.00,0.88,-4,0,-2,26,0
'[12:06:03.256 21/01/2026]',-136368.7,-199738.3,-112551,-12830.53,-375000,-375000,-148598.5,-118744,0.03,0.00,0.88,-4,0,-2,26,0
'[12:06:03.260 21/01/2026]',-136422.3,-199781.3,-112649.8,-12882.03,-375000,-375000,-148636.7,-118753.2,0.03,0.00,0.88,-4,0,-2,26,0
'[12:06:03.264 21/01/2026]',-136523.2,-199863,-112820.5,-12981.18,-375000,-375000,-148737,-118831.4,0.03,0.00,0.88,-4,0,-2,26,0
'[12:06:03.268 21/01/2026]',-136475.7,-199826,-112732.7,-12926.1,-375000,-375000,-148692.5,-118814.8,0.03,0.00,0.88,-4,0,-2,26,0
'[12:06:03.272 21/01/2026]',-136372.1,-199749.3,-112564.9,-12832.67,-375000,-375000,-148593.4,-118739.1,0.03,0.00,0.88,-4,0,-2,26,0
'[12:06:03.276 21/01/2026]',-136398.3,-199765,-112632.1,-12871.56,-375000,-375000,-148626.5,-118749.3,0.02,0.00,0.88,-4,0,-2,26,0
'[12:06:03.280 21/01/2026]',-136472.9,-199824.9,-112809.8,-12958.6,-375000,-375000,-148720.3,-118810.6,0.02,0.00,0.88,-4,0,-2,26,0
'[12:06:03.284 21/01/2026]',-136490.3,-199840.2,-112764.4,-12947.07,-375000,-375000,-148725.9,-118832.1,0.02,0.00,0.88,-4,0,-2,26,0
'[12:06:03.288 21/01/2026]',-136390.5,-199770.1,-112558.9,-12847.42,-375000,-375000,-148626.8,-118775.1,0.02,0.00,0.88,-4,0,-2,26,0
'[12:06:03.292 21/01/2026]',-136405.3,-199749.4,-112582.6,-12852.12,-375000,-375000,-148612.1,-118742.1,0.02,0.00,0.88,-4,0,-2,26,0
'[12:06:03.296 21/01/2026]',-136492.4,-199812.1,-112768.1,-12954.49,-375000,-375000,-148706.6,-118803.5,0.02,0.00,0.88,-4,0,-2,26,0
'[12:06:03.300 21/01/2026]',-136490.8,-199833.4,-112767.4,-12959.59,-375000,-375000,-148721.8,-118834.4,0.02,0.00,0.88,-4,0,-2,26,0
'[12:06:03.304 21/01/2026]',-136395,-199775.9,-112609.9,-12855.69,-375000,-375000,-148628.2,-118772.7,0.02,0.00,0.88,-4,0,-2,26,0
'[12:06:03.308 21/01/2026]',-136372.9,-199762.4,-112603.4,-12852.74,-375000,-375000,-148610.3,-118749,0.02,0.00,0.88,-4,0,-2,26,0
'[12:06:03.312 21/01/2026]',-136476,-199823.9,-112768.8,-12946.67,-375000,-375000,-148707.5,-118815.5,0.02,0.00,0.88,-4,0,-2,26,0
'[12:06:03.316 21/01/2026]',-136514.6,-199855.8,-112824.2,-12974.2,-375000,-375000,-148735.2,-118839.4,0.02,0.00,0.88,-4,0,-2,26,0
'[12:06:03.320 21/01/2026]',-136433.9,-199785.8,-112623.3,-12859.99,-375000,-375000,-148632.8,-118772.3,0.02,0.00,0.88,-4,0,-2,26,0
'[12:06:03.324 21/01/2026]',-136366,-199742.6,-112552.3,-12830.3,-375000,-375000,-148594.4,-118736.8,0.02,0.00,0.88,-4,0,-2,26,0
'[12:06:03.328 21/01/2026]',-136451.3,-199798.2,-112725.3,-12917.34,-375000,-375000,-148679.4,-118788.7,0.02,0.00,0.88,-4,0,-2,26,0
'[12:06:03.332 21/01/2026]',-136515,-199841.1,-112824.7,-12970.85,-375000,-375000,-148729.2,-118840,0.02,0.00,0.88,-4,0,-2,26,0
'[12:06:03.336 21/01/2026]',-136417.3,-199792.4,-112655,-12876.97,-375000,-375000,-148651.7,-118794.7,0.02,0.00,0.88,-4,0,-2,26,0
'[12:06:03.340 21/01/2026]',-136371.8,-199761.2,-112558.1,-12837.95,-375000,-375000,-148604.8,-118757.2,0.02,0.00,0.88,-4,0,-2,26,0
'[12:06:03.344 21/01/2026]',-136447.6,-199803.6,-112693.2,-12917.03,-375000,-375000,-148669.9,-118793.1,0.02,0.00,0.88,-4,0,-2,26,0
'[12:06:03.348 21/01/2026]',-136504.4,-199870.1,-112828.9,-12988.78,-375000,-375000,-148741.1,-118843.1,0.03,0.00,0.88,-4,0,-2,26,0
'[12:06:03.352 21/01/2026]',-136478.1,-199829.6,-112703.8,-12915.24,-375000,-375000,-148698.9,-118825,0.03,0.00,0.88,-4,0,-2,26,0
'[12:06:03.356 21/01/2026]',-136401.4,-199763.8,-112569.5,-12843.89,-375000,-375000,-148619,-118761.2,0.03,0.00,0.88,-4,0,-2,26,0
'[12:06:03.360 21/01/2026]',-136436.5,-199791.6,-112675.8,-12883.95,-375000,-375000,-148652.7,-118774.1,0.03,0.00,0.88,-4,0,-2,26,0
'[12:06:03.364 21/01/2026]',-136529.9,-199852.2,-112837.5,-12974.79,-375000,-375000,-148734.9,-118832.7,0.03,0.00,0.88,-4,0,-2,26,0
'[12:06:03.368 21/01/2026]',-136480.4,-199823.1,-112742.3,-12923.24,-375000,-375000,-148698.3,-118819.7,0.03,0.00,0.88,-4,0,-2,26,0
'[12:06:03.372 21/01/2026]',-136388.4,-199758.5,-112564.8,-12836.29,-375000,-375000,-148608.8,-118756.1,0.03,0.00,0.88,-4,0,-2,26,0
'[12:06:03.376 21/01/2026]',-136409.8,-199779.1,-112592,-12863.65,-375000,-375000,-148636.7,-118765,0.03,0.00,0.88,-4,0,-2,26,0
'[12:06:03.380 21/01/2026]',-136471.9,-199848.3,-112804.7,-12971.21,-375000,-375000,-148730.3,-118831.8,0.03,0.00,0.88,-4,0,-2,26,0
'[12:06:03.384 21/01/2026]',-136494.8,-199841,-112788.4,-12947.16,-375000,-375000,-148719.2,-118834.3,0.03,0.00,0.88,-4,0,-2,26,0
'[12:06:03.388 21/01/2026]',-136415,-199769.3,-112587.4,-12841.52,-375000,-375000,-148614.3,-118763.6,0.03,0.00,0.88,-4,0,-2,26,0
'[12:06:03.392 21/01/2026]',-136404.9,-199770.4,-112606.3,-12857.48,-375000,-375000,-148630.6,-118761,0.03,0.00,0.88,-4,0,-2,26,0
'[12:06:03.396 21/01/2026]',-136494.8,-199852.1,-112789.6,-12970.99,-375000,-375000,-148740.1,-118833.3,0.03,0.00,0.88,-4,0,-2,26,0
'[12:06:03.400 21/01/2026]',-136497.8,-199853.5,-112780.1,-12970.81,-375000,-375000,-148734.7,-118847.4,0.03,0.00,0.88,-4,0,-2,26,0
'[12:06:03.404 21/01/2026]',-136390.7,-199759,-112598.6,-12850.87,-375000,-375000,-148620.7,-118768.5,0.03,0.00,0.88,-4,0,-2,26,0
'[12:06:03.408 21/01/2026]',-136409.4,-199777,-112589.5,-12859.05,-375000,-375000,-148636.9,-118781.5,0.03,0.00,0.88,-4,0,-2,26,0
'[12:06:03.412 21/01/2026]',-136517.6,-199864.3,-112778.3,-12966.78,-375000,-375000,-148743.2,-118852.7,0.03,0.00,0.88,-4,0,-2,26,0
'[12:06:03.416 21/01/2026]',-136531.7,-199884.6,-112823.5,-12988.2,-375000,-375000,-148755,-118869.8,0.03,0.00,0.88,-4,0,-2,26,0
'[12:06:03.420 21/01/2026]',-136449.1,-199811.9,-112635.1,-12885.24,-375000,-375000,-148667.1,-118814.5,0.02,0.00,0.89,-4,0,-2,26,0
'[12:06:03.424 21/01/2026]',-136406.3,-199772.8,-112577.6,-12851.98,-375000,-375000,-148627.1,-118773.8,0.02,0.00,0.89,-4,0,-2,26,0
'[12:06:03.428 21/01/2026]',-136477.7,-199824.7,-112748.7,-12935.49,-375000,-375000,-148709.1,-118819.3,0.02,0.00,0.89,-4,0,-2,26,0
'[12:06:03.432 21/01/2026]',-136526.6,-199876.4,-112843,-12990.97,-375000,-375000,-148757.5,-118860.9,0.02,0.00,0.89,-4,0,-2,26,0
'[12:06:03.436 21/01/2026]',-136457.9,-199822.6,-112677.6,-12900.13,-375000,-375000,-148680.9,-118819.1,0.02,0.00,0.89,-4,0,-2,26,0
'[12:06:03.440 21/01/2026]',-136401,-199769.9,-112573.1,-12848.18,-375000,-375000,-148625,-118780.3,0.02,0.00,0.89,-4,0,-2,26,0
'[12:06:03.444 21/01/2026]',-136455.8,-199812.6,-112699.7,-12914.12,-375000,-375000,-148685.6,-118805,0.02,0.00,0.89,-4,0,-2,26,0
'[12:06:03.448 21/01/2026]',-136504.8,-199864.4,-112837.6,-12979.75,-375000,-375000,-148737.4,-118840.3,0.02,0.00,0.89,-4,0,-2,26,0
'[12:06:03.452 21/01/2026]',-136461.7,-199808.9,-112685,-12902.14,-375000,-375000,-148674.3,-118803.6,0.02,0.00,0.89,-4,0,-2,26,0
'[12:06:03.456 21/01/2026]',-136404.3,-199775.6,-112558.3,-12847.2,-375000,-375000,-148624.7,-118773.8,0.03,0.00,0.89,-4,0,-2,26,0
'[12:06:03.460 21/01/2026]',-136462.1,-199821,-112662.9,-12902.23,-375000,-375000,-148683.8,-118806.2,0.03,0.00,0.89,-4,0,-2,26,0
'[12:06:03.464 21/01/2026]',-136526.8,-199873.1,-112836,-12991.95,-375000,-375000,-148756.7,-118863.4,0.03,0.00,0.89,-4,0,-2,26,0
'[12:06:03.468 21/01/2026]',-136461.7,-199830.6,-112745,-12940.59,-375000,-375000,-148720.2,-118853.5,0.03,0.00,0.89,-4,0,-2,26,0
'[12:06:03.472 21/01/2026]',-136400.6,-199779.8,-112573.7,-12856.14,-375000,-375000,-148641.2,-118797,0.03,0.00,0.89,-4,0,-2,26,0
'[12:06:03.476 21/01/2026]',-136450.8,-199802.5,-112649.3,-12876.04,-375000,-375000,-148653,-118786.2,0.03,0.00,0.89,-4,0,-2,26,0
'[12:06:03.480 21/01/2026]',-136522.3,-199869.2,-112820.8,-12972.77,-375000,-375000,-148739.5,-118843.8,0.03,0.00,0.89,-4,0,-2,26,0
'[12:06:03.484 21/01/2026]',-136503.1,-199856.1,-112782.8,-12950.96,-375000,-375000,-148722.1,-118836.3,0.03,0.00,0.89,-4,0,-2,26,0
'[12:06:03.488 21/01/2026]',-136417.8,-199782.8,-112592.4,-12849.12,-375000,-375000,-148628.3,-118773.3,0.03,0.00,0.89,-4,0,-2,26,0
'[12:06:03.492 21/01/2026]',-136407.5,-199766.1,-112605.6,-12861.82,-375000,-375000,-148640.9,-118776.2,0.02,0.00,0.88,-4,0,-2,26,0
'[12:06:03.496 21/01/2026]',-136520.7,-199847.7,-112805.3,-12965.62,-375000,-375000,-148729.4,-118834.1,0.02,0.00,0.88,-4,0,-2,26,0
'[12:06:03.500 21/01/2026]',-136525.2,-199870.2,-112801.2,-12963.03,-375000,-375000,-148735.3,-118852.5,0.02,0.00,0.88,-4,0,-2,26,0
'[12:06:03.504 21/01/2026]',-136422,-199794.7,-112603.8,-12863.34,-375000,-375000,-148645.7,-118792.4,0.02,0.00,0.88,-4,0,-2,26,0
'[12:06:03.508 21/01/2026]',-136416.1,-199772.6,-112580,-12863.56,-375000,-375000,-148643.6,-118789.2,0.02,0.00,0.88,-4,0,-2,26,0
'[12:06:03.512 21/01/2026]',-136501.9,-199842,-112774.4,-12950.42,-375000,-375000,-148732.9,-118847.8,0.02,0.00,0.88,-4,0,-2,26,0
'[12:06:03.516 21/01/2026]',-136502.2,-199849.8,-112814.3,-12950.6,-375000,-375000,-148742.9,-118851.6,0.02,0.00,0.88,-4,0,-2,26,0
'[12:06:03.520 21/01/2026]',-136430,-199788.1,-112625.8,-12871.16,-375000,-375000,-148666,-118809.3,0.02,0.00,0.88,-4,0,-2,26,0
'[12:06:03.524 21/01/2026]',-136393.8,-199767.7,-112576.8,-12841.03,-375000,-375000,-148627.3,-118774.9,0.02,0.00,0.88,-4,0,-2,26,0
'[12:06:03.528 21/01/2026]',-136480.1,-199837.3,-112750,-12930.57,-375000,-375000,-148704.5,-118818.2,0.03,0.00,0.89,-4,0,-2,26,0
'[12:06:03.532 21/01/2026]',-136545.1,-199876.9,-112842.8,-12980.15,-375000,-375000,-148759.4,-118865.7,0.03,0.00,0.89,-4,0,-2,26,0
'[12:06:03.536 21/01/2026]',-136455.9,-199815.4,-112676.1,-12893.47,-375000,-375000,-148676.3,-118818.5,0.03,0.00,0.89,-4,0,-2,26,0
'[12:06:03.540 21/01/2026]',-136388.4,-199761.6,-112563.9,-12833.97,-375000,-375000,-148604,-118754.8,0.03,0.00,0.89,-4,0,-2,26,0
'[12:06:03.544 21/01/2026]',-136462,-199806.2,-112688.3,-12904.73,-375000,-375000,-148677.7,-118798.7,0.03,0.00,0.89,-4,0,-2,26,0
'[12:06:03.548 21/01/2026]',-136536,-199853.8,-112809.2,-12974.47,-375000,-375000,-148738.9,-118845.5,0.03,0.00,0.89,-4,0,-2,26,0
'[12:06:03.552 21/01/2026]',-136447.7,-199805.9,-112691.8,-12906.08,-375000,-375000,-148682,-118820.8,0.03,0.00,0.89,-4,0,-2,26,0
'[12:06:03.556 21/01/2026]',-136356.2,-199745.1,-112563.9,-12829.28,-375000,-375000,-148603.3,-118759.9,0.03,0.00,0.89,-4,0,-2,26,0
'[12:06:03.560 21/01/2026]',-136436.7,-199773,-112650.8,-12875.72,-375000,-375000,-148653.4,-118781.4,0.03,0.00,0.89,-4,0,-2,26,0
'[12:06:03.564 21/01/2026]',-136524.3,-199851.2,-112818.4,-12971.12,-375000,-375000,-148747.1,-118846.3,0.02,0.00,0.88,-4,0,-2,26,0
'[12:06:03.568 21/01/2026]',-136462.2,-199831.3,-112737.3,-12915.96,-375000,-375000,-148706.2,-118838.8,0.02,0.00,0.88,-4,0,-2,26,0
'[12:06:03.572 21/01/2026]',-136376.5,-199755.5,-112564.5,-12827.31,-375000,-375000,-148614.6,-118778.8,0.02,0.00,0.88,-4,0,-2,26,0
'[12:06:03.576 21/01/2026]',-136411.2,-199760.3,-112622.3,-12855.65,-375000,-375000,-148639,-118779.5,0.02,0.00,0.88,-4,0,-2,26,0
'[12:06:03.580 21/01/2026]',-136523.6,-199847,-112803,-12954.71,-375000,-375000,-148727.5,-118837.7,0.02,0.00,0.88,-4,0,-2,26,0
'[12:06:03.584 21/01/2026]',-136488.2,-199828.3,-112760.5,-12924.63,-375000,-375000,-148710.7,-118841,0.02,0.00,0.88,-4,0,-2,26,0
'[12:06:03.588 21/01/2026]',-136362.9,-199746.5,-112559,-12825.3,-375000,-375000,-148621,-118777.1,0.02,0.00,0.88,-4,0,-2,26,0
'[12:06:03.592 21/01/2026]',-136411.6,-199766.8,-112568.3,-12859.58,-375000,-375000,-148640.3,-118778.9,0.02,0.00,0.88,-4,0,-2,26,0
'[12:06:03.596 21/01/2026]',-136528.2,-199854,-112767.8,-12951.67,-375000,-375000,-148737.2,-118842.6,0.02,0.00,0.88,-4,0,-2,26,0
'[12:06:03.600 21/01/2026]',-136507.1,-199841.9,-112794.7,-12939.16,-375000,-375000,-148719.7,-118840.6,0.02,0.00,0.88,-4,0,-2,26,0
'[12:06:03.604 21/01/2026]',-136399,-199771.7,-112592.8,-12834.86,-375000,-375000,-148625.9,-118779.2,0.02,0.00,0.88,-4,0,-2,26,0
'[12:06:03.608 21/01/2026]',-136368.6,-199749.8,-112549.5,-12821.68,-375000,-375000,-148593.3,-118739.6,0.02,0.00,0.88,-4,0,-2,26,0
'[12:06:03.612 21/01/2026]',-136489,-199838.4,-112759.1,-12931.65,-375000,-375000,-148706.2,-118824.2,0.02,0.00,0.88,-4,0,-2,26,0
'[12:06:03.616 21/01/2026]',-136520.2,-199868.4,-112830.8,-12967.54,-375000,-375000,-148739.2,-118861.3,0.02,0.00,0.88,-4,0,-2,26,0
'[12:06:03.620 21/01/2026]',-136388.7,-199791.4,-112638.1,-12866.42,-375000,-375000,-148645.8,-118803.3,0.02,0.00,0.88,-4,0,-2,26,0
'[12:06:03.624 21/01/2026]',-136367.9,-199762.8,-112556.6,-12836.65,-375000,-375000,-148625.1,-118787.5,0.02,0.00,0.88,-4,0,-2,26,0
'[12:06:03.628 21/01/2026]',-136491.6,-199827.5,-112732.4,-12916.27,-375000,-375000,-148707.5,-118839.4,0.02,0.00,0.88,-4,0,-2,26,0
'[12:06:03.632 21/01/2026]',-136538,-199851.7,-112830.4,-12969.11,-375000,-375000,-148734.9,-118852.9,0.02,0.00,0.88,-4,0,-2,26,0
'[12:06:03.636 21/01/2026]',-136439.6,-199789.5,-112658.2,-12876.66,-375000,-375000,-148662.1,-118805.3,0.02,0.00,0.88,-4,0,-2,26,0
'[12:06:03.640 21/01/2026]',-136371,-199762.6,-112549.4,-12817.7,-375000,-375000,-148615.3,-118767.7,0.02,0.00,0.88,-4,0,-2,26,0
'[12:06:03.644 21/01/2026]',-136452.3,-199803,-112699.1,-12892.17,-375000,-375000,-148672.8,-118795.6,0.02,0.00,0.88,-4,0,-2,26,0
'[12:06:03.648 21/01/2026]',-136517.7,-199860.5,-112829.5,-12968.79,-375000,-375000,-148741.6,-118847.7,0.02,0.00,0.88,-4,0,-2,26,0
'[12:06:03.652 21/01/2026]',-136443.7,-199812.5,-112695.2,-12890.43,-375000,-375000,-148671.2,-118814.1,0.02,0.00,0.88,-4,0,-2,26,0
