'Time and date','Fp1','Fp2','F3','Fz','F4','P3','Pz','P4','AccX','AccY','AccZ','GyroX','GyroY','GyroZ','Battery','Event'
'[hh:mm:ss.mmm dd/mm/yyyy]','uV','uV','uV','uV','uV','uV','uV','uV','G','G','G','Deg/s','Deg/s','Deg/s','%','Button'
'[12:15:00.000 20/01/2026]',-94586.05,-123757.7,-146007.4,-154763.9,-375000,-375000,-118767.2,-152467.9,0.03,-0.02,0.88,-4,0,-2,55,0
'[12:15:00.004 20/01/2026]',-95071.17,-123213.5,-146252.8,-153355.5,-375000,-375000,-118870.9,-152025.9,0.03,-0.02,0.88,-4,0,-2,55,0
'[12:15:00.008 20/01/2026]',-94296.82,-124181.9,-146164.7,-155320.7,-375000,-375000,-118851.4,-153243.7,0.03,-0.02,0.88,-4,0,-2,55,0
'[12:15:00.012 20/01/2026]',-93977.1,-124564.1,-145947.2,-156395.5,-375000,-375000,-118748.7,-153420.6,0.03,-0.02,0.88,-4,0,-2,55,0
'[12:15:00.016 20/01/2026]',-94475.99,-123927.5,-145994.8,-155111.1,-375000,-375000,-118747.8,-152608.8,0.03,-0.02,0.88,-4,0,-2,55,0
'[12:15:00.020 20/01/2026]',-95090.4,-123194.7,-146215.1,-153354.8,-375000,-375000,-118824.1,-151895.6,0.03,-0.02,0.88,-4,0,-2,55,0
'[12:15:00.024 20/01/2026]',-94467.01,-123969.2,-146215.1,-154871.2,-375000,-375000,-118848.4,-152997.5,0.03,-0.02,0.88,-4,0,-2,55,0
'[12:15:00.028 20/01/2026]',-93931.46,-124575.3,-145986.3,-156421.3,-375000,-375000,-118762.3,-153463.2,0.03,-0.02,0.88,-4,0,-2,55,0
'[12:15:00.032 20/01/2026]',-94318.59,-124066,-145986.2,-155433.4,-375000,-375000,-118733.3,-152756.7,0.03,-0.02,0.88,-4,0,-2,55,0
'[12:15:00.036 20/01/2026]',-95042.79,-123228.4,-146187.6,-153496.3,-375000,-375000,-118803.7,-151875.2,0.03,-0.02,0.88,-4,0,-2,55,0
'[12:15:00.040 20/01/2026]',-94621.28,-123751.6,-146249.7,-154408,-375000,-375000,-118857,-152735.4,0.03,-0.02,0.88,-4,0,-2,55,0
'[12:15:00.044 20/01/2026]',-93940.53,-124584.1,-146011.3,-156349.2,-375000,-375000,-118783.5,-153491.3,0.03,-0.02,0.88,-4,0,-2,55,0
'[12:15:00.048 20/01/2026]',-94245.73,-124201.1,-145965.5,-155698.3,-375000,-375000,-118727.8,-152888.8,0.03,-0.02,0.88,-4,0,-2,55,0
'[12:15:00.052 20/01/2026]',-94961.2,-123321,-146143.6,-153724.2,-375000,-375000,-118787.1,-151921.9,0.03,-0.02,0.88,-4,0,-2,55,0
'[12:15:00.056 20/01/2026]',-94787.04,-123556.5,-146275.8,-153977.2,-375000,-375000,-118851.1,-152455.4,0.03,-0.02,0.88,-4,0,-2,55,0
'[12:15:00.060 20/01/2026]',-93986.49,-124547.5,-146058.3,-156187.8,-375000,-375000,-118787.8,-153449.8,0.03,-0.02,0.88,-4,0,-2,55,0
'[12:15:00.064 20/01/2026]',-94123.69,-124338.2,-145965.9,-155931.1,-375000,-375000,-118736.1,-153025.3,0.03,-0.02,0.88,-4,0,-2,55,0
'[12:15:00.068 20/01/2026]',-94861.29,-123490.1,-146121.3,-154037.4,-375000,-375000,-118803.1,-152047.1,0.03,-0.02,0.88,-4,0,-2,55,0
'[12:15:00.072 20/01/2026]',-94921.33,-123413.9,-146293.1,-153642.4,-375000,-375000,-118881.2,-152221.7,0.03,-0.02,0.88,-4,0,-2,55,0
'[12:15:00.076 20/01/2026]',-94038.93,-124459,-146084.6,-155952.1,-375000,-375000,-118807.6,-153380.6,0.03,-0.02,0.88,-4,0,-2,55,0
'[12:15:00.080 20/01/2026]',-94064.27,-124417.5,-145938.8,-156109.8,-375000,-375000,-118735.4,-153129.6,0.03,-0.02,0.88,-4,0,-2,55,0
'[12:15:00.084 20/01/2026]',-94738.85,-123629,-146080.8,-154386,-375000,-375000,-118793.7,-152214,0.03,-0.02,0.88,-4,0,-2,55,0
'[12:15:00.088 20/01/2026]',-95038.32,-123272,-146294.8,-153412,-375000,-375000,-118882.3,-152049,0.03,-0.02,0.88,-4,0,-2,55,0
'[12:15:00.092 20/01/2026]',-94167.18,-124334.8,-146138.9,-155637.2,-375000,-375000,-118849.6,-153302.6,0.03,-0.02,0.88,-4,0,-2,55,0
'[12:15:00.096 20/01/2026]',-94003.16,-124510.2,-145959.9,-156279.3,-375000,-375000,-118771.8,-153276.7,0.03,-0.02,0.88,-4,0,-2,55,0
'[12:15:00.100 20/01/2026]',-94631.38,-123797.4,-146063.8,-154773,-375000,-375000,-118812.6,-152417.4,0.03,-0.02,0.88,-4,0,-2,55,0
'[12:15:00.104 20/01/2026]',-95128.66,-123257.5,-146295,-153333.9,-375000,-375000,-118912.5,-151974.5,0.03,-0.02,0.88,-4,0,-2,55,0
'[12:15:00.108 20/01/2026]',-94341.88,-124200,-146202.7,-155260,-375000,-375000,-118896.1,-153184.6,0.02,0.00,0.89,-4,0,-2,55,0
'[12:15:00.112 20/01/2026]',-93969.37,-124590.6,-145979.9,-156369.3,-375000,-375000,-118792.7,-153380.7,0.02,0.00,0.89,-4,0,-2,55,0
'[12:15:00.116 20/01/2026]',-94493.07,-123976.7,-146041.5,-155123,-375000,-375000,-118806.8,-152607.5,0.02,0.00,0.89,-4,0,-2,55,0
'[12:15:00.120 20/01/2026]',-95133,-123238.4,-146265.9,-153363.5,-375000,-375000,-118894.1,-151900.5,0.02,0.00,0.89,-4,0,-2,55,0
'[12:15:00.124 20/01/2026]',-94522.4,-123980.6,-146258.5,-154837.3,-375000,-375000,-118917.4,-152989.6,0.02,0.00,0.89,-4,0,-2,55,0
'[12:15:00.128 20/01/2026]',-93980.05,-124625.9,-146026.7,-156406.2,-375000,-375000,-118837,-153487.6,0.02,0.00,0.89,-4,0,-2,55,0
'[12:15:00.132 20/01/2026]',-94377.73,-124132.6,-146023.7,-155454.6,-375000,-375000,-118803.4,-152781.7,0.02,0.00,0.89,-4,0,-2,55,0
'[12:15:00.136 20/01/2026]',-95068.27,-123296,-146226.3,-153523.9,-375000,-375000,-118860.7,-151906.3,0.02,0.00,0.89,-4,0,-2,55,0
'[12:15:00.140 20/01/2026]',-94664.87,-123791.4,-146284.7,-154395.2,-375000,-375000,-118909,-152747.6,0.02,0.00,0.89,-4,0,-2,55,0
'[12:15:00.144 20/01/2026]',-93965.61,-124599,-146044.7,-156353.8,-375000,-375000,-118834.9,-153515.2,0.03,0.00,0.86,-4,0,-2,55,0
'[12:15:00.148 20/01/2026]',-94226.23,-124238.7,-146016,-155748.2,-375000,-375000,-118797.1,-152949.2,0.03,0.00,0.86,-4,0,-2,55,0
'[12:15:00.152 20/01/2026]',-95000.95,-123397.6,-146214.9,-153799.8,-375000,-375000,-118879,-152005.8,0.03,0.00,0.86,-4,0,-2,55,0
'[12:15:00.156 20/01/2026]',-94864.96,-123587.8,-146315.6,-154002.3,-375000,-375000,-118924.1,-152513.7,0.03,0.00,0.86,-4,0,-2,55,0
'[12:15:00.160 20/01/2026]',-94025.07,-124554.9,-146087.2,-156231.4,-375000,-375000,-118849,-153516.8,0.03,0.00,0.86,-4,0,-2,55,0
'[12:15:00.164 20/01/2026]',-94182.73,-124375.7,-146003.7,-156015.7,-375000,-375000,-118807.6,-153110.1,0.03,0.00,0.86,-4,0,-2,55,0
'[12:15:00.168 20/01/2026]',-94920.48,-123557.8,-146173.3,-154136.7,-375000,-375000,-118873.3,-152146,0.03,0.00,0.86,-4,0,-2,55,0
'[12:15:00.172 20/01/2026]',-94995.18,-123459.3,-146343.1,-153699.6,-375000,-375000,-118949.2,-152316,0.03,0.00,0.86,-4,0,-2,55,0
'[12:15:00.176 20/01/2026]',-94133.88,-124527.7,-146167.7,-156033.1,-375000,-375000,-118909.3,-153512.3,0.03,0.00,0.86,-4,0,-2,55,0
'[12:15:00.180 20/01/2026]',-94121.18,-124500.1,-146020.9,-156231.1,-375000,-375000,-118835.5,-153269.2,0.02,0.00,0.88,-4,0,-2,55,0
'[12:15:00.184 20/01/2026]',-94768.98,-123714.4,-146148,-154515.7,-375000,-375000,-118869.7,-152322.2,0.02,0.00,0.88,-4,0,-2,55,0
'[12:15:00.188 20/01/2026]',-95120.35,-123363,-146375.4,-153509,-375000,-375000,-118965.1,-152143.4,0.02,0.00,0.88,-4,0,-2,55,0
'[12:15:00.192 20/01/2026]',-94261.41,-124416.6,-146243.1,-155725.7,-375000,-375000,-118940.5,-153407.9,0.02,0.00,0.88,-4,0,-2,55,0
'[12:15:00.196 20/01/2026]',-94066.64,-124600.7,-146050.9,-156392.1,-375000,-375000,-118849.3,-153385.1,0.02,0.00,0.88,-4,0,-2,55,0
'[12:15:00.200 20/01/2026]',-94683.59,-123899.5,-146148.2,-154893.3,-375000,-375000,-118886.6,-152528.7,0.02,0.00,0.88,-4,0,-2,55,0
'[12:15:00.204 20/01/2026]',-95180.92,-123325,-146361.8,-153415,-375000,-375000,-118967,-152045.6,0.02,0.00,0.88,-4,0,-2,55,0
'[12:15:00.208 20/01/2026]',-94410.14,-124264.9,-146300.4,-155339.4,-375000,-375000,-118964.3,-153285.4,0.02,0.00,0.88,-4,0,-2,55,0
'[12:15:00.212 20/01/2026]',-94082.2,-124673.1,-146089.2,-156495.5,-375000,-375000,-118885,-153534.4,0.02,0.00,0.88,-4,0,-2,55,0
'[12:15:00.216 20/01/2026]',-94583.91,-124088.5,-146153.2,-155264.2,-375000,-375000,-118907,-152780.8,0.03,-0.02,0.88,-4,0,-2,55,0
'[12:15:00.220 20/01/2026]',-95217.49,-123347.3,-146378.8,-153492.3,-375000,-375000,-119000.5,-152069.7,0.03,-0.02,0.88,-4,0,-2,55,0
'[12:15:00.224 20/01/2026]',-94651.19,-124090.7,-146385.4,-154945.7,-375000,-375000,-119041.5,-153176.5,0.03,-0.02,0.88,-4,0,-2,55,0
'[12:15:00.228 20/01/2026]',-94109.52,-124745.4,-146152.5,-156544.7,-375000,-375000,-118964.2,-153701,0.03,-0.02,0.88,-4,0,-2,55,0
'[12:15:00.232 20/01/2026]',-94492.4,-124261.1,-146163.7,-155614.5,-375000,-375000,-118956.8,-153029.3,0.03,-0.02,0.88,-4,0,-2,55,0
'[12:15:00.236 20/01/2026]',-95198.18,-123439.1,-146373.3,-153677.5,-375000,-375000,-119037.7,-152157.2,0.03,-0.02,0.88,-4,0,-2,55,0
'[12:15:00.240 20/01/2026]',-94823.34,-123915.3,-146432.5,-154490.3,-375000,-375000,-119065.5,-152966.2,0.03,-0.02,0.88,-4,0,-2,55,0
'[12:15:00.244 20/01/2026]',-94114.52,-124748.5,-146189.7,-156466,-375000,-375000,-118969.7,-153736,0.03,-0.02,0.88,-4,0,-2,55,0
'[12:15:00.248 20/01/2026]',-94376.62,-124391.3,-146148.6,-155880.9,-375000,-375000,-118944.7,-153192.7,0.03,-0.02,0.88,-4,0,-2,55,0
'[12:15:00.252 20/01/2026]',-95130.36,-123553.4,-146343.7,-153936,-375000,-375000,-119021.6,-152258.6,0.03,-0.02,0.88,-4,0,-2,55,0
'[12:15:00.256 20/01/2026]',-95009.98,-123757.9,-146472.8,-154118,-375000,-375000,-119094.8,-152765.6,0.03,-0.02,0.88,-4,0,-2,55,0
'[12:15:00.260 20/01/2026]',-94172.86,-124723.4,-146234.1,-156330.9,-375000,-375000,-119004.1,-153759.3,0.03,-0.02,0.88,-4,0,-2,55,0
'[12:15:00.264 20/01/2026]',-94295.7,-124516.7,-146141.8,-156133.7,-375000,-375000,-118941.5,-153350.7,0.03,-0.02,0.88,-4,0,-2,55,0
'[12:15:00.268 20/01/2026]',-95012.08,-123672.3,-146304.4,-154252.8,-375000,-375000,-118992.8,-152363.8,0.03,-0.02,0.88,-4,0,-2,55,0
'[12:15:00.272 20/01/2026]',-95119.81,-123550.6,-146462.8,-153759.9,-375000,-375000,-119052.6,-152479,0.03,-0.02,0.88,-4,0,-2,55,0
'[12:15:00.276 20/01/2026]',-94231.73,-124583.6,-146261.7,-156056.9,-375000,-375000,-118995.1,-153660.3,0.03,-0.02,0.88,-4,0,-2,55,0
'[12:15:00.280 20/01/2026]',-94181.62,-124569.9,-146114.2,-156286.6,-375000,-375000,-118918.9,-153423.6,0.03,-0.02,0.88,-4,0,-2,55,0
'[12:15:00.284 20/01/2026]',-94860.71,-123802.6,-146248.6,-154587.1,-375000,-375000,-118965,-152481.5,0.03,-0.02,0.88,-4,0,-2,55,0
'[12:15:00.288 20/01/2026]',-95202.73,-123439.6,-146448.9,-153539.9,-375000,-375000,-119048.3,-152263,0.03,0.00,0.88,-4,0,-2,55,0
'[12:15:00.292 20/01/2026]',-94326.86,-124457.4,-146290.6,-155716.1,-375000,-375000,-118987.5,-153481.7,0.03,0.00,0.88,-4,0,-2,55,0
'[12:15:00.296 20/01/2026]',-94107.19,-124638,-146086.7,-156402.3,-375000,-375000,-118883.3,-153464.8,0.03,0.00,0.88,-4,0,-2,55,0
'[12:15:00.300 20/01/2026]',-94682.79,-123940.2,-146167.8,-154921.5,-375000,-375000,-118913.8,-152586.1,0.03,0.00,0.88,-4,0,-2,55,0
'[12:15:00.304 20/01/2026]',-95228.84,-123355.6,-146385,-153432.5,-375000,-375000,-118998.5,-152062.1,0.03,0.00,0.88,-4,0,-2,55,0
'[12:15:00.308 20/01/2026]',-94467.01,-124250,-146300.9,-155295.4,-375000,-375000,-118982.4,-153250.1,0.03,0.00,0.88,-4,0,-2,55,0
'[12:15:00.312 20/01/2026]',-94050.64,-124667.8,-146066.9,-156461.4,-375000,-375000,-118890.6,-153485.9,0.03,0.00,0.88,-4,0,-2,55,0
'[12:15:00.316 20/01/2026]',-94551.5,-124071.5,-146111,-155247.8,-375000,-375000,-118893.3,-152703.3,0.03,0.00,0.88,-4,0,-2,55,0
'[12:15:00.320 20/01/2026]',-95182.89,-123307.7,-146318,-153456.8,-375000,-375000,-118964.7,-151946.4,0.03,0.00,0.88,-4,0,-2,55,0
'[12:15:00.324 20/01/2026]',-94559.63,-124020.4,-146306,-154835.9,-375000,-375000,-118962.4,-152965.1,0.03,-0.02,0.88,-4,0,-2,55,0
'[12:15:00.328 20/01/2026]',-94009.96,-124667.8,-146071.4,-156455.1,-375000,-375000,-118869.5,-153485,0.03,-0.02,0.88,-4,0,-2,55,0
'[12:15:00.332 20/01/2026]',-94409.7,-124210.3,-146092.3,-155568.1,-375000,-375000,-118876.4,-152833.4,0.03,-0.02,0.88,-4,0,-2,55,0
'[12:15:00.336 20/01/2026]',-95117.98,-123377.3,-146298.5,-153643.3,-375000,-375000,-118954.8,-151940.2,0.03,-0.02,0.88,-4,0,-2,55,0
'[12:15:00.340 20/01/2026]',-94762.05,-123814.8,-146340.2,-154403.2,-375000,-375000,-118971,-152707.2,0.03,-0.02,0.88,-4,0,-2,55,0
'[12:15:00.344 20/01/2026]',-94017.6,-124649.7,-146074.2,-156380.4,-375000,-375000,-118869.1,-153493,0.03,-0.02,0.88,-4,0,-2,55,0
'[12:15:00.348 20/01/2026]',-94283.05,-124328.1,-146040.6,-155832.6,-375000,-375000,-118847.8,-152962.1,0.03,-0.02,0.88,-4,0,-2,55,0
'[12:15:00.352 20/01/2026]',-95023.61,-123485.1,-146237.4,-153890.8,-375000,-375000,-118911.1,-152009.6,0.03,-0.02,0.88,-4,0,-2,55,0
'[12:15:00.356 20/01/2026]',-94878.15,-123604.4,-146344,-153992.7,-375000,-375000,-118954.5,-152459.6,0.03,-0.02,0.88,-4,0,-2,55,0
'[12:15:00.360 20/01/2026]',-94026.23,-124547.7,-146088.8,-156214.7,-375000,-375000,-118865.6,-153474.2,0.03,-0.02,0.88,-4,0,-2,55,0
'[12:15:00.364 20/01/2026]',-94162.17,-124396.5,-146001,-156049.5,-375000,-375000,-118836,-153109.1,0.03,-0.02,0.88,-4,0,-2,55,0
'[12:15:00.368 20/01/2026]',-94874.44,-123574.8,-146173.3,-154200.4,-375000,-375000,-118885.5,-152146.7,0.03,-0.02,0.88,-4,0,-2,55,0
'[12:15:00.372 20/01/2026]',-94981.23,-123441.9,-146343.1,-153666.2,-375000,-375000,-118942.8,-152243.7,0.03,-0.02,0.88,-4,0,-2,55,0
'[12:15:00.376 20/01/2026]',-94114.74,-124477.6,-146150.6,-155961.6,-375000,-375000,-118897.4,-153440.3,0.03,-0.02,0.88,-4,0,-2,55,0
'[12:15:00.380 20/01/2026]',-94085.73,-124481.9,-145988.9,-156213.6,-375000,-375000,-118804.2,-153223.3,0.03,-0.02,0.88,-4,0,-2,55,0
'[12:15:00.384 20/01/2026]',-94723.65,-123708.4,-146111.9,-154523.1,-375000,-375000,-118831.1,-152288.2,0.03,-0.02,0.88,-4,0,-2,55,0
'[12:15:00.388 20/01/2026]',-95065.77,-123306.8,-146319.8,-153437.7,-375000,-375000,-118917.7,-152049.2,0.03,-0.02,0.88,-4,0,-2,55,0
'[12:15:00.392 20/01/2026]',-94228.29,-124318.8,-146186.3,-155615.4,-375000,-375000,-118886.4,-153308.4,0.03,-0.02,0.88,-4,0,-2,55,0
'[12:15:00.396 20/01/2026]',-94019.52,-124542.5,-145991.4,-156343.5,-375000,-375000,-118801,-153329.3,0.03,0.00,0.88,-4,0,-2,55,0
'[12:15:00.400 20/01/2026]',-94576.04,-123837,-146061.3,-154873.8,-375000,-375000,-118817.5,-152462.8,0.03,0.00,0.88,-4,0,-2,55,0
'[12:15:00.404 20/01/2026]',-95104.08,-123233.6,-146272.4,-153352.7,-375000,-375000,-118899.3,-151938.5,0.03,0.00,0.88,-4,0,-2,55,0
'[12:15:00.408 20/01/2026]',-94342.59,-124131.2,-146201.1,-155191.1,-375000,-375000,-118885.8,-153142,0.03,0.00,0.88,-4,0,-2,55,0
'[12:15:00.412 20/01/2026]',-93946.79,-124567.8,-145982.1,-156392.7,-375000,-375000,-118799.2,-153412.4,0.03,0.00,0.88,-4,0,-2,55,0
'[12:15:00.416 20/01/2026]',-94422.3,-123996.6,-146024.8,-155206.5,-375000,-375000,-118801.6,-152646.1,0.03,0.00,0.88,-4,0,-2,55,0
'[12:15:00.420 20/01/2026]',-95065.77,-123268.5,-146238.8,-153401.2,-375000,-375000,-118877.9,-151891.1,0.03,0.00,0.88,-4,0,-2,55,0
'[12:15:00.424 20/01/2026]',-94505.05,-123959.3,-146235.1,-154747.7,-375000,-375000,-118891.1,-152930.2,0.03,0.00,0.88,-4,0,-2,55,0
'[12:15:00.428 20/01/2026]',-93932.89,-124599.5,-145983.8,-156383.3,-375000,-375000,-118784.9,-153466.7,0.03,0.00,0.88,-4,0,-2,55,0
'[12:15:00.432 20/01/2026]',-94291.14,-124107.6,-145961.1,-155481.8,-375000,-375000,-118751.3,-152801,0.05,0.00,0.88,-4,0,-2,55,0
'[12:15:00.436 20/01/2026]',-95000.59,-123286.4,-146177.8,-153557.2,-375000,-375000,-118833.6,-151922.2,0.05,0.00,0.88,-4,0,-2,55,0
'[12:15:00.440 20/01/2026]',-94623.73,-123703,-146243.2,-154299,-375000,-375000,-118879.1,-152708.4,0.05,0.00,0.88,-4,0,-2,55,0
'[12:15:00.444 20/01/2026]',-93913.22,-124549.7,-146001.5,-156307.8,-375000,-375000,-118797.7,-153538.7,0.05,0.00,0.88,-4,0,-2,55,0
'[12:15:00.448 20/01/2026]',-94174.16,-124220.3,-145956.2,-155789.7,-375000,-375000,-118756.7,-153032.6,0.05,0.00,0.88,-4,0,-2,55,0
'[12:15:00.452 20/01/2026]',-94875.42,-123370.4,-146146.1,-153853,-375000,-375000,-118812.8,-152080.4,0.05,0.00,0.88,-4,0,-2,55,0
'[12:15:00.456 20/01/2026]',-94759.19,-123506.9,-146250.4,-153913.7,-375000,-375000,-118857.5,-152520.7,0.05,0.00,0.88,-4,0,-2,55,0
'[12:15:00.460 20/01/2026]',-93954.98,-124500.4,-146018.7,-156147.8,-375000,-375000,-118787.1,-153581,0.05,0.00,0.88,-4,0,-2,55,0
'[12:15:00.464 20/01/2026]',-94065.13,-124334.9,-145919.2,-156008.8,-375000,-375000,-118740.7,-153227.1,0.05,0.00,0.88,-4,0,-2,55,0
'[12:15:00.468 20/01/2026]',-94769.91,-123510,-146078.8,-154169.8,-375000,-375000,-118793.7,-152264.3,0.05,0.00,0.88,-4,0,-2,55,0
'[12:15:00.472 20/01/2026]',-94921.24,-123365.3,-146255,-153611.2,-375000,-375000,-118870.6,-152350.3,0.05,0.00,0.88,-4,0,-2,55,0
'[12:15:00.476 20/01/2026]',-94038.97,-124402.5,-146061.1,-155897.4,-375000,-375000,-118812.7,-153547,0.05,0.00,0.88,-4,0,-2,55,0
'[12:15:00.480 20/01/2026]',-93975,-124419.3,-145915.3,-156191.9,-375000,-375000,-118751.4,-153357.1,0.05,0.00,0.88,-4,0,-2,55,0
'[12:15:00.484 20/01/2026]',-94626.38,-123636,-146029,-154516.7,-375000,-375000,-118782.1,-152420.7,0.05,0.00,0.88,-4,0,-2,55,0
'[12:15:00.488 20/01/2026]',-94980.38,-123213,-146225.2,-153386.3,-375000,-375000,-118847,-152142.8,0.05,0.00,0.88,-4,0,-2,55,0
'[12:15:00.492 20/01/2026]',-94124.49,-124219.5,-146087.8,-155519.2,-375000,-375000,-118809.7,-153364.2,0.05,0.00,0.88,-4,0,-2,55,0
'[12:15:00.496 20/01/2026]',-93911.7,-124446.6,-145883.8,-156253,-375000,-375000,-118722.8,-153369.5,0.05,0.00,0.88,-4,0,-2,55,0
'[12:15:00.500 20/01/2026]',-94464.99,-123762.3,-145964,-154792.5,-375000,-375000,-118732.2,-152484.6,0.05,0.00,0.88,-4,0,-2,55,0
'[12:15:00.504 20/01/2026]',-94970.37,-123140.2,-146183.5,-153251.4,-375000,-375000,-118817,-151924.8,0.03,-0.02,0.88,-4,0,-2,55,0
'[12:15:00.508 20/01/2026]',-94263.92,-124019.8,-146112.5,-155047.2,-375000,-375000,-118818,-153105.5,0.03,-0.02,0.88,-4,0,-2,55,0
'[12:15:00.512 20/01/2026]',-93864.85,-124478.8,-145866.3,-156255.3,-375000,-375000,-118721.2,-153377.8,0.03,-0.02,0.88,-4,0,-2,55,0
'[12:15:00.516 20/01/2026]',-94325.12,-123904.9,-145908.2,-155088.1,-375000,-375000,-118719.6,-152600.1,0.03,-0.02,0.88,-4,0,-2,55,0
'[12:15:00.520 20/01/2026]',-94983.02,-123151.7,-146131.6,-153280.8,-375000,-375000,-118802.6,-151820.2,0.03,-0.02,0.88,-4,0,-2,55,0
'[12:15:00.524 20/01/2026]',-94400.98,-123819.8,-146132.8,-154577.7,-375000,-375000,-118826.2,-152829.2,0.03,-0.02,0.88,-4,0,-2,55,0
'[12:15:00.528 20/01/2026]',-93818.85,-124489.6,-145894.3,-156240.2,-375000,-375000,-118732.9,-153379.2,0.03,-0.02,0.88,-4,0,-2,55,0
'[12:15:00.532 20/01/2026]',-94217.2,-124038.4,-145896.1,-155383.8,-375000,-375000,-118713.1,-152724.1,0.03,-0.02,0.88,-4,0,-2,55,0
'[12:15:00.536 20/01/2026]',-94932.64,-123224,-146110.3,-153456.9,-375000,-375000,-118788.7,-151827.9,0.03,-0.02,0.88,-4,0,-2,55,0
'[12:15:00.540 20/01/2026]',-94584.53,-123625.7,-146164.2,-154122.5,-375000,-375000,-118821.1,-152578.9,0.03,-0.02,0.89,-4,0,-2,55,0
'[12:15:00.544 20/01/2026]',-93848.13,-124474.3,-145914.6,-156120.8,-375000,-375000,-118732.1,-153415.1,0.03,-0.02,0.89,-4,0,-2,55,0
'[12:15:00.548 20/01/2026]',-94104.55,-124181.3,-145879.1,-155631.2,-375000,-375000,-118720.2,-152918,0.03,-0.02,0.89,-4,0,-2,55,0
'[12:15:00.552 20/01/2026]',-94838.85,-123367.2,-146073,-153720,-375000,-375000,-118788.1,-151969.4,0.03,-0.02,0.89,-4,0,-2,55,0
'[12:15:00.556 20/01/2026]',-94763.21,-123502.1,-146204,-153741.2,-375000,-375000,-118834.1,-152388.5,0.03,-0.02,0.89,-4,0,-2,55,0
'[12:15:00.560 20/01/2026]',-93914.7,-124462.2,-145953.6,-155937.8,-375000,-375000,-118737.2,-153416.4,0.03,-0.02,0.89,-4,0,-2,55,0
'[12:15:00.564 20/01/2026]',-94028.69,-124335.8,-145861.2,-155833.6,-375000,-375000,-118690.8,-153059.9,0.03,-0.02,0.89,-4,0,-2,55,0
'[12:15:00.568 20/01/2026]',-94750.74,-123570.7,-146037.8,-154040.2,-375000,-375000,-118749.7,-152116.1,0.03,-0.02,0.89,-4,0,-2,55,0
'[12:15:00.572 20/01/2026]',-94922.23,-123432.5,-146210.8,-153453.3,-375000,-375000,-118822.5,-152171.6,0.03,-0.02,0.89,-4,0,-2,55,0
'[12:15:00.576 20/01/2026]',-94048.09,-124461.7,-146022.1,-155721.6,-375000,-375000,-118774.4,-153374.9,0.03,-0.02,0.88,-4,0,-2,55,0
'[12:15:00.580 20/01/2026]',-94004.15,-124516,-145878.4,-156050.2,-375000,-375000,-118711.2,-153197.7,0.03,-0.02,0.88,-4,0,-2,55,0
'[12:15:00.584 20/01/2026]',-94681.41,-123830.1,-146017.9,-154441.1,-375000,-375000,-118753.7,-152293.4,0.03,-0.02,0.88,-4,0,-2,55,0
'[12:15:00.588 20/01/2026]',-95039.7,-123419.9,-146204,-153300.7,-375000,-375000,-118808.4,-151991,0.03,-0.02,0.88,-4,0,-2,55,0
'[12:15:00.592 20/01/2026]',-94223.73,-124399,-146071.7,-155398.5,-375000,-375000,-118773.5,-153229.9,0.03,-0.02,0.88,-4,0,-2,55,0
'[12:15:00.596 20/01/2026]',-94030.52,-124671.2,-145906.7,-156207.7,-375000,-375000,-118707.8,-153306.6,0.03,-0.02,0.88,-4,0,-2,55,0
'[12:15:00.600 20/01/2026]',-94597.05,-124025.2,-145989.9,-154822.8,-375000,-375000,-118726,-152475.2,0.03,-0.02,0.88,-4,0,-2,55,0
'[12:15:00.604 20/01/2026]',-95147.3,-123424.6,-146212.5,-153292.2,-375000,-375000,-118804.4,-151922.1,0.03,-0.02,0.88,-4,0,-2,55,0
'[12:15:00.608 20/01/2026]',-94429.01,-124266.6,-146135.1,-155032.9,-375000,-375000,-118791.4,-153098.6,0.03,-0.02,0.88,-4,0,-2,55,0
'[12:15:00.612 20/01/2026]',-94030.34,-124714.7,-145906.7,-156273.4,-375000,-375000,-118702.6,-153409.7,0.03,0.00,0.89,-4,0,-2,55,0
'[12:15:00.616 20/01/2026]',-94492.71,-124163.1,-145934.2,-155145.8,-375000,-375000,-118682.2,-152664.7,0.03,0.00,0.89,-4,0,-2,55,0
'[12:15:00.620 20/01/2026]',-95130.41,-123399.9,-146149.7,-153362.3,-375000,-375000,-118763.8,-151908.4,0.03,0.00,0.89,-4,0,-2,55,0
'[12:15:00.624 20/01/2026]',-94580.78,-123997.4,-146148.7,-154578.8,-375000,-375000,-118768.2,-152874.2,0.03,0.00,0.89,-4,0,-2,55,0
'[12:15:00.628 20/01/2026]',-93963.83,-124620.4,-145888.4,-156232.8,-375000,-375000,-118648.6,-153419.1,0.03,0.00,0.89,-4,0,-2,55,0
'[12:15:00.632 20/01/2026]',-94283.68,-124131,-145862.4,-155408.8,-375000,-375000,-118619.6,-152776.5,0.03,0.00,0.89,-4,0,-2,55,0
'[12:15:00.636 20/01/2026]',-94970.55,-123296.6,-146059.8,-153518.6,-375000,-375000,-118696.1,-151881.2,0.03,0.00,0.89,-4,0,-2,55,0
'[12:15:00.640 20/01/2026]',-94627.09,-123627.2,-146115.9,-154120.7,-375000,-375000,-118726.5,-152579.8,0.03,0.00,0.89,-4,0,-2,55,0
'[12:15:00.644 20/01/2026]',-93835.57,-124406.1,-145858,-156104,-375000,-375000,-118622.3,-153387.4,0.03,0.00,0.89,-4,0,-2,55,0
'[12:15:00.648 20/01/2026]',-94012.82,-124056.9,-145784.6,-155629.6,-375000,-375000,-118571.2,-152857.6,0.03,-0.02,0.88,-4,0,-2,55,0
'[12:15:00.652 20/01/2026]',-94707.47,-123209.9,-145957.7,-153755.8,-375000,-375000,-118632.6,-151899.5,0.03,-0.02,0.88,-4,0,-2,55,0
'[12:15:00.656 20/01/2026]',-94637.33,-123263.7,-146076.4,-153722.2,-375000,-375000,-118694.1,-152262.4,0.03,-0.02,0.88,-4,0,-2,55,0
'[12:15:00.660 20/01/2026]',-93793.64,-124187.2,-145857,-155920.6,-375000,-375000,-118625,-153316,0.03,-0.02,0.88,-4,0,-2,55,0
'[12:15:00.664 20/01/2026]',-93845.67,-124019.9,-145744.1,-155857.2,-375000,-375000,-118558.8,-152955.3,0.03,-0.02,0.88,-4,0,-2,55,0
'[12:15:00.668 20/01/2026]',-94492.94,-123200.2,-145892.2,-154086.3,-375000,-375000,-118605.1,-151984.9,0.03,-0.02,0.88,-4,0,-2,55,0
'[12:15:00.672 20/01/2026]',-94651.59,-122987.4,-146051.4,-153450.2,-375000,-375000,-118688,-152018.7,0.03,-0.02,0.88,-4,0,-2,55,0
'[12:15:00.676 20/01/2026]',-93769.01,-123941.9,-145863.2,-155650,-375000,-375000,-118607,-153163.5,0.03,-0.02,0.88,-4,0,-2,55,0
'[12:15:00.680 20/01/2026]',-93661.31,-123954.2,-145702.4,-155999.6,-375000,-375000,-118521.3,-152964.7,0.03,-0.02,0.88,-4,0,-2,55,0
'[12:15:00.684 20/01/2026]',-94268.7,-123212.6,-145809.9,-154396,-375000,-375000,-118548,-152055.2,0.03,-0.02,0.88,-4,0,-2,55,0
'[12:15:00.688 20/01/2026]',-94639.25,-122782.1,-146005.8,-153217.6,-375000,-375000,-118604.6,-151745.9,0.03,-0.02,0.88,-4,0,-2,55,0
'[12:15:00.692 20/01/2026]',-93822.16,-123719,-145876.3,-155238.8,-375000,-375000,-118573,-152969.9,0.03,-0.02,0.88,-4,0,-2,55,0
'[12:15:00.696 20/01/2026]',-93566.59,-123944.7,-145675.1,-156029.8,-375000,-375000,-118496,-153036.1,0.03,-0.02,0.88,-4,0,-2,55,0
'[12:15:00.700 20/01/2026]',-94084.21,-123289,-145743.3,-154677,-375000,-375000,-118530.3,-152220.4,0.03,-0.02,0.88,-4,0,-2,55,0
'[12:15:00.704 20/01/2026]',-94610.41,-122666.2,-145957.6,-153144.3,-375000,-375000,-118634.8,-151647.2,0.03,-0.02,0.88,-4,0,-2,55,0
'[12:15:00.708 20/01/2026]',-93918.77,-123493.1,-145892.1,-154804.8,-375000,-375000,-118600.6,-152766.2,0.03,-0.02,0.88,-4,0,-2,55,0
'[12:15:00.712 20/01/2026]',-93494.7,-123962.7,-145665.8,-156043.6,-375000,-375000,-118498.1,-153073.4,0.03,-0.02,0.88,-4,0,-2,55,0
'[12:15:00.716 20/01/2026]',-93935.21,-123409.5,-145687.1,-154940.4,-375000,-375000,-118495.4,-152336.6,0.03,-0.02,0.88,-4,0,-2,55,0
'[12:15:00.720 20/01/2026]',-94570.49,-122670,-145889.8,-153157,-375000,-375000,-118575.5,-151562.6,0.03,0.00,0.88,-4,0,-2,55,0
'[12:15:00.724 20/01/2026]',-94068.16,-123291.5,-145920.3,-154310,-375000,-375000,-118607.7,-152527.8,0.03,0.00,0.88,-4,0,-2,55,0
'[12:15:00.728 20/01/2026]',-93494.57,-123972.3,-145702,-155991.3,-375000,-375000,-118539.6,-153129.1,0.03,0.00,0.88,-4,0,-2,55,0
'[12:15:00.732 20/01/2026]',-93803.16,-123538.8,-145668.6,-155202.6,-375000,-375000,-118508.5,-152484.8,0.03,0.00,0.88,-4,0,-2,55,0
'[12:15:00.736 20/01/2026]',-94500.22,-122724.9,-145843,-153328.8,-375000,-375000,-118563.2,-151563.8,0.03,0.00,0.88,-4,0,-2,55,0
'[12:15:00.740 20/01/2026]',-94225.02,-123064.8,-145920.6,-153860.1,-375000,-375000,-118601.1,-152219.8,0.03,0.00,0.88,-4,0,-2,55,0
'[12:15:00.744 20/01/2026]',-93515.98,-123929.2,-145712.6,-155868.4,-375000,-375000,-118538.9,-153088,0.03,0.00,0.88,-4,0,-2,55,0
'[12:15:00.748 20/01/2026]',-93715.36,-123642.3,-145642.3,-155455,-375000,-375000,-118507,-152610.4,0.03,0.00,0.88,-4,0,-2,55,0
'[12:15:00.752 20/01/2026]',-94371.56,-122809.6,-145791.4,-153593.5,-375000,-375000,-118560,-151664.8,0.03,0.00,0.88,-4,0,-2,55,0
'[12:15:00.756 20/01/2026]',-94335.84,-122872.1,-145922.2,-153499.2,-375000,-375000,-118614,-152001.4,0.05,0.00,0.86,-4,0,-2,55,0
'[12:15:00.760 20/01/2026]',-93560.78,-123837.5,-145722.3,-155661.8,-375000,-375000,-118549.5,-153057.2,0.05,0.00,0.86,-4,0,-2,55,0
'[12:15:00.764 20/01/2026]',-93628.59,-123720.3,-145613.6,-155631.7,-375000,-375000,-118495,-152727,0.05,0.00,0.86,-4,0,-2,55,0
'[12:15:00.768 20/01/2026]',-94255.47,-122921.3,-145726.4,-153890.5,-375000,-375000,-118534.7,-151780.5,0.05,0.00,0.86,-4,0,-2,55,0
'[12:15:00.772 20/01/2026]',-94439.42,-122702,-145903.4,-153205.5,-375000,-375000,-118608,-151774.6,0.05,0.00,0.86,-4,0,-2,55,0
'[12:15:00.776 20/01/2026]',-93638.3,-123704.3,-145751.1,-155367.5,-375000,-375000,-118572.9,-152965.3,0.05,0.00,0.86,-4,0,-2,55,0
'[12:15:00.780 20/01/2026]',-93530.02,-123762.6,-145577.9,-155747.5,-375000,-375000,-118496.1,-152814.7,0.05,0.00,0.86,-4,0,-2,55,0
'[12:15:00.784 20/01/2026]',-94118.59,-123047.5,-145687.2,-154228.5,-375000,-375000,-118537.5,-151931.9,0.05,0.00,0.86,-4,0,-2,55,0
'[12:15:00.788 20/01/2026]',-94503.93,-122595.9,-145880.7,-153061.4,-375000,-375000,-118606.5,-151597.4,0.05,0.00,0.86,-4,0,-2,55,0
'[12:15:00.792 20/01/2026]',-93754.92,-123542.1,-145783.8,-155036.3,-375000,-375000,-118587,-152797.2,0.05,0.00,0.88,-4,0,-2,55,0
'[12:15:00.796 20/01/2026]',-93500.3,-123809.4,-145587.1,-155865.2,-375000,-375000,-118491.8,-152862,0.05,0.00,0.88,-4,0,-2,55,0
'[12:15:00.800 20/01/2026]',-93999.32,-123168.3,-145645.3,-154565.3,-375000,-375000,-118496.1,-152042.8,0.05,0.00,0.88,-4,0,-2,55,0
'[12:15:00.804 20/01/2026]',-94521.99,-122540,-145846.3,-153037.3,-375000,-375000,-118571.4,-151439.5,0.05,0.00,0.88,-4,0,-2,55,0
'[12:15:00.808 20/01/2026]',-93886.04,-123337.8,-145802.5,-154623.9,-375000,-375000,-118577.8,-152553.9,0.05,0.00,0.88,-4,0,-2,55,0
'[12:15:00.812 20/01/2026]',-93470.12,-123827.7,-145587.5,-155891.4,-375000,-375000,-118501.1,-152897.7,0.05,0.00,0.88,-4,0,-2,55,0
'[12:15:00.816 20/01/2026]',-93876.02,-123311.4,-145623.8,-154878.6,-375000,-375000,-118513.5,-152192.8,0.05,0.00,0.88,-4,0,-2,55,0
'[12:15:00.820 20/01/2026]',-94470.27,-122554.5,-145785.7,-153121.8,-375000,-375000,-118529.6,-151366.3,0.05,0.00,0.88,-4,0,-2,55,0
'[12:15:00.824 20/01/2026]',-94011.34,-123137.3,-145796.9,-154186.9,-375000,-375000,-118543.1,-152285.8,0.05,0.00,0.88,-4,0,-2,55,0
'[12:15:00.828 20/01/2026]',-93476.16,-123828.8,-145583.3,-155847.4,-375000,-375000,-118478,-152910.4,0.03,-0.02,0.89,-4,0,-2,55,0
'[12:15:00.832 20/01/2026]',-93773.92,-123416.8,-145555.1,-155117.8,-375000,-375000,-118452.1,-152318.1,0.03,-0.02,0.89,-4,0,-2,55,0
'[12:15:00.836 20/01/2026]',-94430.26,-122618.1,-145734.1,-153304.2,-375000,-375000,-118514.1,-151450.5,0.03,-0.02,0.89,-4,0,-2,55,0
'[12:15:00.840 20/01/2026]',-94179.02,-122924.8,-145805.1,-153773,-375000,-375000,-118556.5,-152083.1,0.03,-0.02,0.89,-4,0,-2,55,0
'[12:15:00.844 20/01/2026]',-93494.39,-123773.2,-145593.8,-155713.1,-375000,-375000,-118498.8,-152958,0.03,-0.02,0.89,-4,0,-2,55,0
'[12:15:00.848 20/01/2026]',-93676.29,-123501.4,-145523.5,-155321.9,-375000,-375000,-118457.4,-152511.6,0.03,-0.02,0.89,-4,0,-2,55,0
'[12:15:00.852 20/01/2026]',-94333.7,-122707.9,-145683.3,-153546.1,-375000,-375000,-118518.2,-151600,0.03,-0.02,0.89,-4,0,-2,55,0
'[12:15:00.856 20/01/2026]',-94321.27,-122762.2,-145812.3,-153410.4,-375000,-375000,-118578.9,-151910.4,0.03,-0.02,0.89,-4,0,-2,55,0
'[12:15:00.860 20/01/2026]',-93549.65,-123709.8,-145614,-155503.7,-375000,-375000,-118515.8,-152965.7,0.03,-0.02,0.89,-4,0,-2,55,0
'[12:15:00.864 20/01/2026]',-93606.87,-123605.9,-145500.9,-155482.7,-375000,-375000,-118453.1,-152655.5,0.03,-0.02,0.88,-4,0,-2,55,0
'[12:15:00.868 20/01/2026]',-94229.01,-122847.3,-145626.6,-153812.9,-375000,-375000,-118484.9,-151723.3,0.03,-0.02,0.88,-4,0,-2,55,0
'[12:15:00.872 20/01/2026]',-94422.26,-122610.4,-145792.9,-153107,-375000,-375000,-118552.2,-151684.2,0.03,-0.02,0.88,-4,0,-2,55,0
'[12:15:00.876 20/01/2026]',-93639.14,-123580.4,-145644.7,-155211.6,-375000,-375000,-118532.7,-152876.7,0.03,-0.02,0.88,-4,0,-2,55,0
'[12:15:00.880 20/01/2026]',-93549.87,-123663.9,-145492.7,-155641.3,-375000,-375000,-118469.6,-152764.1,0.03,-0.02,0.88,-4,0,-2,55,0
'[12:15:00.884 20/01/2026]',-94121.8,-122970.1,-145583.3,-154176.6,-375000,-375000,-118486.9,-151885.5,0.03,-0.02,0.88,-4,0,-2,55,0
'[12:15:00.888 20/01/2026]',-94499.64,-122514.2,-145760.4,-153018.5,-375000,-375000,-118546.6,-151539.6,0.03,-0.02,0.88,-4,0,-2,55,0
'[12:15:00.892 20/01/2026]',-93763.38,-123416.1,-145661.5,-154901.1,-375000,-375000,-118532.2,-152718,0.03,-0.02,0.88,-4,0,-2,55,0
'[12:15:00.896 20/01/2026]',-93514.2,-123700.1,-145466.6,-155747,-375000,-375000,-118455.6,-152833.6,0.03,-0.02,0.88,-4,0,-2,55,0
'[12:15:00.900 20/01/2026]',-94003.16,-123081.5,-145525.9,-154515,-375000,-375000,-118465.5,-152056,0.03,0.00,0.89,-4,0,-2,55,0
'[12:15:00.904 20/01/2026]',-94543,-122469.1,-145731.5,-153043.7,-375000,-375000,-118560.2,-151482.2,0.03,0.00,0.89,-4,0,-2,55,0
'[12:15:00.908 20/01/2026]',-93926.99,-123208.4,-145681.9,-154559.3,-375000,-375000,-118574,-152555.5,0.03,0.00,0.89,-4,0,-2,55,0
'[12:15:00.912 20/01/2026]',-93486.26,-123685.5,-145439.8,-155810,-375000,-375000,-118476.9,-152902,0.03,0.00,0.89,-4,0,-2,55,0
'[12:15:00.916 20/01/2026]',-93898.87,-123249.4,-145480.3,-154875,-375000,-375000,-118491.1,-152222.2,0.03,0.00,0.89,-4,0,-2,55,0
'[12:15:00.920 20/01/2026]',-94531.78,-122603,-145696,-153230.7,-375000,-375000,-118574.7,-151471.6,0.03,0.00,0.89,-4,0,-2,55,0
'[12:15:00.924 20/01/2026]',-94102.77,-123199.8,-145713.6,-154232.9,-375000,-375000,-118600,-152347.3,0.03,0.00,0.89,-4,0,-2,55,0
'[12:15:00.928 20/01/2026]',-93523.72,-123909.8,-145494.1,-155846.9,-375000,-375000,-118515.1,-152948.8,0.03,0.00,0.89,-4,0,-2,55,0
'[12:15:00.932 20/01/2026]',-93826.27,-123517.2,-145482.1,-155173.5,-375000,-375000,-118472.4,-152363.7,0.03,0.00,0.89,-4,0,-2,55,0
'[12:15:00.936 20/01/2026]',-94454.18,-122741.3,-145662.6,-153423.6,-375000,-375000,-118530.8,-151495.9,0.03,0.00,0.88,-4,0,-2,55,0
'[12:15:00.940 20/01/2026]',-94200.71,-123000,-145733,-153825.9,-375000,-375000,-118569.1,-152075.5,0.03,0.00,0.88,-4,0,-2,55,0
'[12:15:00.944 20/01/2026]',-93522.42,-123837,-145529,-155714.4,-375000,-375000,-118511.6,-152936.8,0.03,0.00,0.88,-4,0,-2,55,0
'[12:15:00.948 20/01/2026]',-93699.67,-123645.7,-145462.9,-155386.3,-375000,-375000,-118478.3,-152519.9,0.03,0.00,0.88,-4,0,-2,55,0
'[12:15:00.952 20/01/2026]',-94335.13,-122962.6,-145619.4,-153700.9,-375000,-375000,-118533.4,-151632,0.03,0.00,0.88,-4,0,-2,55,0
'[12:15:00.956 20/01/2026]',-94326.82,-123060.4,-145762.1,-153541.5,-375000,-375000,-118602.7,-151906.3,0.03,0.00,0.88,-4,0,-2,55,0
'[12:15:00.960 20/01/2026]',-93560.87,-124032.6,-145571.9,-155537.2,-375000,-375000,-118551.3,-152922,0.03,0.00,0.88,-4,0,-2,55,0
'[12:15:00.964 20/01/2026]',-93561.9,-123967.2,-145433.8,-155565.1,-375000,-375000,-118450.6,-152617.9,0.03,0.00,0.88,-4,0,-2,55,0
'[12:15:00.968 20/01/2026]',-94184.98,-123247.5,-145581.9,-154023.6,-375000,-375000,-118500.4,-151743.5,0.03,0.00,0.88,-4,0,-2,55,0
'[12:15:00.972 20/01/2026]',-94408.71,-122972.3,-145770.2,-153338.2,-375000,-375000,-118587.2,-151703.5,0.03,0.00,0.88,-4,0,-2,55,0
'[12:15:00.976 20/01/2026]',-93621.44,-123827.9,-145621.5,-155303.8,-375000,-375000,-118552.3,-152838.9,0.03,0.00,0.88,-4,0,-2,55,0
'[12:15:00.980 20/01/2026]',-93499.67,-123842.6,-145467,-155725.7,-375000,-375000,-118476.2,-152751.8,0.03,0.00,0.88,-4,0,-2,55,0
'[12:15:00.984 20/01/2026]',-94062.66,-123125,-145570.5,-154350.1,-375000,-375000,-118496.8,-151943.8,0.03,0.00,0.88,-4,0,-2,55,0
'[12:15:00.988 20/01/2026]',-94433.39,-122594,-145756.7,-153196.7,-375000,-375000,-118549,-151588.1,0.03,0.00,0.88,-4,0,-2,55,0
'[12:15:00.992 20/01/2026]',-93727.03,-123367.3,-145645.7,-154911,-375000,-375000,-118502.2,-152685.3,0.03,0.00,0.88,-4,0,-2,55,0
'[12:15:00.996 20/01/2026]',-93433.73,-123617.8,-145476.1,-155746.8,-375000,-375000,-118441.2,-152825.7,0.03,0.00,0.88,-4,0,-2,55,0
'[12:15:01.000 20/01/2026]',-93910.41,-123044.1,-145524.3,-154581.4,-375000,-375000,-118453.6,-152084.3,0.03,0.00,0.88,-4,0,-2,55,0
'[12:15:01.004 20/01/2026]',-94427.8,-122434.7,-145703.4,-153106.5,-375000,-375000,-118500.3,-151504.5,0.03,0.00,0.88,-4,0,-2,55,0
'[12:15:01.008 20/01/2026]',-93838.84,-123111.7,-145663,-154461.4,-375000,-375000,-118499.5,-152541.1,0.05,-0.02,0.88,-4,0,-2,55,0
'[12:15:01.012 20/01/2026]',-93425.28,-123592,-145483.8,-155704.7,-375000,-375000,-118452.7,-152981.3,0.05,-0.02,0.88,-4,0,-2,55,0
'[12:15:01.016 20/01/2026]',-93792.38,-123120.1,-145509.7,-154799.8,-375000,-375000,-118423.4,-152360.2,0.05,-0.02,0.88,-4,0,-2,55,0
'[12:15:01.020 20/01/2026]',-94374.16,-122407.9,-145701.2,-153154.8,-375000,-375000,-118466.8,-151621,0.05,-0.02,0.88,-4,0,-2,55,0
'[12:15:01.024 20/01/2026]',-93970.71,-122877.6,-145736.4,-154032.3,-375000,-375000,-118503,-152453.3,0.05,-0.02,0.88,-4,0,-2,55,0
'[12:15:01.028 20/01/2026]',-93402.39,-123509.2,-145527.4,-155602.7,-375000,-375000,-118433,-153076.2,0.05,-0.02,0.88,-4,0,-2,55,0
'[12:15:01.032 20/01/2026]',-93667.75,-123145.7,-145518.5,-154989.8,-375000,-375000,-118411.6,-152536.8,0.05,-0.02,0.88,-4,0,-2,55,0
'[12:15:01.036 20/01/2026]',-94263.12,-122395.8,-145689.7,-153309.7,-375000,-375000,-118448.2,-151679.9,0.05,-0.02,0.88,-4,0,-2,55,0
'[12:15:01.040 20/01/2026]',-94071.38,-122639.6,-145788.7,-153660.8,-375000,-375000,-118504.4,-152233.8,0.05,-0.02,0.88,-4,0,-2,55,0
'[12:15:01.044 20/01/2026]',-93424.84,-123435.7,-145604.9,-155486.6,-375000,-375000,-118459,-153073.1,0.03,-0.02,0.88,-4,0,-2,55,0
'[12:15:01.048 20/01/2026]',-93571.51,-123210.5,-145532.5,-155190.2,-375000,-375000,-118403.8,-152658.2,0.03,-0.02,0.88,-4,0,-2,55,0
'[12:15:01.052 20/01/2026]',-94187.43,-122480.4,-145683.8,-153568.5,-375000,-375000,-118453,-151785.7,0.03,-0.02,0.88,-4,0,-2,55,0
'[12:15:01.056 20/01/2026]',-94208.98,-122466.7,-145814.3,-153345.3,-375000,-375000,-118515.5,-152023.2,0.03,-0.02,0.88,-4,0,-2,55,0
'[12:15:01.060 20/01/2026]',-93473.56,-123335.6,-145635.3,-155271.6,-375000,-375000,-118462,-153011,0.03,-0.02,0.88,-4,0,-2,55,0
'[12:15:01.064 20/01/2026]',-93481.3,-123261.6,-145520.8,-155349.7,-375000,-375000,-118397.9,-152733.5,0.03,-0.02,0.88,-4,0,-2,55,0
'[12:15:01.068 20/01/2026]',-94059.85,-122549.6,-145618.6,-153844.6,-375000,-375000,-118434.9,-151874.7,0.03,-0.02,0.88,-4,0,-2,55,0
'[12:15:01.072 20/01/2026]',-94306.52,-122305.9,-145788.3,-153134.4,-375000,-375000,-118515.3,-151795.1,0.03,-0.02,0.88,-4,0,-2,55,0
'[12:15:01.076 20/01/2026]',-93572.89,-123198.2,-145658.4,-155037.1,-375000,-375000,-118481,-152862.2,0.03,-0.02,0.88,-4,0,-2,55,0
'[12:15:01.080 20/01/2026]',-93431.45,-123292.5,-145493.5,-155490.5,-375000,-375000,-118397.9,-152763.5,0.03,-0.02,0.89,-4,0,-2,55,0
'[12:15:01.084 20/01/2026]',-93950.5,-122653.5,-145553.7,-154163.6,-375000,-375000,-118428.8,-151953.7,0.03,-0.02,0.89,-4,0,-2,55,0
'[12:15:01.088 20/01/2026]',-94339.96,-122190.8,-145741.6,-153014.4,-375000,-375000,-118496.7,-151570.2,0.03,-0.02,0.89,-4,0,-2,55,0
'[12:15:01.092 20/01/2026]',-93660.87,-123017.5,-145650.3,-154706,-375000,-375000,-118480.4,-152629.7,0.03,-0.02,0.89,-4,0,-2,55,0
'[12:15:01.096 20/01/2026]',-93397.25,-123338.4,-145470.3,-155588.4,-375000,-375000,-118427,-152766.7,0.03,-0.02,0.89,-4,0,-2,55,0
'[12:15:01.100 20/01/2026]',-93836.69,-122798.5,-145513.4,-154487.6,-375000,-375000,-118428.2,-152008.5,0.03,-0.02,0.89,-4,0,-2,55,0
'[12:15:01.104 20/01/2026]',-94346.58,-122176.7,-145687.1,-153026.2,-375000,-375000,-118478,-151362.3,0.03,-0.02,0.89,-4,0,-2,55,0
'[12:15:01.108 20/01/2026]',-93779.55,-122811.9,-145658.5,-154341.8,-375000,-375000,-118476.2,-152311.3,0.03,-0.02,0.89,-4,0,-2,55,0
'[12:15:01.112 20/01/2026]',-93343.74,-123301.9,-145445.3,-155599.2,-375000,-375000,-118399.9,-152667.4,0.03,-0.02,0.89,-4,0,-2,55,0
'[12:15:01.116 20/01/2026]',-93730.65,-122888,-145458.9,-154755,-375000,-375000,-118400.7,-152022.1,0.03,-0.02,0.88,-4,0,-2,55,0
'[12:15:01.120 20/01/2026]',-94344.84,-122221,-145635.7,-153147.1,-375000,-375000,-118476.6,-151265,0.03,-0.02,0.88,-4,0,-2,55,0
'[12:15:01.124 20/01/2026]',-93985.59,-122720.9,-145681.3,-153994.3,-375000,-375000,-118508.9,-152048.7,0.03,-0.02,0.88,-4,0,-2,55,0
'[12:15:01.128 20/01/2026]',-93401.19,-123392.2,-145449.2,-155569.1,-375000,-375000,-118393.2,-152619.4,0.03,-0.02,0.88,-4,0,-2,55,0
'[12:15:01.132 20/01/2026]',-93636.15,-123047.8,-145383.2,-154975.2,-375000,-375000,-118349.8,-152067.8,0.03,-0.02,0.88,-4,0,-2,55,0
'[12:15:01.136 20/01/2026]',-94293.65,-122359.4,-145564.9,-153319.9,-375000,-375000,-118434.5,-151223.9,0.03,-0.02,0.88,-4,0,-2,55,0
'[12:15:01.140 20/01/2026]',-94133.02,-122618.1,-145665.3,-153613.9,-375000,-375000,-118492.5,-151740.4,0.03,-0.02,0.88,-4,0,-2,55,0
'[12:15:01.144 20/01/2026]',-93450.05,-123432.9,-145460.1,-155435.1,-375000,-375000,-118424.1,-152607.1,0.03,-0.02,0.88,-4,0,-2,55,0
'[12:15:01.148 20/01/2026]',-93591.84,-123237.3,-145389.5,-155179,-375000,-375000,-118391.2,-152217.4,0.03,-0.02,0.88,-4,0,-2,55,0
'[12:15:01.152 20/01/2026]',-94198.83,-122510.6,-145525.4,-153547.2,-375000,-375000,-118444.1,-151349.4,0.03,0.00,0.89,-4,0,-2,55,0
'[12:15:01.156 20/01/2026]',-94235.27,-122490.1,-145658.3,-153264.5,-375000,-375000,-118497.7,-151548,0.03,0.00,0.89,-4,0,-2,55,0
'[12:15:01.160 20/01/2026]',-93491.84,-123389.3,-145493.9,-155200.8,-375000,-375000,-118444.5,-152561.9,0.03,0.00,0.89,-4,0,-2,55,0
'[12:15:01.164 20/01/2026]',-93494.26,-123343.8,-145375.6,-155301.5,-375000,-375000,-118392.2,-152333,0.03,0.00,0.89,-4,0,-2,55,0
'[12:15:01.168 20/01/2026]',-94072.68,-122667.3,-145479.1,-153804.7,-375000,-375000,-118440.8,-151492.9,0.03,0.00,0.89,-4,0,-2,55,0
'[12:15:01.172 20/01/2026]',-94306.25,-122410.9,-145639.2,-153024.5,-375000,-375000,-118502.2,-151368.3,0.03,0.00,0.89,-4,0,-2,55,0
'[12:15:01.176 20/01/2026]',-93552.38,-123308.2,-145512.6,-154915.4,-375000,-375000,-118465.6,-152490.4,0.03,0.00,0.89,-4,0,-2,55,0
'[12:15:01.180 20/01/2026]',-93400.96,-123427.9,-145350.7,-155412.2,-375000,-375000,-118401.7,-152445.9,0.03,0.00,0.89,-4,0,-2,55,0
'[12:15:01.184 20/01/2026]',-93911.12,-122798.2,-145418.8,-154091.4,-375000,-375000,-118422,-151628.7,0.03,0.00,0.89,-4,0,-2,55,0
'[12:15:01.188 20/01/2026]',-94306.88,-122339.2,-145585.7,-152909.9,-375000,-375000,-118492.9,-151237.9,0.03,0.00,0.88,-4,0,-2,55,0
'[12:15:01.192 20/01/2026]',-93608.7,-123151.4,-145507.2,-154574.1,-375000,-375000,-118479.5,-152348,0.03,0.00,0.88,-4,0,-2,55,0
'[12:15:01.196 20/01/2026]',-93309.55,-123472.6,-145315.2,-155487.2,-375000,-375000,-118415.4,-152537,0.03,0.00,0.88,-4,0,-2,55,0
'[12:15:01.200 20/01/2026]',-93763.2,-122946.6,-145358.4,-154410.6,-375000,-375000,-118441.8,-151831.6,0.03,0.00,0.88,-4,0,-2,55,0
'[12:15:01.204 20/01/2026]',-94279.16,-122339.2,-145529.4,-152942.4,-375000,-375000,-118500.9,-151204.1,0.03,0.00,0.88,-4,0,-2,55,0
'[12:15:01.208 20/01/2026]',-93710.98,-122990.2,-145504.4,-154220,-375000,-375000,-118493.3,-152185.6,0.03,0.00,0.88,-4,0,-2,55,0
'[12:15:01.212 20/01/2026]',-93263.95,-123513,-145310.1,-155524.4,-375000,-375000,-118418.1,-152617.1,0.03,0.00,0.88,-4,0,-2,55,0
'[12:15:01.216 20/01/2026]',-93612.5,-123084.6,-145304.9,-154701.4,-375000,-375000,-118409.2,-151989.5,0.03,0.00,0.88,-4,0,-2,55,0
'[12:15:01.220 20/01/2026]',-94206.3,-122388.9,-145472.2,-153092.2,-375000,-375000,-118477,-151224.7,0.03,0.00,0.88,-4,0,-2,55,0
'[12:15:01.224 20/01/2026]',-93841.88,-122839.1,-145525.3,-153876.1,-375000,-375000,-118508,-152015.8,0.03,-0.02,0.88,-4,0,-2,55,0
'[12:15:01.228 20/01/2026]',-93245.62,-123521.8,-145316.7,-155497.1,-375000,-375000,-118438.5,-152719.7,0.03,-0.02,0.88,-4,0,-2,55,0
'[12:15:01.232 20/01/2026]',-93488.94,-123196.2,-145275,-154968,-375000,-375000,-118420.7,-152242.6,0.03,-0.02,0.88,-4,0,-2,55,0
'[12:15:01.236 20/01/2026]',-94107.99,-122448,-145416.4,-153286.4,-375000,-375000,-118462.3,-151380.4,0.03,-0.02,0.88,-4,0,-2,55,0
'[12:15:01.240 20/01/2026]',-93932.13,-122635.4,-145517.2,-153519.5,-375000,-375000,-118499.9,-151894.1,0.03,-0.02,0.88,-4,0,-2,55,0
'[12:15:01.244 20/01/2026]',-93245.08,-123460.6,-145347.5,-155387.7,-375000,-375000,-118449,-152832.1,0.03,-0.02,0.88,-4,0,-2,55,0
'[12:15:01.248 20/01/2026]',-93377.72,-123276,-145263.8,-155163.8,-375000,-375000,-118394.4,-152483.4,0.03,-0.02,0.88,-4,0,-2,55,0
'[12:15:01.252 20/01/2026]',-93997.48,-122543.5,-145393.7,-153544,-375000,-375000,-118436.3,-151618.2,0.03,-0.02,0.88,-4,0,-2,55,0
'[12:15:01.256 20/01/2026]',-94048.67,-122490.7,-145542.8,-153236,-375000,-375000,-118490.1,-151807.2,0.03,-0.02,0.88,-4,0,-2,55,0
'[12:15:01.260 20/01/2026]',-93293.05,-123369.4,-145387.7,-155167,-375000,-375000,-118426.7,-152860.8,0.03,-0.02,0.88,-4,0,-2,55,0
'[12:15:01.264 20/01/2026]',-93274.36,-123308.6,-145257.8,-155295.8,-375000,-375000,-118365.4,-152650.9,0.03,-0.02,0.88,-4,0,-2,55,0
'[12:15:01.268 20/01/2026]',-93855.59,-122621.1,-145366,-153814.6,-375000,-375000,-118400.9,-151813.7,0.03,-0.02,0.88,-4,0,-2,55,0
'[12:15:01.272 20/01/2026]',-94119.21,-122331.2,-145547.5,-152994.1,-375000,-375000,-118467.9,-151690.8,0.03,-0.02,0.88,-4,0,-2,55,0
'[12:15:01.276 20/01/2026]',-93365.65,-123201.5,-145446.8,-154861.1,-375000,-375000,-118429.1,-152831.8,0.03,-0.02,0.88,-4,0,-2,55,0
'[12:15:01.280 20/01/2026]',-93190.72,-123322.4,-145276.3,-155391.3,-375000,-375000,-118342.8,-152814,0.03,-0.02,0.88,-4,0,-2,55,0
'[12:15:01.284 20/01/2026]',-93735.21,-122729.8,-145380.8,-154127.6,-375000,-375000,-118402.3,-152082.7,0.03,-0.02,0.88,-4,0,-2,55,0
'[12:15:01.288 20/01/2026]',-94160.56,-122252.5,-145559.9,-152913.3,-375000,-375000,-118472.2,-151690.7,0.03,-0.02,0.88,-4,0,-2,55,0
'[12:15:01.292 20/01/2026]',-93483.58,-123037.8,-145512.8,-154538.5,-375000,-375000,-118447.1,-152781.5,0.03,-0.02,0.88,-4,0,-2,55,0
'[12:15:01.296 20/01/2026]',-93164.75,-123353.8,-145324.9,-155472,-375000,-375000,-118359.2,-152983.2,0.03,0.00,0.89,-4,0,-2,55,0
'[12:15:01.300 20/01/2026]',-93605.93,-122821.3,-145358.7,-154407.2,-375000,-375000,-118363.1,-152295.1,0.03,0.00,0.89,-4,0,-2,55,0
'[12:15:01.304 20/01/2026]',-94151.18,-122201.3,-145543.5,-152927.7,-375000,-375000,-118451.4,-151688.2,0.03,0.00,0.89,-4,0,-2,55,0
'[12:15:01.308 20/01/2026]',-93634.49,-122847.1,-145573.8,-154171.8,-375000,-375000,-118474.8,-152664,0.03,0.00,0.89,-4,0,-2,55,0
'[12:15:01.312 20/01/2026]',-93163.37,-123375.1,-145375,-155501.6,-375000,-375000,-118384.2,-153099.1,0.03,0.00,0.89,-4,0,-2,55,0
'[12:15:01.316 20/01/2026]',-93504.54,-122950.1,-145366.3,-154708.6,-375000,-375000,-118373.4,-152493.8,0.03,0.00,0.89,-4,0,-2,55,0
'[12:15:01.320 20/01/2026]',-94115.05,-122254.3,-145528.5,-153093.5,-375000,-375000,-118443.4,-151731.1,0.03,0.00,0.89,-4,0,-2,55,0
'[12:15:01.324 20/01/2026]',-93749.88,-122658.5,-145581.7,-153812.7,-375000,-375000,-118446.5,-152454.1,0.03,0.00,0.89,-4,0,-2,55,0
'[12:15:01.328 20/01/2026]',-93148.21,-123339.9,-145394.8,-155459.5,-375000,-375000,-118369.8,-153129,0.03,0.00,0.89,-4,0,-2,55,0
'[12:15:01.332 20/01/2026]',-93384.52,-123025.2,-145336.2,-154959.4,-375000,-375000,-118344.6,-152636.2,0.05,-0.02,0.88,-4,0,-2,55,0
'[12:15:01.336 20/01/2026]',-94028.06,-122306.9,-145488.4,-153318.1,-375000,-375000,-118413.6,-151783.1,0.05,-0.02,0.88,-4,0,-2,55,0
'[12:15:01.340 20/01/2026]',-93894.04,-122479.1,-145604.9,-153501.8,-375000,-375000,-118454.7,-152213.1,0.05,-0.02,0.88,-4,0,-2,55,0
'[12:15:01.344 20/01/2026]',-93177,-123275,-145415,-155359,-375000,-375000,-118377.6,-153077.7,0.05,-0.02,0.88,-4,0,-2,55,0
'[12:15:01.348 20/01/2026]',-93287.91,-123085.4,-145311.5,-155179.3,-375000,-375000,-118323.7,-152699,0.05,-0.02,0.88,-4,0,-2,55,0
'[12:15:01.352 20/01/2026]',-93914.47,-122371.3,-145430.5,-153588.3,-375000,-375000,-118365.7,-151810.7,0.05,-0.02,0.88,-4,0,-2,55,0
'[12:15:01.356 20/01/2026]',-93981.17,-122298.5,-145575.4,-153234,-375000,-375000,-118422,-151941.5,0.05,-0.02,0.88,-4,0,-2,55,0
'[12:15:01.360 20/01/2026]',-93211.51,-123155.3,-145416.2,-155167.7,-375000,-375000,-118348.7,-152949.7,0.05,-0.02,0.88,-4,0,-2,55,0
'[12:15:01.364 20/01/2026]',-93220.9,-123149,-145295.5,-155358.8,-375000,-375000,-118309.8,-152749.8,0.05,-0.02,0.88,-4,0,-2,55,0
'[12:15:01.368 20/01/2026]',-93828.82,-122510.2,-145411.3,-153926.3,-375000,-375000,-118383.3,-151922.9,0.03,0.00,0.89,-4,0,-2,55,0
'[12:15:01.372 20/01/2026]',-94101.42,-122205.8,-145568.1,-153063,-375000,-375000,-118447.9,-151741.4,0.03,0.00,0.89,-4,0,-2,55,0
'[12:15:01.376 20/01/2026]',-93340.75,-123056.5,-145462.8,-154904.9,-375000,-375000,-118399.5,-152804.9,0.03,0.00,0.89,-4,0,-2,55,0
'[12:15:01.380 20/01/2026]',-93166.94,-123200.4,-145284.1,-155459.5,-375000,-375000,-118315.4,-152772.1,0.03,0.00,0.89,-4,0,-2,55,0
'[12:15:01.384 20/01/2026]',-93679.16,-122596.5,-145329.1,-154171.7,-375000,-375000,-118340.7,-151985.6,0.03,0.00,0.89,-4,0,-2,55,0
'[12:15:01.388 20/01/2026]',-94118.81,-122111.2,-145503.8,-152924.5,-375000,-375000,-118426.1,-151544.2,0.03,0.00,0.89,-4,0,-2,55,0
'[12:15:01.392 20/01/2026]',-93453.94,-122887,-145461.3,-154516.5,-375000,-375000,-118394.9,-152593,0.03,0.00,0.89,-4,0,-2,55,0
'[12:15:01.396 20/01/2026]',-93122.1,-123214.3,-145258.7,-155460.8,-375000,-375000,-118291.8,-152769.8,0.03,0.00,0.89,-4,0,-2,55,0
'[12:15:01.400 20/01/2026]',-93556.8,-122693,-145284.5,-154413.6,-375000,-375000,-118314.8,-152068.6,0.03,0.00,0.89,-4,0,-2,55,0
'[12:15:01.404 20/01/2026]',-94116.58,-122075,-145458.8,-152921.9,-375000,-375000,-118406.3,-151437.6,0.03,-0.02,0.88,-4,0,-2,55,0
'[12:15:01.408 20/01/2026]',-93582.02,-122668.5,-145463.8,-154092.2,-375000,-375000,-118375.5,-152309,0.03,-0.02,0.88,-4,0,-2,55,0
'[12:15:01.412 20/01/2026]',-93086.38,-123185.2,-145253.8,-155422.7,-375000,-375000,-118276.2,-152727.7,0.03,-0.02,0.88,-4,0,-2,55,0
'[12:15:01.416 20/01/2026]',-93439.77,-122789.6,-145250,-154642,-375000,-375000,-118284.4,-152119.4,0.03,-0.02,0.88,-4,0,-2,55,0
'[12:15:01.420 20/01/2026]',-94069.82,-122106.6,-145411.6,-153010.9,-375000,-375000,-118370.6,-151353.5,0.03,-0.02,0.88,-4,0,-2,55,0
'[12:15:01.424 20/01/2026]',-93726.45,-122504.4,-145480.5,-153703.3,-375000,-375000,-118386.8,-152057.8,0.03,-0.02,0.88,-4,0,-2,55,0
'[12:15:01.428 20/01/2026]',-93090.85,-123176.1,-145268.9,-155343.5,-375000,-375000,-118286.9,-152712.8,0.03,-0.02,0.88,-4,0,-2,55,0
'[12:15:01.432 20/01/2026]',-93336.01,-122893.5,-145225.2,-154868.1,-375000,-375000,-118269.4,-152206.2,0.03,-0.02,0.88,-4,0,-2,55,0
'[12:15:01.436 20/01/2026]',-93989.62,-122185.6,-145377.2,-153221.9,-375000,-375000,-118345.2,-151360.6,0.03,-0.02,0.88,-4,0,-2,55,0
'[12:15:01.440 20/01/2026]',-93858.33,-122329,-145494.3,-153345.7,-375000,-375000,-118385.4,-151786,0.03,0.00,0.88,-4,0,-2,55,0
'[12:15:01.444 20/01/2026]',-93115.3,-123120.2,-145298.1,-155193.9,-375000,-375000,-118281.7,-152644,0.03,0.00,0.88,-4,0,-2,55,0
'[12:15:01.448 20/01/2026]',-93232.21,-122960,-145206.4,-155037.5,-375000,-375000,-118247.8,-152288.1,0.03,0.00,0.88,-4,0,-2,55,0
'[12:15:01.452 20/01/2026]',-93869.77,-122269.5,-145344.3,-153469.4,-375000,-375000,-118328.4,-151447.3,0.03,0.00,0.88,-4,0,-2,55,0
'[12:15:01.456 20/01/2026]',-93966.69,-122198.1,-145506.7,-153079.1,-375000,-375000,-118408.9,-151589.1,0.03,0.00,0.88,-4,0,-2,55,0
'[12:15:01.460 20/01/2026]',-93196.45,-123049.4,-145341.5,-154994,-375000,-375000,-118317.2,-152614.5,0.03,0.00,0.88,-4,0,-2,55,0
'[12:15:01.464 20/01/2026]',-93162.78,-123025.5,-145200,-155192.5,-375000,-375000,-118234.8,-152387.9,0.03,0.00,0.88,-4,0,-2,55,0
'[12:15:01.468 20/01/2026]',-93752.02,-122387.8,-145303.4,-153770.6,-375000,-375000,-118306.9,-151575.5,0.03,0.00,0.88,-4,0,-2,55,0
'[12:15:01.472 20/01/2026]',-94044.88,-122087.1,-145484.6,-152892.4,-375000,-375000,-118378.3,-151392.7,0.03,0.00,0.88,-4,0,-2,55,0
'[12:15:01.476 20/01/2026]',-93275.34,-122916.4,-145367.8,-154698.9,-375000,-375000,-118292.3,-152455.6,0.03,0.00,0.89,-4,0,-2,55,0
'[12:15:01.480 20/01/2026]',-93094.61,-123062.3,-145191.3,-155287.9,-375000,-375000,-118212.9,-152454,0.03,0.00,0.89,-4,0,-2,55,0
'[12:15:01.484 20/01/2026]',-93623.85,-122484.9,-145263.4,-154056.2,-375000,-375000,-118265.3,-151700,0.03,0.00,0.89,-4,0,-2,55,0
'[12:15:01.488 20/01/2026]',-94085.73,-121994.8,-145454.7,-152819,-375000,-375000,-118371.8,-151287.2,0.03,0.00,0.89,-4,0,-2,55,0
'[12:15:01.492 20/01/2026]',-93402.35,-122734,-145400.8,-154370.3,-375000,-375000,-118327.6,-152330.8,0.03,0.00,0.89,-4,0,-2,55,0
'[12:15:01.496 20/01/2026]',-93040.88,-123089.1,-145201.3,-155348.7,-375000,-375000,-118232.1,-152546.5,0.03,0.00,0.89,-4,0,-2,55,0
'[12:15:01.500 20/01/2026]',-93488.09,-122589.3,-145228.5,-154330.9,-375000,-375000,-118243.9,-151854.9,0.03,0.00,0.89,-4,0,-2,55,0
'[12:15:01.504 20/01/2026]',-94067.76,-121979.9,-145420.8,-152849.1,-375000,-375000,-118343.6,-151237.8,0.03,0.00,0.89,-4,0,-2,55,0
'[12:15:01.508 20/01/2026]',-93544.2,-122560.7,-145424.3,-153980.7,-375000,-375000,-118329.7,-152156.7,0.03,0.00,0.89,-4,0,-2,55,0
'[12:15:01.512 20/01/2026]',-93022.68,-123083.2,-145213.6,-155321.4,-375000,-375000,-118225.1,-152610.4,0.03,-0.02,0.88,-4,0,-2,55,0
'[12:15:01.516 20/01/2026]',-93375.35,-122697.1,-145221.6,-154589.6,-375000,-375000,-118240.1,-152048.2,0.03,-0.02,0.88,-4,0,-2,55,0
'[12:15:01.520 20/01/2026]',-94013.4,-122037.1,-145408.3,-153004.3,-375000,-375000,-118347.1,-151319.2,0.03,-0.02,0.88,-4,0,-2,55,0
'[12:15:01.524 20/01/2026]',-93684.83,-122386.3,-145468.2,-153615,-375000,-375000,-118355.1,-152006.7,0.03,-0.02,0.88,-4,0,-2,55,0
'[12:15:01.528 20/01/2026]',-93059.3,-123073.2,-145257.7,-155252.3,-375000,-375000,-118242.4,-152712.1,0.03,-0.02,0.88,-4,0,-2,55,0
'[12:15:01.532 20/01/2026]',-93278.43,-122795.5,-145192.9,-154797.5,-375000,-375000,-118219.7,-152255.6,0.03,-0.02,0.88,-4,0,-2,55,0
'[12:15:01.536 20/01/2026]',-93914.92,-122101.9,-145341.7,-153173.3,-375000,-375000,-118294,-151441.6,0.03,-0.02,0.88,-4,0,-2,55,0
'[12:15:01.540 20/01/2026]',-93810.54,-122238.7,-145474,-153257.1,-375000,-375000,-118340.1,-151884.4,0.03,-0.02,0.88,-4,0,-2,55,0
'[12:15:01.544 20/01/2026]',-93107.04,-123036.3,-145292,-155083.6,-375000,-375000,-118252.3,-152803.1,0.03,-0.02,0.88,-4,0,-2,55,0
'[12:15:01.548 20/01/2026]',-93221.48,-122913.5,-145203.7,-154972.3,-375000,-375000,-118212.2,-152509.2,0.03,-0.02,0.88,-4,0,-2,55,0
'[12:15:01.552 20/01/2026]',-93833.16,-122245.6,-145339.3,-153445.3,-375000,-375000,-118289.9,-151703.5,0.03,-0.02,0.88,-4,0,-2,55,0
'[12:15:01.556 20/01/2026]',-93936.47,-122139,-145514.2,-153022.6,-375000,-375000,-118365.1,-151837.9,0.03,-0.02,0.88,-4,0,-2,55,0
'[12:15:01.560 20/01/2026]',-93192.65,-122973.6,-145356.9,-154874.5,-375000,-375000,-118261.9,-152864.9,0.03,-0.02,0.88,-4,0,-2,55,0
'[12:15:01.564 20/01/2026]',-93200.06,-123012.8,-145222.6,-155107.6,-375000,-375000,-118197.8,-152707.6,0.03,-0.02,0.88,-4,0,-2,55,0
'[12:15:01.568 20/01/2026]',-93807.9,-122423.7,-145341.8,-153755.3,-375000,-375000,-118277.8,-151954.9,0.03,-0.02,0.88,-4,0,-2,55,0
'[12:15:01.572 20/01/2026]',-94150.77,-122140.4,-145533.4,-152874.5,-375000,-375000,-118351.6,-151762.7,0.03,-0.02,0.88,-4,0,-2,55,0
'[12:15:01.576 20/01/2026]',-93454.7,-122980,-145439.9,-154613.5,-375000,-375000,-118271.2,-152836.8,0.03,-0.02,0.88,-4,0,-2,55,0
'[12:15:01.580 20/01/2026]',-93295.64,-123191.4,-145279.9,-155236.4,-375000,-375000,-118192.4,-152872.3,0.03,-0.02,0.88,-4,0,-2,55,0
'[12:15:01.584 20/01/2026]',-93828.55,-122656.6,-145359.3,-154072.3,-375000,-375000,-118251,-152154.4,0.03,-0.02,0.88,-4,0,-2,55,0
'[12:15:01.588 20/01/2026]',-94290.7,-122198.1,-145585.7,-152864.3,-375000,-375000,-118362.8,-151737.8,0.03,-0.02,0.88,-4,0,-2,55,0
'[12:15:01.592 20/01/2026]',-93690.42,-122929.4,-145531,-154323.4,-375000,-375000,-118302.2,-152747.5,0.03,-0.02,0.88,-4,0,-2,55,0
'[12:15:01.596 20/01/2026]',-93410.44,-123300.8,-145320.4,-155300.5,-375000,-375000,-118190.3,-152961.9,0.03,-0.02,0.88,-4,0,-2,55,0
'[12:15:01.600 20/01/2026]',-93847.59,-122849.1,-145367.1,-154367.2,-375000,-375000,-118230,-152325,0.03,-0.02,0.88,-4,0,-2,55,0
'[12:15:01.604 20/01/2026]',-94386.85,-122234.4,-145559.2,-152925.7,-375000,-375000,-118309.4,-151678.4,0.03,-0.02,0.88,-4,0,-2,55,0
'[12:15:01.608 20/01/2026]',-93904.64,-122765,-145581.3,-153970.9,-375000,-375000,-118300.8,-152531.5,0.03,-0.02,0.88,-4,0,-2,55,0
'[12:15:01.612 20/01/2026]',-93467.62,-123308.7,-145380.4,-155299.4,-375000,-375000,-118212,-153000.5,0.03,-0.02,0.88,-4,0,-2,55,0
'[12:15:01.616 20/01/2026]',-93770.93,-122887.4,-145366.6,-154622.5,-375000,-375000,-118200.4,-152427.7,0.03,-0.02,0.88,-4,0,-2,55,0
'[12:15:01.620 20/01/2026]',-94414.39,-122262.3,-145554.8,-153096,-375000,-375000,-118294.9,-151670.5,0.03,0.00,0.88,-4,0,-2,55,0
'[12:15:01.624 20/01/2026]',-94149.48,-122648.1,-145626.1,-153644.7,-375000,-375000,-118296.5,-152281.3,0.03,0.00,0.88,-4,0,-2,55,0
'[12:15:01.628 20/01/2026]',-93479.1,-123271.1,-145393.6,-155208.3,-375000,-375000,-118167.3,-152918.5,0.03,0.00,0.88,-4,0,-2,55,0
'[12:15:01.632 20/01/2026]',-93691.94,-122985.6,-145332.4,-154808.4,-375000,-375000,-118154.6,-152453.3,0.03,0.00,0.88,-4,0,-2,55,0
'[12:15:01.636 20/01/2026]',-94310.99,-122311.4,-145496.6,-153305.5,-375000,-375000,-118265.4,-151644.6,0.03,0.00,0.88,-4,0,-2,55,0
'[12:15:01.640 20/01/2026]',-94220.87,-122400.9,-145623.1,-153349.9,-375000,-375000,-118298.7,-151988.3,0.03,0.00,0.88,-4,0,-2,55,0
'[12:15:01.644 20/01/2026]',-93542.31,-123164,-145420.2,-155058.4,-375000,-375000,-118182.9,-152822,0.03,0.00,0.88,-4,0,-2,55,0
'[12:15:01.648 20/01/2026]',-93606.69,-122999.4,-145344.8,-154989.7,-375000,-375000,-118147.7,-152499.9,0.03,0.00,0.88,-4,0,-2,55,0
'[12:15:01.652 20/01/2026]',-94243,-122344,-145488.2,-153597.2,-375000,-375000,-118251.8,-151712.1,0.03,0.00,0.88,-4,0,-2,55,0
'[12:15:01.656 20/01/2026]',-94398.56,-122249.2,-145636.6,-153141.7,-375000,-375000,-118319.4,-151766.8,0.05,-0.02,0.89,-4,0,-2,55,0
'[12:15:01.660 20/01/2026]',-93625.51,-123035.9,-145464.8,-154868.8,-375000,-375000,-118228.9,-152744.7,0.05,-0.02,0.89,-4,0,-2,55,0
'[12:15:01.664 20/01/2026]',-93518.98,-123060,-145341.5,-155130.7,-375000,-375000,-118164.1,-152597.2,0.05,-0.02,0.89,-4,0,-2,55,0
'[12:15:01.668 20/01/2026]',-94085.69,-122459.9,-145444.5,-153875,-375000,-375000,-118229.6,-151818.6,0.05,-0.02,0.89,-4,0,-2,55,0
'[12:15:01.672 20/01/2026]',-94375.37,-122132.1,-145619.6,-153011.4,-375000,-375000,-118313.7,-151609.5,0.05,-0.02,0.89,-4,0,-2,55,0
'[12:15:01.676 20/01/2026]',-93653.18,-122878.5,-145486.1,-154581,-375000,-375000,-118221.8,-152616.1,0.05,-0.02,0.89,-4,0,-2,55,0
'[12:15:01.680 20/01/2026]',-93462.43,-123056.5,-145314.6,-155189.5,-375000,-375000,-118146.2,-152657.4,0.05,-0.02,0.89,-4,0,-2,55,0
'[12:15:01.684 20/01/2026]',-93908.03,-122537,-145390.7,-154135.4,-375000,-375000,-118208,-151982.1,0.05,-0.02,0.89,-4,0,-2,55,0
'[12:15:01.688 20/01/2026]',-94348.27,-122052.8,-145583.7,-152985.3,-375000,-375000,-118310,-151534.1,0.05,-0.02,0.89,-4,0,-2,55,0
'[12:15:01.692 20/01/2026]',-93736.91,-122685.3,-145512.4,-154268.7,-375000,-375000,-118232.3,-152462.8,0.03,-0.02,0.88,-4,0,-2,55,0
'[12:15:01.696 20/01/2026]',-93371.1,-123040.8,-145314,-155208.3,-375000,-375000,-118134.3,-152699.3,0.03,-0.02,0.88,-4,0,-2,55,0
'[12:15:01.700 20/01/2026]',-93731.23,-122616.4,-145358.8,-154368.3,-375000,-375000,-118175.3,-152092.3,0.03,-0.02,0.88,-4,0,-2,55,0
'[12:15:01.704 20/01/2026]',-94261.95,-122029.8,-145543.6,-153040.1,-375000,-375000,-118275.9,-151470.6,0.03,-0.02,0.88,-4,0,-2,55,0
'[12:15:01.708 20/01/2026]',-93804.81,-122487.7,-145503.1,-153931.8,-375000,-375000,-118213.3,-152227.5,0.03,-0.02,0.88,-4,0,-2,55,0
'[12:15:01.712 20/01/2026]',-93321.3,-123018.1,-145273.7,-155159.6,-375000,-375000,-118111.4,-152670.4,0.03,-0.02,0.88,-4,0,-2,55,0
'[12:15:01.716 20/01/2026]',-93576.65,-122686.8,-145273,-154561.9,-375000,-375000,-118120.8,-152145.6,0.03,-0.02,0.88,-4,0,-2,55,0
'[12:15:01.720 20/01/2026]',-94161.68,-122042.8,-145459.1,-153144,-375000,-375000,-118209.2,-151390.7,0.03,-0.02,0.88,-4,0,-2,55,0
'[12:15:01.724 20/01/2026]',-93935.44,-122339.1,-145509.2,-153600.6,-375000,-375000,-118235.8,-151968.4,0.03,-0.02,0.88,-4,0,-2,55,0
'[12:15:01.728 20/01/2026]',-93323.27,-122968.8,-145288.2,-155059.8,-375000,-375000,-118139.3,-152654.4,0.02,-0.02,0.88,-4,0,-2,55,0
'[12:15:01.732 20/01/2026]',-93498.55,-122755.2,-145253.4,-154736.7,-375000,-375000,-118143,-152238.3,0.02,-0.02,0.88,-4,0,-2,55,0
'[12:15:01.736 20/01/2026]',-94073.21,-122108.5,-145415.8,-153350.8,-375000,-375000,-118231.7,-151453.1,0.02,-0.02,0.88,-4,0,-2,55,0
'[12:15:01.740 20/01/2026]',-93996.77,-122148.8,-145492.7,-153297.9,-375000,-375000,-118245.7,-151727.3,0.02,-0.02,0.88,-4,0,-2,55,0
'[12:15:01.744 20/01/2026]',-93311.16,-122868.5,-145264.4,-154851.3,-375000,-375000,-118118.3,-152549.5,0.02,-0.02,0.88,-4,0,-2,55,0
'[12:15:01.748 20/01/2026]',-93368.11,-122771.7,-145177.5,-154818.5,-375000,-375000,-118092.4,-152284.1,0.02,-0.02,0.88,-4,0,-2,55,0
'[12:15:01.752 20/01/2026]',-93959.04,-122207.5,-145356.4,-153569.9,-375000,-375000,-118213.3,-151559,0.02,-0.02,0.88,-4,0,-2,55,0
'[12:15:01.756 20/01/2026]',-94110.01,-122077.8,-145501.2,-153126.8,-375000,-375000,-118288.8,-151609.6,0.02,-0.02,0.88,-4,0,-2,55,0
'[12:15:01.760 20/01/2026]',-93377.41,-122792.9,-145296.8,-154662.9,-375000,-375000,-118174.2,-152524.1,0.02,-0.02,0.88,-4,0,-2,55,0
'[12:15:01.764 20/01/2026]',-93313.03,-122831.5,-145164.2,-154937.3,-375000,-375000,-118112.8,-152388.9,0.03,-0.02,0.89,-4,0,-2,55,0
'[12:15:01.768 20/01/2026]',-93840.13,-122294.7,-145284.7,-153812.2,-375000,-375000,-118175.3,-151657.5,0.03,-0.02,0.89,-4,0,-2,55,0
'[12:15:01.772 20/01/2026]',-94133.07,-121972.2,-145464.6,-153020.9,-375000,-375000,-118252.2,-151418.4,0.03,-0.02,0.89,-4,0,-2,55,0
'[12:15:01.776 20/01/2026]',-93469.45,-122667.1,-145308.1,-154437.2,-375000,-375000,-118156.3,-152366.9,0.03,-0.02,0.89,-4,0,-2,55,0
'[12:15:01.780 20/01/2026]',-93268.28,-122847.3,-145150.8,-155020.6,-375000,-375000,-118085.4,-152426.9,0.03,-0.02,0.89,-4,0,-2,55,0
'[12:15:01.784 20/01/2026]',-93692.43,-122366.8,-145232.3,-154063.8,-375000,-375000,-118131.2,-151767.6,0.03,-0.02,0.89,-4,0,-2,55,0
'[12:15:01.788 20/01/2026]',-94113.31,-121916.7,-145410.6,-153001.6,-375000,-375000,-118229.7,-151319.9,0.03,-0.02,0.89,-4,0,-2,55,0
'[12:15:01.792 20/01/2026]',-93542.23,-122513.4,-145327.5,-154163.6,-375000,-375000,-118174.1,-152204.6,0.03,-0.02,0.89,-4,0,-2,55,0
'[12:15:01.796 20/01/2026]',-93199.62,-122855.1,-145129.1,-155045.3,-375000,-375000,-118066,-152439.6,0.03,-0.02,0.89,-4,0,-2,55,0
'[12:15:01.800 20/01/2026]',-93582.02,-122459.7,-145177.3,-154286.4,-375000,-375000,-118107,-151870.2,0.03,-0.02,0.88,-4,0,-2,55,0
'[12:15:01.804 20/01/2026]',-94109.73,-121901.8,-145383.3,-153055.9,-375000,-375000,-118218.6,-151275.1,0.03,-0.02,0.88,-4,0,-2,55,0
'[12:15:01.808 20/01/2026]',-93681.57,-122354.6,-145367.9,-153867.5,-375000,-375000,-118203.4,-152038.6,0.03,-0.02,0.88,-4,0,-2,55,0
'[12:15:01.812 20/01/2026]',-93200.87,-122856.5,-145142,-155036.8,-375000,-375000,-118088.8,-152497.2,0.03,-0.02,0.88,-4,0,-2,55,0
'[12:15:01.816 20/01/2026]',-93473.52,-122551,-145157.3,-154497.8,-375000,-375000,-118095.6,-151995.3,0.03,-0.02,0.88,-4,0,-2,55,0
'[12:15:01.820 20/01/2026]',-94025.16,-121976.3,-145358.2,-153201.6,-375000,-375000,-118225.8,-151306.2,0.03,-0.02,0.88,-4,0,-2,55,0
'[12:15:01.824 20/01/2026]',-93814.11,-122237.4,-145396.2,-153596.3,-375000,-375000,-118249.3,-151865.6,0.03,-0.02,0.88,-4,0,-2,55,0
'[12:15:01.828 20/01/2026]',-93244.77,-122851.8,-145185.3,-154978.5,-375000,-375000,-118131.2,-152519.6,0.03,-0.02,0.88,-4,0,-2,55,0
'[12:15:01.832 20/01/2026]',-93382.55,-122620.5,-145133.2,-154674.2,-375000,-375000,-118099.1,-152112.6,0.03,-0.02,0.88,-4,0,-2,55,0
'[12:15:01.836 20/01/2026]',-93944.02,-122028.8,-145308.6,-153372.2,-375000,-375000,-118199.2,-151368.1,0.03,-0.02,0.88,-4,0,-2,55,0
'[12:15:01.840 20/01/2026]',-93922.88,-122109.5,-145416.1,-153327.5,-375000,-375000,-118240.7,-151653.2,0.03,-0.02,0.88,-4,0,-2,55,0
'[12:15:01.844 20/01/2026]',-93258.85,-122817,-145204.3,-154823.8,-375000,-375000,-118131.9,-152474.2,0.03,-0.02,0.88,-4,0,-2,55,0
'[12:15:01.848 20/01/2026]',-93329.8,-122730,-145130.1,-154811,-375000,-375000,-118114.6,-152225.5,0.03,-0.02,0.88,-4,0,-2,55,0
'[12:15:01.852 20/01/2026]',-93862.66,-122160.8,-145286.6,-153595.3,-375000,-375000,-118200.1,-151475.1,0.03,-0.02,0.88,-4,0,-2,55,0
'[12:15:01.856 20/01/2026]',-93986.76,-121991.8,-145420.9,-153122.7,-375000,-375000,-118243.4,-151458,0.03,-0.02,0.88,-4,0,-2,55,0
'[12:15:01.860 20/01/2026]',-93320.77,-122739.4,-145235.1,-154623.5,-375000,-375000,-118145.2,-152392.2,0.03,-0.02,0.88,-4,0,-2,55,0
'[12:15:01.864 20/01/2026]',-93248.21,-122807.9,-145112.2,-154907.1,-375000,-375000,-118091.9,-152289.7,0.03,-0.02,0.88,-4,0,-2,55,0
'[12:15:01.868 20/01/2026]',-93713.09,-122250.6,-145240.3,-153824.2,-375000,-375000,-118169.9,-151584.6,0.03,-0.02,0.88,-4,0,-2,55,0
'[12:15:01.872 20/01/2026]',-94026.99,-121910.7,-145427,-153017,-375000,-375000,-118258.9,-151335.6,0.03,0.00,0.88,-4,0,-2,55,0
'[12:15:01.876 20/01/2026]',-93385.45,-122620.6,-145297.4,-154386.6,-375000,-375000,-118173.1,-152284.8,0.03,0.00,0.88,-4,0,-2,55,0
'[12:15:01.880 20/01/2026]',-93242.8,-122844.6,-145136.9,-154975.2,-375000,-375000,-118098.1,-152362.4,0.03,0.00,0.88,-4,0,-2,55,0
'[12:15:01.884 20/01/2026]',-93688.18,-122398.5,-145203.5,-154035.2,-375000,-375000,-118143.1,-151700.5,0.03,0.00,0.88,-4,0,-2,55,0
'[12:15:01.888 20/01/2026]',-94103.03,-121934.3,-145386.5,-152970,-375000,-375000,-118249,-151238.1,0.03,0.00,0.88,-4,0,-2,55,0
'[12:15:01.892 20/01/2026]',-93556.76,-122530.5,-145317.7,-154088.5,-375000,-375000,-118196.4,-152139,0.03,0.00,0.88,-4,0,-2,55,0
'[12:15:01.896 20/01/2026]',-93194.74,-122889.8,-145113.7,-154973.5,-375000,-375000,-118087.9,-152413.9,0.03,0.00,0.88,-4,0,-2,55,0
'[12:15:01.900 20/01/2026]',-93537.22,-122504.9,-145174.8,-154237.8,-375000,-375000,-118122.8,-151842.3,0.03,0.00,0.88,-4,0,-2,55,0
'[12:15:01.904 20/01/2026]',-94044.16,-121958.8,-145395.4,-153022.3,-375000,-375000,-118252,-151247.7,0.03,0.00,0.88,-4,0,-2,55,0
'[12:15:01.908 20/01/2026]',-93636.02,-122395.3,-145358.6,-153781.7,-375000,-375000,-118216,-151996.2,0.03,-0.02,0.88,-4,0,-2,55,0
'[12:15:01.912 20/01/2026]',-93155.18,-122885.5,-145135.3,-154943.8,-375000,-375000,-118086.4,-152466.2,0.03,-0.02,0.88,-4,0,-2,55,0
'[12:15:01.916 20/01/2026]',-93435.16,-122591.5,-145153.8,-154430.9,-375000,-375000,-118101.7,-152002.6,0.03,-0.02,0.88,-4,0,-2,55,0
'[12:15:01.920 20/01/2026]',-93995.66,-122026.4,-145363,-153153,-375000,-375000,-118221,-151314.5,0.03,-0.02,0.88,-4,0,-2,55,0
'[12:15:01.924 20/01/2026]',-93798.65,-122266.3,-145400.7,-153491.6,-375000,-375000,-118226.1,-151849.3,0.03,-0.02,0.88,-4,0,-2,55,0
'[12:15:01.928 20/01/2026]',-93199.53,-122909.4,-145179.3,-154851.1,-375000,-375000,-118116.1,-152556.2,0.03,-0.02,0.88,-4,0,-2,55,0
'[12:15:01.932 20/01/2026]',-93372.13,-122736.9,-145167.1,-154619.5,-375000,-375000,-118132.5,-152219,0.03,-0.02,0.88,-4,0,-2,55,0
'[12:15:01.936 20/01/2026]',-93937.59,-122127.2,-145341,-153349.7,-375000,-375000,-118216.2,-151458.4,0.03,-0.02,0.88,-4,0,-2,55,0
'[12:15:01.940 20/01/2026]',-93914.92,-122149.8,-145436.4,-153253.8,-375000,-375000,-118247.7,-151711.6,0.03,-0.02,0.88,-4,0,-2,55,0
'[12:15:01.944 20/01/2026]',-93260.95,-122866.5,-145228.8,-154718.9,-375000,-375000,-118143,-152569.3,0.03,-0.02,0.88,-4,0,-2,55,0
'[12:15:01.948 20/01/2026]',-93305.79,-122796.3,-145160.5,-154721.6,-375000,-375000,-118114.8,-152335.9,0.03,-0.02,0.88,-4,0,-2,55,0
'[12:15:01.952 20/01/2026]',-93836.69,-122217.3,-145324.1,-153550.3,-375000,-375000,-118207.6,-151613.1,0.03,-0.02,0.88,-4,0,-2,55,0
'[12:15:01.956 20/01/2026]',-93966.69,-122046,-145457.1,-153064.2,-375000,-375000,-118264.3,-151596.6,0.03,-0.02,0.88,-4,0,-2,55,0
'[12:15:01.960 20/01/2026]',-93305.61,-122797.3,-145285.7,-154518.1,-375000,-375000,-118171.4,-152554.4,0.03,-0.02,0.88,-4,0,-2,55,0
'[12:15:01.964 20/01/2026]',-93245.17,-122863.5,-145156.5,-154817,-375000,-375000,-118106.9,-152472.6,0.03,-0.02,0.88,-4,0,-2,55,0
'[12:15:01.968 20/01/2026]',-93736.82,-122346.7,-145294.7,-153790.2,-375000,-375000,-118195.1,-151791.8,0.03,-0.02,0.88,-4,0,-2,55,0
'[12:15:01.972 20/01/2026]',-94049.61,-122005.2,-145466.8,-152984.2,-375000,-375000,-118287.3,-151543,0.03,-0.02,0.88,-4,0,-2,55,0
'[12:15:01.976 20/01/2026]',-93433.51,-122678.7,-145333.5,-154283.1,-375000,-375000,-118209,-152489.4,0.03,-0.02,0.88,-4,0,-2,55,0
'[12:15:01.980 20/01/2026]',-93202.13,-122901.5,-145161.3,-154874.9,-375000,-375000,-118098.9,-152554.9,0.03,-0.02,0.88,-4,0,-2,55,0
'[12:15:01.984 20/01/2026]',-93623.14,-122455.2,-145251.2,-154004.5,-375000,-375000,-118142,-151922.9,0.03,-0.02,0.88,-4,0,-2,55,0
'[12:15:01.988 20/01/2026]',-94065.57,-121994.3,-145445.6,-152961.3,-375000,-375000,-118245.9,-151455.1,0.03,-0.02,0.88,-4,0,-2,55,0
'[12:15:01.992 20/01/2026]',-93545.71,-122556.6,-145367.2,-153998.5,-375000,-375000,-118193.6,-152324.2,0.03,-0.02,0.88,-4,0,-2,55,0
'[12:15:01.996 20/01/2026]',-93188.22,-122931.9,-145168.5,-154886.5,-375000,-375000,-118092.4,-152609.2,0.03,-0.02,0.88,-4,0,-2,55,0
'[12:15:02.000 20/01/2026]',-93514.64,-122550.1,-145234.1,-154218.6,-375000,-375000,-118146.4,-152065.7,0.03,-0.02,0.88,-4,0,-2,55,0
'[12:15:02.004 20/01/2026]',-94011.84,-122001.2,-145438.4,-153040,-375000,-375000,-118265,-151455.1,0.03,-0.02,0.88,-4,0,-2,55,0
'[12:15:02.008 20/01/2026]',-93663.87,-122419.1,-145415.1,-153723.8,-375000,-375000,-118214.1,-152154.5,0.03,-0.02,0.88,-4,0,-2,55,0
'[12:15:02.012 20/01/2026]',-93196.67,-122927.2,-145187.9,-154847.3,-375000,-375000,-118088,-152627,0.03,-0.02,0.88,-4,0,-2,55,0
'[12:15:02.016 20/01/2026]',-93416.48,-122629.3,-145193.7,-154391.3,-375000,-375000,-118106.7,-152163.7,0.03,0.00,0.89,-4,0,-2,55,0
'[12:15:02.020 20/01/2026]',-93958.59,-122037.4,-145389.7,-153166.6,-375000,-375000,-118218.5,-151463.5,0.03,0.00,0.89,-4,0,-2,55,0
'[12:15:02.024 20/01/2026]',-93794.48,-122242.4,-145448.8,-153455.9,-375000,-375000,-118238,-151955,0.03,0.00,0.89,-4,0,-2,55,0
'[12:15:02.028 20/01/2026]',-93230.51,-122869.1,-145239.7,-154775.3,-375000,-375000,-118132,-152642.1,0.03,0.00,0.89,-4,0,-2,55,0
'[12:15:02.032 20/01/2026]',-93351.97,-122682.3,-145186.4,-154538,-375000,-375000,-118103.7,-152260,0.03,0.00,0.89,-4,0,-2,55,0
'[12:15:02.036 20/01/2026]',-93868.61,-122076.4,-145346.4,-153330.9,-375000,-375000,-118191.7,-151514.8,0.03,0.00,0.89,-4,0,-2,55,0
'[12:15:02.040 20/01/2026]',-93874.15,-122086.2,-145449.5,-153222.5,-375000,-375000,-118237.4,-151735.8,0.03,0.00,0.89,-4,0,-2,55,0
'[12:15:02.044 20/01/2026]',-93241.1,-122769.5,-145242.3,-154605.5,-375000,-375000,-118127.6,-152556.6,0.03,0.00,0.89,-4,0,-2,55,0
'[12:15:02.048 20/01/2026]',-93279.05,-122725.4,-145167,-154653.2,-375000,-375000,-118105.6,-152334.2,0.03,0.00,0.89,-4,0,-2,55,0
'[12:15:02.052 20/01/2026]',-93789.08,-122199.1,-145326.4,-153577,-375000,-375000,-118213.8,-151635.8,0.02,-0.02,0.89,-4,0,-2,55,0
'[12:15:02.056 20/01/2026]',-93939.38,-122013.7,-145465.5,-153092.9,-375000,-375000,-118279.9,-151578.3,0.02,-0.02,0.89,-4,0,-2,55,0
'[12:15:02.060 20/01/2026]',-93315.94,-122694.4,-145281.9,-154427,-375000,-375000,-118159,-152454.6,0.02,-0.02,0.89,-4,0,-2,55,0
'[12:15:02.064 20/01/2026]',-93239.94,-122756.4,-145150.3,-154727,-375000,-375000,-118076.6,-152356.4,0.02,-0.02,0.89,-4,0,-2,55,0
'[12:15:02.068 20/01/2026]',-93683.35,-122262.1,-145272.1,-153769.5,-375000,-375000,-118166.3,-151693.8,0.02,-0.02,0.89,-4,0,-2,55,0
'[12:15:02.072 20/01/2026]',-94001.2,-121936.2,-145441.8,-153008.8,-375000,-375000,-118268,-151421.7,0.02,-0.02,0.89,-4,0,-2,55,0
'[12:15:02.076 20/01/2026]',-93433.69,-122574.5,-145311.2,-154199.5,-375000,-375000,-118183.9,-152321.5,0.02,-0.02,0.89,-4,0,-2,55,0
'[12:15:02.080 20/01/2026]',-93195.2,-122782.9,-145138.3,-154763.6,-375000,-375000,-118084.9,-152388.6,0.02,-0.02,0.89,-4,0,-2,55,0
'[12:15:02.084 20/01/2026]',-93572.31,-122343.8,-145231.8,-153973.7,-375000,-375000,-118145.5,-151783.3,0.02,-0.02,0.89,-4,0,-2,55,0
'[12:15:02.088 20/01/2026]',-93985.33,-121888.9,-145421.9,-152998,-375000,-375000,-118247.6,-151312.9,0.03,0.00,0.88,-4,0,-2,55,0
'[12:15:02.092 20/01/2026]',-93489.38,-122416.2,-145339,-153925.2,-375000,-375000,-118181.9,-152120.3,0.03,0.00,0.88,-4,0,-2,55,0
'[12:15:02.096 20/01/2026]',-93160.05,-122778.1,-145138.5,-154759.3,-375000,-375000,-118073.2,-152401.1,0.03,0.00,0.88,-4,0,-2,55,0
'[12:15:02.100 20/01/2026]',-93480.98,-122431.3,-145184,-154142.2,-375000,-375000,-118127,-151888.5,0.03,0.00,0.88,-4,0,-2,55,0
'[12:15:02.104 20/01/2026]',-93978.09,-121897.3,-145382.5,-153056.3,-375000,-375000,-118257.7,-151307.7,0.03,0.00,0.88,-4,0,-2,55,0
'[12:15:02.108 20/01/2026]',-93656.89,-122280.1,-145369.6,-153662.4,-375000,-375000,-118224.3,-151962.5,0.03,0.00,0.88,-4,0,-2,55,0
'[12:15:02.112 20/01/2026]',-93177,-122782,-145145.4,-154735.4,-375000,-375000,-118095,-152448.2,0.03,0.00,0.88,-4,0,-2,55,0
'[12:15:02.116 20/01/2026]',-93389.34,-122513.3,-145163.5,-154319.4,-375000,-375000,-118114.7,-152014,0.03,0.00,0.88,-4,0,-2,55,0
'[12:15:02.120 20/01/2026]',-93919.16,-121947.9,-145346.8,-153159.9,-375000,-375000,-118221.5,-151327.1,0.03,0.00,0.88,-4,0,-2,55,0
'[12:15:02.124 20/01/2026]',-93759.17,-122131.5,-145395.8,-153407.4,-375000,-375000,-118221.8,-151771.4,0.03,0.00,0.88,-4,0,-2,55,0
'[12:15:02.128 20/01/2026]',-93169.98,-122727.8,-145172.5,-154640.5,-375000,-375000,-118089.7,-152426.6,0.03,0.00,0.88,-4,0,-2,55,0
'[12:15:02.132 20/01/2026]',-93289.02,-122566.5,-145135.7,-154436,-375000,-375000,-118085.1,-152095,0.03,0.00,0.88,-4,0,-2,55,0
'[12:15:02.136 20/01/2026]',-93841.56,-122009.2,-145299.5,-153308.5,-375000,-375000,-118185.7,-151396.3,0.03,0.00,0.88,-4,0,-2,55,0
'[12:15:02.140 20/01/2026]',-93847.15,-122003.5,-145396.5,-153171.6,-375000,-375000,-118224.7,-151602.4,0.03,0.00,0.88,-4,0,-2,55,0
'[12:15:02.144 20/01/2026]',-93226.75,-122667.3,-145190.4,-154491.7,-375000,-375000,-118106.7,-152421.8,0.03,0.00,0.88,-4,0,-2,55,0
'[12:15:02.148 20/01/2026]',-93231.54,-122618.5,-145106.9,-154538.2,-375000,-375000,-118061.4,-152208.3,0.03,0.00,0.88,-4,0,-2,55,0
'[12:15:02.152 20/01/2026]',-93710.67,-122084.4,-145268.4,-153490,-375000,-375000,-118150.3,-151508.5,0.03,0.00,0.88,-4,0,-2,55,0
'[12:15:02.156 20/01/2026]',-93898.52,-121893.8,-145407.1,-153011.3,-375000,-375000,-118231.1,-151469.1,0.03,0.00,0.88,-4,0,-2,55,0
'[12:15:02.160 20/01/2026]',-93294.44,-122566.5,-145215.6,-154306.9,-375000,-375000,-118124.1,-152374.4,0.03,0.00,0.88,-4,0,-2,55,0
'[12:15:02.164 20/01/2026]',-93194.7,-122647.6,-145079.8,-154605,-375000,-375000,-118028.4,-152278.9,0.03,0.00,0.88,-4,0,-2,55,0
'[12:15:02.168 20/01/2026]',-93639.99,-122185.8,-145214.6,-153690.8,-375000,-375000,-118120.1,-151640.4,0.03,0.00,0.88,-4,0,-2,55,0
'[12:15:02.172 20/01/2026]',-93953.32,-121845.8,-145387.7,-152920.5,-375000,-375000,-118214.5,-151362.9,0.03,0.00,0.88,-4,0,-2,55,0
'[12:15:02.176 20/01/2026]',-93361.45,-122426.1,-145249.6,-154049.4,-375000,-375000,-118105.4,-152229.7,0.03,0.00,0.88,-4,0,-2,55,0
'[12:15:02.180 20/01/2026]',-93114.33,-122661,-145088.4,-154649.2,-375000,-375000,-118021.8,-152351.5,0.03,0.00,0.88,-4,0,-2,55,0
'[12:15:02.184 20/01/2026]',-93502.35,-122259.2,-145161.9,-153883.4,-375000,-375000,-118066.9,-151757.6,0.03,0.00,0.88,-4,0,-2,55,0
'[12:15:02.188 20/01/2026]',-93935.7,-121807.6,-145351.3,-152915.6,-375000,-375000,-118171.6,-151284.9,0.03,0.00,0.88,-4,0,-2,55,0
'[12:15:02.192 20/01/2026]',-93471.23,-122305.5,-145287.3,-153810.3,-375000,-375000,-118117.5,-152084.9,0.03,0.00,0.88,-4,0,-2,55,0
'[12:15:02.196 20/01/2026]',-93089.73,-122671.3,-145078,-154662.6,-375000,-375000,-118019,-152403.4,0.03,-0.02,0.88,-4,0,-2,55,0
'[12:15:02.200 20/01/2026]',-93380.35,-122351.3,-145153.7,-154093.6,-375000,-375000,-118075.8,-151914.9,0.03,-0.02,0.88,-4,0,-2,55,0
'[12:15:02.204 20/01/2026]',-93881.21,-121843.8,-145340.9,-153013.6,-375000,-375000,-118164.1,-151309.5,0.03,-0.02,0.88,-4,0,-2,55,0
'[12:15:02.208 20/01/2026]',-93575.09,-122176.7,-145309.1,-153554.3,-375000,-375000,-118111.7,-151921.5,0.03,-0.02,0.88,-4,0,-2,55,0
'[12:15:02.212 20/01/2026]',-93096.48,-122661.2,-145091.6,-154624.4,-375000,-375000,-118005.5,-152435.6,0.03,-0.02,0.88,-4,0,-2,55,0
'[12:15:02.216 20/01/2026]',-93302.93,-122413.3,-145086,-154235,-375000,-375000,-118005,-152001.3,0.03,-0.02,0.88,-4,0,-2,55,0
'[12:15:02.220 20/01/2026]',-93812.1,-121871.2,-145283.4,-153126.5,-375000,-375000,-118116.9,-151335.1,0.03,-0.02,0.88,-4,0,-2,55,0
'[12:15:02.224 20/01/2026]',-93662.3,-122028.5,-145314.9,-153311.8,-375000,-375000,-118130.6,-151750.2,0.03,-0.02,0.88,-4,0,-2,55,0
'[12:15:02.228 20/01/2026]',-93115.58,-122620.2,-145090.4,-154521.8,-375000,-375000,-118007.5,-152409.8,0.03,-0.02,0.88,-4,0,-2,55,0
'[12:15:02.232 20/01/2026]',-93231,-122465.7,-145040.9,-154355.5,-375000,-375000,-117975.6,-152072.9,0.05,-0.02,0.88,-4,0,-2,55,0
'[12:15:02.236 20/01/2026]',-93719.12,-121930.9,-145227.4,-153280.1,-375000,-375000,-118084.1,-151370.1,0.05,-0.02,0.88,-4,0,-2,55,0
'[12:15:02.240 20/01/2026]',-93740.44,-121913,-145313.1,-153104.7,-375000,-375000,-118126.6,-151533.1,0.05,-0.02,0.88,-4,0,-2,55,0
'[12:15:02.244 20/01/2026]',-93140.66,-122556.4,-145091,-154362.2,-375000,-375000,-118002.8,-152317.1,0.05,-0.02,0.88,-4,0,-2,55,0
'[12:15:02.248 20/01/2026]',-93134.71,-122520,-145007.3,-154446.7,-375000,-375000,-117953.9,-152117.9,0.05,-0.02,0.88,-4,0,-2,55,0
'[12:15:02.252 20/01/2026]',-93603.25,-122023.7,-145171.6,-153455.2,-375000,-375000,-118059.2,-151453.1,0.05,-0.02,0.88,-4,0,-2,55,0
'[12:15:02.256 20/01/2026]',-93791.27,-121847.7,-145306.8,-152947.2,-375000,-375000,-118122.1,-151366.1,0.05,-0.02,0.88,-4,0,-2,55,0
'[12:15:02.260 20/01/2026]',-93209.63,-122466.5,-145101.6,-154156.3,-375000,-375000,-117991.2,-152209.7,0.05,-0.02,0.88,-4,0,-2,55,0
'[12:15:02.264 20/01/2026]',-93085.27,-122559.6,-144970.8,-154497.8,-375000,-375000,-117920.1,-152159.7,0.05,-0.02,0.88,-4,0,-2,55,0
'[12:15:02.268 20/01/2026]',-93496.85,-122118.8,-145103.1,-153624.9,-375000,-375000,-118004.6,-151537,0.03,-0.02,0.89,-4,0,-2,55,0
'[12:15:02.272 20/01/2026]',-93824.13,-121785.5,-145285.6,-152867.1,-375000,-375000,-118107.7,-151243.6,0.03,-0.02,0.89,-4,0,-2,55,0
'[12:15:02.276 20/01/2026]',-93278.56,-122316.2,-145124.9,-153918.8,-375000,-375000,-118004.2,-152083.5,0.03,-0.02,0.89,-4,0,-2,55,0
'[12:15:02.280 20/01/2026]',-93052.68,-122557.4,-144962,-154521,-375000,-375000,-117913.3,-152215.3,0.03,-0.02,0.89,-4,0,-2,55,0
'[12:15:02.284 20/01/2026]',-93405.97,-122203.6,-145067.1,-153815.3,-375000,-375000,-117974,-151652.6,0.03,-0.02,0.89,-4,0,-2,55,0
'[12:15:02.288 20/01/2026]',-93800.7,-121780.8,-145258.4,-152861.7,-375000,-375000,-118068,-151154,0.03,-0.02,0.89,-4,0,-2,55,0
'[12:15:02.292 20/01/2026]',-93367.13,-122218.3,-145162.1,-153668,-375000,-375000,-118001.5,-151921.5,0.03,-0.02,0.89,-4,0,-2,55,0
'[12:15:02.296 20/01/2026]',-93011.77,-122564.8,-144958.2,-154512.2,-375000,-375000,-117902.2,-152253.2,0.03,-0.02,0.89,-4,0,-2,55,0
'[12:15:02.300 20/01/2026]',-93295.77,-122265.1,-145022.3,-153985.9,-375000,-375000,-117949.7,-151781.4,0.03,-0.02,0.89,-4,0,-2,55,0
'[12:15:02.304 20/01/2026]',-93763.28,-121770.8,-145238.9,-152953.7,-375000,-375000,-118076.4,-151215.7,0.03,-0.02,0.88,-4,0,-2,55,0
'[12:15:02.308 20/01/2026]',-93471.33,-122049,-145201.4,-153438.9,-375000,-375000,-118034.5,-151809.6,0.03,-0.02,0.88,-4,0,-2,55,0
'[12:15:02.312 20/01/2026]',-93023.53,-122529.7,-144960.1,-154449.8,-375000,-375000,-117893.9,-152289.6,0.03,-0.02,0.88,-4,0,-2,55,0
'[12:15:02.316 20/01/2026]',-93204.67,-122327.6,-144976.5,-154114.3,-375000,-375000,-117907,-151895.3,0.03,-0.02,0.88,-4,0,-2,55,0
'[12:15:02.320 20/01/2026]',-93699.9,-121839,-145178.2,-153065.7,-375000,-375000,-118019,-151244,0.03,-0.02,0.88,-4,0,-2,55,0
'[12:15:02.324 20/01/2026]',-93569.14,-121965,-145208.4,-153195.5,-375000,-375000,-118020.2,-151618.5,0.03,-0.02,0.88,-4,0,-2,55,0
'[12:15:02.328 20/01/2026]',-93012.49,-122491,-144971.1,-154336.4,-375000,-375000,-117899.9,-152294.8,0.03,-0.02,0.88,-4,0,-2,55,0
'[12:15:02.332 20/01/2026]',-93102.03,-122368.3,-144942.3,-154214.3,-375000,-375000,-117873.2,-151983.9,0.03,-0.02,0.88,-4,0,-2,55,0
'[12:15:02.336 20/01/2026]',-93589.52,-121893,-145134.4,-153209.8,-375000,-375000,-117970.9,-151310.8,0.03,-0.02,0.88,-4,0,-2,55,0
'[12:15:02.340 20/01/2026]',-93619.48,-121834.5,-145216.1,-152991,-375000,-375000,-118002.5,-151438.7,0.03,0.00,0.88,-4,0,-2,55,0
'[12:15:02.344 20/01/2026]',-93046.15,-122417.1,-145001.2,-154182.1,-375000,-375000,-117896.7,-152250,0.03,0.00,0.88,-4,0,-2,55,0
'[12:15:02.348 20/01/2026]',-93025.9,-122409.1,-144921.2,-154290.8,-375000,-375000,-117852.2,-152071,0.03,0.00,0.88,-4,0,-2,55,0
'[12:15:02.352 20/01/2026]',-93477.98,-121971.6,-145088,-153384.3,-375000,-375000,-117954.8,-151423.4,0.03,0.00,0.88,-4,0,-2,55,0
'[12:15:02.356 20/01/2026]',-93664.85,-121781.2,-145227,-152893.8,-375000,-375000,-118029,-151320.7,0.03,0.00,0.88,-4,0,-2,55,0
'[12:15:02.360 20/01/2026]',-93093.27,-122330.9,-145029.1,-154006.5,-375000,-375000,-117907.8,-152143.5,0.03,0.00,0.88,-4,0,-2,55,0
'[12:15:02.364 20/01/2026]',-92967.02,-122457.3,-144912.4,-154359.3,-375000,-375000,-117843.5,-152115.8,0.03,0.00,0.88,-4,0,-2,55,0
'[12:15:02.368 20/01/2026]',-93392.38,-122097.6,-145053.8,-153574.2,-375000,-375000,-117934.9,-151518.8,0.03,0.00,0.88,-4,0,-2,55,0
'[12:15:02.372 20/01/2026]',-93728.91,-121763.3,-145219.8,-152829.8,-375000,-375000,-118021.9,-151204.1,0.03,0.00,0.88,-4,0,-2,55,0
'[12:15:02.376 20/01/2026]',-93218.08,-122281.5,-145056.5,-153779.2,-375000,-375000,-117921.4,-152009.6,0.02,-0.02,0.88,-4,0,-2,55,0
'[12:15:02.380 20/01/2026]',-92965.41,-122509.4,-144891.5,-154370.8,-375000,-375000,-117840.7,-152150.5,0.02,-0.02,0.88,-4,0,-2,55,0
'[12:15:02.384 20/01/2026]',-93316.7,-122175.3,-145006.5,-153745.5,-375000,-375000,-117916.2,-151619.5,0.02,-0.02,0.88,-4,0,-2,55,0
'[12:15:02.388 20/01/2026]',-93726.85,-121776.1,-145214.1,-152863.2,-375000,-375000,-118031.5,-151149.7,0.02,-0.02,0.88,-4,0,-2,55,0
'[12:15:02.392 20/01/2026]',-93292.55,-122151.7,-145102.7,-153560,-375000,-375000,-117948.7,-151862.5,0.02,-0.02,0.88,-4,0,-2,55,0
'[12:15:02.396 20/01/2026]',-92924.65,-122479.7,-144891,-154363.3,-375000,-375000,-117836.6,-152177.2,0.02,-0.02,0.88,-4,0,-2,55,0
'[12:15:02.400 20/01/2026]',-93204.36,-122221.1,-144959.2,-153904.1,-375000,-375000,-117883.2,-151716,0.02,-0.02,0.88,-4,0,-2,55,0
'[12:15:02.404 20/01/2026]',-93667.17,-121768.9,-145177.4,-152930.6,-375000,-375000,-117996.6,-151125.2,0.02,-0.02,0.88,-4,0,-2,55,0
'[12:15:02.408 20/01/2026]',-93384.87,-122011.4,-145153,-153347.6,-375000,-375000,-117974.8,-151694,0.02,-0.02,0.88,-4,0,-2,55,0
'[12:15:02.412 20/01/2026]',-92954.33,-122475.3,-144931.7,-154342.4,-375000,-375000,-117868.8,-152222.6,0.03,-0.02,0.88,-4,0,-2,55,0
'[12:15:02.416 20/01/2026]',-93167.97,-122290.1,-144954.8,-154064.9,-375000,-375000,-117903.4,-151868.1,0.03,-0.02,0.88,-4,0,-2,55,0
'[12:15:02.420 20/01/2026]',-93633.73,-121818.2,-145172.4,-153085,-375000,-375000,-118034.3,-151242,0.03,-0.02,0.88,-4,0,-2,55,0
'[12:15:02.424 20/01/2026]',-93527.02,-121916.4,-145210.3,-153180.4,-375000,-375000,-118030.7,-151581.1,0.03,-0.02,0.88,-4,0,-2,55,0
'[12:15:02.428 20/01/2026]',-92990.95,-122425,-144963.7,-154257.6,-375000,-375000,-117884.7,-152230.3,0.03,-0.02,0.88,-4,0,-2,55,0
'[12:15:02.432 20/01/2026]',-93105.3,-122325.2,-144951.1,-154177.6,-375000,-375000,-117886.9,-151972.3,0.03,-0.02,0.88,-4,0,-2,55,0
'[12:15:02.436 20/01/2026]',-93583.71,-121866.5,-145149.9,-153235.1,-375000,-375000,-118002.2,-151329.8,0.03,-0.02,0.88,-4,0,-2,55,0
'[12:15:02.440 20/01/2026]',-93626.45,-121792.8,-145236.6,-153016,-375000,-375000,-118032.5,-151436.4,0.03,-0.02,0.88,-4,0,-2,55,0
'[12:15:02.444 20/01/2026]',-93056.43,-122362.1,-145021.4,-154141.6,-375000,-375000,-117912.4,-152228.9,0.03,-0.02,0.88,-4,0,-2,55,0
'[12:15:02.448 20/01/2026]',-93047.58,-122376.9,-144949.5,-154277.5,-375000,-375000,-117877.6,-152074.2,0.03,0.00,0.89,-4,0,-2,55,0
'[12:15:02.452 20/01/2026]',-93487.55,-121938.7,-145115.3,-153415.2,-375000,-375000,-117974,-151430.6,0.03,0.00,0.89,-4,0,-2,55,0
'[12:15:02.456 20/01/2026]',-93692.92,-121740.6,-145263.8,-152928.1,-375000,-375000,-118060.4,-151339.9,0.03,0.00,0.89,-4,0,-2,55,0
'[12:15:02.460 20/01/2026]',-93136.27,-122283.2,-145066.3,-153977.5,-375000,-375000,-117954.9,-152175.8,0.03,0.00,0.89,-4,0,-2,55,0
'[12:15:02.464 20/01/2026]',-93016.06,-122399.3,-144954.5,-154358.8,-375000,-375000,-117893.8,-152161.9,0.03,0.00,0.89,-4,0,-2,55,0
'[12:15:02.468 20/01/2026]',-93394.84,-121979.9,-145084.1,-153605.3,-375000,-375000,-117947.1,-151530.1,0.03,0.00,0.89,-4,0,-2,55,0
'[12:15:02.472 20/01/2026]',-93726.63,-121683.5,-145262.5,-152877.6,-375000,-375000,-118045.4,-151215,0.03,0.00,0.89,-4,0,-2,55,0
'[12:15:02.476 20/01/2026]',-93217.73,-122194.4,-145113.7,-153773.4,-375000,-375000,-117961.6,-152019.7,0.03,0.00,0.89,-4,0,-2,55,0
'[12:15:02.480 20/01/2026]',-92972.16,-122430.4,-144941.1,-154355.6,-375000,-375000,-117867.3,-152156,0.03,0.00,0.89,-4,0,-2,55,0
'[12:15:02.484 20/01/2026]',-93301.85,-122105.3,-145044.3,-153750.2,-375000,-375000,-117926.5,-151616.1,0.02,0.00,0.88,-4,0,-2,55,0
'[12:15:02.488 20/01/2026]',-93725.51,-121711.5,-145247,-152882.7,-375000,-375000,-118043.5,-151141.9,0.02,0.00,0.88,-4,0,-2,55,0
'[12:15:02.492 20/01/2026]',-93343.16,-122103.6,-145158.8,-153561.8,-375000,-375000,-117994.5,-151869,0.02,0.00,0.88,-4,0,-2,55,0
'[12:15:02.496 20/01/2026]',-92992.28,-122462.9,-144956.6,-154371.4,-375000,-375000,-117879.3,-152213.5,0.02,0.00,0.88,-4,0,-2,55,0
'[12:15:02.500 20/01/2026]',-93237.13,-122212.3,-145020.1,-153933.2,-375000,-375000,-117927.8,-151760.7,0.02,0.00,0.88,-4,0,-2,55,0
'[12:15:02.504 20/01/2026]',-93701.28,-121760.9,-145218.7,-152988.1,-375000,-375000,-118047.3,-151177.8,0.02,0.00,0.88,-4,0,-2,55,0
'[12:15:02.508 20/01/2026]',-93467.03,-121995.2,-145191.1,-153341.2,-375000,-375000,-118009.6,-151706.3,0.02,0.00,0.88,-4,0,-2,55,0
'[12:15:02.512 20/01/2026]',-92993.71,-122429.8,-144968.4,-154301.4,-375000,-375000,-117885.6,-152218,0.02,0.00,0.88,-4,0,-2,55,0
'[12:15:02.516 20/01/2026]',-93159.7,-122263.6,-144988,-154045,-375000,-375000,-117910.8,-151858.2,0.02,0.00,0.88,-4,0,-2,55,0
'[12:15:02.520 20/01/2026]',-93651.52,-121812.6,-145188,-153084.9,-375000,-375000,-118028.6,-151222.2,0.03,-0.02,0.88,-4,0,-2,55,0
'[12:15:02.524 20/01/2026]',-93553.45,-121893.5,-145224,-153141.4,-375000,-375000,-118022.6,-151535.1,0.03,-0.02,0.88,-4,0,-2,55,0
'[12:15:02.528 20/01/2026]',-93029.12,-122439,-145004.2,-154222,-375000,-375000,-117890.1,-152208.8,0.03,-0.02,0.88,-4,0,-2,55,0
'[12:15:02.532 20/01/2026]',-93108.02,-122357.3,-144978.2,-154163.9,-375000,-375000,-117884.8,-151951.8,0.03,-0.02,0.88,-4,0,-2,55,0
'[12:15:02.536 20/01/2026]',-93584.83,-121902.7,-145168.5,-153240.3,-375000,-375000,-117997.6,-151304.6,0.03,-0.02,0.88,-4,0,-2,55,0
'[12:15:02.540 20/01/2026]',-93635.26,-121820.4,-145261.5,-152983.4,-375000,-375000,-118037.4,-151393,0.03,-0.02,0.88,-4,0,-2,55,0
'[12:15:02.544 20/01/2026]',-93074.76,-122374.1,-145042.2,-154076.9,-375000,-375000,-117913.3,-152177,0.03,-0.02,0.88,-4,0,-2,55,0
'[12:15:02.548 20/01/2026]',-93037.57,-122386.5,-144969.1,-154234.9,-375000,-375000,-117884.5,-152051.5,0.03,-0.02,0.88,-4,0,-2,55,0
'[12:15:02.552 20/01/2026]',-93492.65,-121970.2,-145129.2,-153396.6,-375000,-375000,-117975.3,-151408.8,0.03,-0.02,0.88,-4,0,-2,55,0
'[12:15:02.556 20/01/2026]',-93718.8,-121765.3,-145286.8,-152883.2,-375000,-375000,-118051.6,-151284.1,0.03,-0.02,0.88,-4,0,-2,55,0
'[12:15:02.560 20/01/2026]',-93159.12,-122314.3,-145099.1,-153908.5,-375000,-375000,-117930.8,-152102.5,0.03,-0.02,0.88,-4,0,-2,55,0
'[12:15:02.564 20/01/2026]',-93014.14,-122437,-144968.7,-154297.1,-375000,-375000,-117852.9,-152110,0.03,-0.02,0.88,-4,0,-2,55,0
'[12:15:02.568 20/01/2026]',-93389.66,-122057.3,-145096.9,-153575.3,-375000,-375000,-117940,-151535.9,0.03,-0.02,0.88,-4,0,-2,55,0
'[12:15:02.572 20/01/2026]',-93723.05,-121731.5,-145270.5,-152836.3,-375000,-375000,-118032.9,-151180.2,0.03,-0.02,0.88,-4,0,-2,55,0
'[12:15:02.576 20/01/2026]',-93221.39,-122209,-145124.4,-153704.8,-375000,-375000,-117937.1,-151968,0.03,-0.02,0.88,-4,0,-2,55,0
'[12:15:02.580 20/01/2026]',-92979.27,-122448.8,-144952.3,-154321,-375000,-375000,-117848.5,-152146.8,0.03,-0.02,0.88,-4,0,-2,55,0
'[12:15:02.584 20/01/2026]',-93316.07,-122133.4,-145046.2,-153747.7,-375000,-375000,-117918,-151643,0.03,-0.02,0.88,-4,0,-2,55,0
'[12:15:02.588 20/01/2026]',-93723.63,-121732.4,-145250.9,-152864.7,-375000,-375000,-118035.4,-151163,0.03,-0.02,0.88,-4,0,-2,55,0
'[12:15:02.592 20/01/2026]',-93336.01,-122112,-145165,-153502.3,-375000,-375000,-117969.7,-151847.5,0.03,-0.02,0.88,-4,0,-2,57,0
'[12:15:02.596 20/01/2026]',-92956.16,-122478.8,-144960.9,-154331.5,-375000,-375000,-117864.2,-152217.5,0.03,-0.02,0.88,-4,0,-2,57,0
'[12:15:02.600 20/01/2026]',-93231.98,-122225.1,-145013.5,-153905.2,-375000,-375000,-117891.7,-151762.1,0.03,-0.02,0.88,-4,0,-2,57,0
'[12:15:02.604 20/01/2026]',-93698.69,-121772.7,-145221.6,-152954,-375000,-375000,-118008.1,-151166,0.03,-0.02,0.88,-4,0,-2,57,0
'[12:15:02.608 20/01/2026]',-93451.79,-122010.4,-145197.8,-153297.3,-375000,-375000,-117985.6,-151689.1,0.03,-0.02,0.88,-4,0,-2,57,0
'[12:15:02.612 20/01/2026]',-92965.23,-122482,-144990.5,-154285.2,-375000,-375000,-117869.7,-152218.2,0.03,-0.02,0.88,-4,0,-2,57,0
'[12:15:02.616 20/01/2026]',-93115.17,-122292.6,-144988.7,-154041.4,-375000,-375000,-117874,-151848.3,0.03,-0.02,0.88,-4,0,-2,57,0
'[12:15:02.620 20/01/2026]',-93637.13,-121819.6,-145188.8,-153066.1,-375000,-375000,-118000.4,-151189.3,0.03,-0.02,0.88,-4,0,-2,57,0
'[12:15:02.624 20/01/2026]',-93553,-121904.5,-145238.3,-153094.9,-375000,-375000,-118027.1,-151494.8,0.03,-0.02,0.88,-4,0,-2,57,0
'[12:15:02.628 20/01/2026]',-92994.3,-122438.6,-144999.5,-154175.8,-375000,-375000,-117862.5,-152140.3,0.03,-0.02,0.89,-4,0,-2,57,0
'[12:15:02.632 20/01/2026]',-93070.74,-122356.5,-144957.9,-154128.5,-375000,-375000,-117837.6,-151867.6,0.03,-0.02,0.89,-4,0,-2,57,0
'[12:15:02.636 20/01/2026]',-93545.98,-121885.3,-145144,-153210.8,-375000,-375000,-117971.7,-151250.6,0.03,-0.02,0.89,-4,0,-2,57,0
'[12:15:02.640 20/01/2026]',-93627.7,-121808.5,-145241.5,-152931.6,-375000,-375000,-118030,-151315.1,0.03,-0.02,0.89,-4,0,-2,57,0
'[12:15:02.644 20/01/2026]',-93060.45,-122399.7,-145028,-154049,-375000,-375000,-117894.9,-152088.6,0.03,-0.02,0.89,-4,0,-2,57,0
'[12:15:02.648 20/01/2026]',-93006.68,-122415.4,-144934.6,-154221.6,-375000,-375000,-117843.6,-151938.7,0.03,-0.02,0.89,-4,0,-2,57,0
'[12:15:02.652 20/01/2026]',-93441.95,-121977.2,-145095.2,-153378.1,-375000,-375000,-117948.8,-151317.5,0.03,-0.02,0.89,-4,0,-2,57,0
'[12:15:02.656 20/01/2026]',-93669.81,-121739.9,-145235.7,-152826.3,-375000,-375000,-118033.3,-151170.4,0.03,-0.02,0.89,-4,0,-2,57,0
'[12:15:02.660 20/01/2026]',-93121.7,-122308.5,-145059.8,-153881,-375000,-375000,-117926.4,-152003.1,0.03,-0.02,0.89,-4,0,-2,57,0
'[12:15:02.664 20/01/2026]',-92955.31,-122449,-144939.8,-154294.9,-375000,-375000,-117858.3,-152018.8,0.03,-0.02,0.89,-4,0,-2,57,0
'[12:15:02.668 20/01/2026]',-93357.6,-122069.2,-145062.1,-153568.7,-375000,-375000,-117953.8,-151455.5,0.03,-0.02,0.89,-4,0,-2,57,0
'[12:15:02.672 20/01/2026]',-93709.51,-121711.4,-145231.7,-152805.5,-375000,-375000,-118059.1,-151113,0.03,-0.02,0.89,-4,0,-2,57,0
'[12:15:02.676 20/01/2026]',-93235.02,-122211.9,-145103.2,-153688.7,-375000,-375000,-117971.6,-151909.9,0.03,-0.02,0.89,-4,0,-2,57,0
'[12:15:02.680 20/01/2026]',-92958.76,-122490.7,-144933.4,-154334.4,-375000,-375000,-117859.6,-152080.9,0.03,-0.02,0.89,-4,0,-2,57,0
'[12:15:02.684 20/01/2026]',-93255.59,-122142.7,-145008,-153733.3,-375000,-375000,-117897.6,-151539.4,0.03,-0.02,0.89,-4,0,-2,57,0
'[12:15:02.688 20/01/2026]',-93675.94,-121695,-145212.4,-152824.7,-375000,-375000,-118023.2,-151051.8,0.03,-0.02,0.89,-4,0,-2,57,0
'[12:15:02.692 20/01/2026]',-93318.26,-122098.2,-145151.8,-153475.2,-375000,-375000,-117984.7,-151759.6,0.03,-0.02,0.89,-4,0,-2,57,0
'[12:15:02.696 20/01/2026]',-92944.01,-122470.8,-144936,-154308.4,-375000,-375000,-117847.6,-152097.3,0.03,-0.02,0.89,-4,0,-2,57,0
'[12:15:02.700 20/01/2026]',-93181.24,-122206.3,-144980.7,-153886.3,-375000,-375000,-117879.1,-151653.6,0.03,-0.02,0.88,-4,0,-2,57,0
'[12:15:02.704 20/01/2026]',-93625.91,-121719.1,-145175.4,-152906.3,-375000,-375000,-118007.5,-151071.4,0.03,-0.02,0.88,-4,0,-2,57,0
'[12:15:02.708 20/01/2026]',-93396.27,-121939.6,-145168.6,-153229.7,-375000,-375000,-117987,-151579.4,0.03,-0.02,0.88,-4,0,-2,57,0
'[12:15:02.712 20/01/2026]',-92940.25,-122444.4,-144955.8,-154252.2,-375000,-375000,-117849,-152125.1,0.03,-0.02,0.88,-4,0,-2,57,0
'[12:15:02.716 20/01/2026]',-93090.81,-122258.8,-144939.3,-154008.3,-375000,-375000,-117839.4,-151767.5,0.03,-0.02,0.88,-4,0,-2,57,0
'[12:15:02.720 20/01/2026]',-93572.36,-121759.6,-145117.3,-153013,-375000,-375000,-117944.2,-151117,0.03,-0.02,0.88,-4,0,-2,57,0
'[12:15:02.724 20/01/2026]',-93509.15,-121845.6,-145190.2,-153024.2,-375000,-375000,-117974.3,-151422.2,0.03,-0.02,0.88,-4,0,-2,57,0
'[12:15:02.728 20/01/2026]',-92958.66,-122419.2,-144983.9,-154152.3,-375000,-375000,-117848.2,-152117,0.03,-0.02,0.88,-4,0,-2,57,0
'[12:15:02.732 20/01/2026]',-93021.2,-122331,-144928.8,-154119.7,-375000,-375000,-117837.1,-151871.6,0.03,-0.02,0.88,-4,0,-2,57,0
'[12:15:02.736 20/01/2026]',-93468.02,-121834.2,-145098.3,-153169.5,-375000,-375000,-117942.6,-151224.5,0.03,0.00,0.88,-4,0,-2,57,0
'[12:15:02.740 20/01/2026]',-93580.45,-121724.3,-145204.5,-152857,-375000,-375000,-117981.7,-151258.5,0.03,0.00,0.88,-4,0,-2,57,0
'[12:15:02.744 20/01/2026]',-92991.48,-122333.4,-144990.6,-153995.3,-375000,-375000,-117841.8,-152050.3,0.03,0.00,0.88,-4,0,-2,57,0
'[12:15:02.748 20/01/2026]',-92951.07,-122362.6,-144889.1,-154197.2,-375000,-375000,-117789.5,-151936.6,0.03,0.00,0.88,-4,0,-2,57,0
'[12:15:02.752 20/01/2026]',-93402.53,-121912.1,-145039,-153346.6,-375000,-375000,-117887.8,-151319.6,0.03,0.00,0.88,-4,0,-2,57,0
'[12:15:02.756 20/01/2026]',-93648.53,-121668.9,-145193.1,-152763.5,-375000,-375000,-117978.1,-151161.4,0.03,0.00,0.88,-4,0,-2,57,0
'[12:15:02.760 20/01/2026]',-93088.93,-122266.8,-145046.2,-153828,-375000,-375000,-117871.6,-151997.5,0.03,0.00,0.88,-4,0,-2,57,0
'[12:15:02.764 20/01/2026]',-92894.74,-122410.4,-144907.3,-154262.7,-375000,-375000,-117790.4,-152018,0.03,0.00,0.88,-4,0,-2,57,0
'[12:15:02.768 20/01/2026]',-93290.55,-121988.8,-145000,-153516,-375000,-375000,-117868.2,-151443.8,0.03,0.00,0.88,-4,0,-2,57,0
'[12:15:02.772 20/01/2026]',-93638.34,-121598.1,-145165.2,-152704.5,-375000,-375000,-117974.7,-151076.4,0.03,0.00,0.89,-4,0,-2,57,0
'[12:15:02.776 20/01/2026]',-93135.96,-122112.9,-145070.1,-153591.4,-375000,-375000,-117892.5,-151864.8,0.03,0.00,0.89,-4,0,-2,57,0
'[12:15:02.780 20/01/2026]',-92866.22,-122396.6,-144904.5,-154271.9,-375000,-375000,-117791.1,-152074.7,0.03,0.00,0.89,-4,0,-2,57,0
'[12:15:02.784 20/01/2026]',-93200.78,-122047.3,-144953.4,-153670.3,-375000,-375000,-117834.2,-151557.7,0.03,0.00,0.89,-4,0,-2,57,0
'[12:15:02.788 20/01/2026]',-93623.85,-121575.2,-145121,-152710.3,-375000,-375000,-117927,-151023.2,0.03,0.00,0.89,-4,0,-2,57,0
'[12:15:02.792 20/01/2026]',-93252.73,-121986.6,-145077.3,-153339.2,-375000,-375000,-117870.1,-151692.1,0.03,0.00,0.89,-4,0,-2,57,0
'[12:15:02.796 20/01/2026]',-92843.29,-122428.2,-144897.1,-154252.1,-375000,-375000,-117769.9,-152103.2,0.03,0.00,0.89,-4,0,-2,57,0
'[12:15:02.800 20/01/2026]',-93058.45,-122132.9,-144915.9,-153825.3,-375000,-375000,-117787,-151640.8,0.03,0.00,0.89,-4,0,-2,57,0
'[12:15:02.804 20/01/2026]',-93541.29,-121594.9,-145093.3,-152808.5,-375000,-375000,-117900,-151016.4,0.03,0.00,0.89,-4,0,-2,57,0
'[12:15:02.808 20/01/2026]',-93332.48,-121832.8,-145112.4,-153114.6,-375000,-375000,-117887.3,-151513.4,0.05,0.00,0.88,-4,0,-2,57,0
'[12:15:02.812 20/01/2026]',-92865.37,-122385.9,-144902.9,-154183.3,-375000,-375000,-117769.5,-152094.7,0.05,0.00,0.88,-4,0,-2,57,0
'[12:15:02.816 20/01/2026]',-93038.46,-122176.6,-144878.4,-153955.3,-375000,-375000,-117776.1,-151738.9,0.05,0.00,0.88,-4,0,-2,57,0
'[12:15:02.820 20/01/2026]',-93486.21,-121612.5,-145025,-152913.9,-375000,-375000,-117856,-151043.1,0.05,0.00,0.88,-4,0,-2,57,0
'[12:15:02.824 20/01/2026]',-93426.45,-121688.2,-145087.8,-152883,-375000,-375000,-117861.8,-151293,0.05,0.00,0.88,-4,0,-2,57,0
'[12:15:02.828 20/01/2026]',-92883.61,-122353,-144911.3,-154068.5,-375000,-375000,-117749.3,-152024.8,0.05,0.00,0.88,-4,0,-2,57,0
'[12:15:02.832 20/01/2026]',-92932.16,-122267.7,-144854.1,-154060.3,-375000,-375000,-117728.7,-151773.2,0.05,0.00,0.88,-4,0,-2,57,0
'[12:15:02.836 20/01/2026]',-93386.75,-121722.4,-144987.2,-153078.2,-375000,-375000,-117823.7,-151102.3,0.05,0.00,0.88,-4,0,-2,57,0
'[12:15:02.840 20/01/2026]',-93506.24,-121589.1,-145096.4,-152726,-375000,-375000,-117876.9,-151129.9,0.05,0.00,0.88,-4,0,-2,57,0
'[12:15:02.844 20/01/2026]',-92936.27,-122237.1,-144932.6,-153908.3,-375000,-375000,-117756.8,-151948.4,0.02,-0.02,0.89,-4,0,-2,57,0
'[12:15:02.848 20/01/2026]',-92871.54,-122271,-144823.4,-154130.6,-375000,-375000,-117701.2,-151827.8,0.02,-0.02,0.89,-4,0,-2,57,0
'[12:15:02.852 20/01/2026]',-93284.78,-121799.8,-144929,-153252.9,-375000,-375000,-117792.9,-151200.2,0.02,-0.02,0.89,-4,0,-2,57,0
'[12:15:02.856 20/01/2026]',-93529.3,-121524.5,-145075.8,-152628.3,-375000,-375000,-117885.6,-151015.8,0.02,-0.02,0.89,-4,0,-2,57,0
'[12:15:02.860 20/01/2026]',-93001.63,-122147.3,-144950.3,-153712,-375000,-375000,-117779.5,-151850.1,0.02,-0.02,0.89,-4,0,-2,57,0
'[12:15:02.864 20/01/2026]',-92820.84,-122301.5,-144803.7,-154180.6,-375000,-375000,-117708.7,-151895.8,0.02,-0.02,0.89,-4,0,-2,57,0
'[12:15:02.868 20/01/2026]',-93184.6,-121866.6,-144876.7,-153423.4,-375000,-375000,-117756.8,-151291.2,0.02,-0.02,0.89,-4,0,-2,57,0
'[12:15:02.872 20/01/2026]',-93553.76,-121464.3,-145045.1,-152577.3,-375000,-375000,-117852.7,-150893.4,0.02,-0.02,0.89,-4,0,-2,57,0
'[12:15:02.876 20/01/2026]',-93085.27,-122024,-144970.1,-153456.7,-375000,-375000,-117780.5,-151680.3,0.02,-0.02,0.89,-4,0,-2,57,0
'[12:15:02.880 20/01/2026]',-92783.74,-122333.6,-144789.6,-154172.2,-375000,-375000,-117680.2,-151907.5,0.02,-0.02,0.88,-4,0,-2,57,0
'[12:15:02.884 20/01/2026]',-93092.6,-121956.1,-144829,-153579.6,-375000,-375000,-117719.8,-151383.9,0.02,-0.02,0.88,-4,0,-2,57,0
'[12:15:02.888 20/01/2026]',-93529.48,-121455.7,-144991.7,-152608.2,-375000,-375000,-117832,-150848.8,0.02,-0.02,0.88,-4,0,-2,57,0
'[12:15:02.892 20/01/2026]',-93171.05,-121875.5,-144972.8,-153217,-375000,-375000,-117785.1,-151506,0.02,-0.02,0.88,-4,0,-2,57,0
'[12:15:02.896 20/01/2026]',-92738.59,-122322.1,-144784,-154155.9,-375000,-375000,-117672.1,-151913.6,0.02,-0.02,0.88,-4,0,-2,57,0
'[12:15:02.900 20/01/2026]',-92977.13,-122010,-144788.1,-153736.1,-375000,-375000,-117688.7,-151457.6,0.02,-0.02,0.88,-4,0,-2,57,0
'[12:15:02.904 20/01/2026]',-93474.45,-121487.8,-144950.7,-152693.4,-375000,-375000,-117800.4,-150819.8,0.02,-0.02,0.88,-4,0,-2,57,0
'[12:15:02.908 20/01/2026]',-93261.84,-121732.2,-144982.8,-152973.8,-375000,-375000,-117793.6,-151289.4,0.02,-0.02,0.88,-4,0,-2,57,0
'[12:15:02.912 20/01/2026]',-92759.96,-122291.3,-144786.6,-154057.2,-375000,-375000,-117668.3,-151865.2,0.02,-0.02,0.88,-4,0,-2,57,0
'[12:15:02.916 20/01/2026]',-92925.54,-122113.7,-144754.7,-153843.3,-375000,-375000,-117661.2,-151510.4,0.03,0.00,0.89,-4,0,-2,57,0
'[12:15:02.920 20/01/2026]',-93401.09,-121549,-144905.9,-152815.1,-375000,-375000,-117770.7,-150849.2,0.03,0.00,0.89,-4,0,-2,57,0
'[12:15:02.924 20/01/2026]',-93348.57,-121592.8,-144981.7,-152763.7,-375000,-375000,-117807.6,-151104.9,0.03,0.00,0.89,-4,0,-2,57,0
'[12:15:02.928 20/01/2026]',-92779.05,-122256.5,-144795.7,-153947.5,-375000,-375000,-117690.7,-151835.3,0.03,0.00,0.89,-4,0,-2,57,0
'[12:15:02.932 20/01/2026]',-92836.45,-122166.4,-144729.6,-153964,-375000,-375000,-117665.1,-151596.3,0.03,0.00,0.89,-4,0,-2,57,0
'[12:15:02.936 20/01/2026]',-93328.19,-121647.3,-144859.6,-152998.4,-375000,-375000,-117758.6,-150925.8,0.03,0.00,0.89,-4,0,-2,57,0
'[12:15:02.940 20/01/2026]',-93420.99,-121505.7,-144955.8,-152606.8,-375000,-375000,-117785.6,-150908.9,0.03,0.00,0.89,-4,0,-2,57,0
'[12:15:02.944 20/01/2026]',-92815.48,-122165.8,-144798.6,-153770.3,-375000,-375000,-117658.6,-151716.1,0.03,0.00,0.89,-4,0,-2,57,0
'[12:15:02.948 20/01/2026]',-92774.4,-122222.4,-144696.6,-154018,-375000,-375000,-117610.7,-151625.9,0.03,0.00,0.89,-4,0,-2,57,0
'[12:15:02.952 20/01/2026]',-93201.98,-121726.2,-144803.4,-153161.4,-375000,-375000,-117700.3,-151003.4,0.03,-0.02,0.88,-4,0,-2,57,0
'[12:15:02.956 20/01/2026]',-93443.66,-121419.5,-144961.1,-152526.2,-375000,-375000,-117801.8,-150811.1,0.03,-0.02,0.88,-4,0,-2,57,0
'[12:15:02.960 20/01/2026]',-92910.16,-122057,-144860.8,-153606.1,-375000,-375000,-117711.1,-151675,0.03,-0.02,0.88,-4,0,-2,57,0
'[12:15:02.964 20/01/2026]',-92732.2,-122246.6,-144720.8,-154092.2,-375000,-375000,-117630.4,-151736.8,0.03,-0.02,0.88,-4,0,-2,57,0
'[12:15:02.968 20/01/2026]',-93103.55,-121823.8,-144781.7,-153349.8,-375000,-375000,-117676.6,-151146.2,0.03,-0.02,0.88,-4,0,-2,57,0
'[12:15:02.972 20/01/2026]',-93471.41,-121417.3,-144941.6,-152504.5,-375000,-375000,-117766.1,-150717.5,0.03,-0.02,0.88,-4,0,-2,57,0
'[12:15:02.976 20/01/2026]',-93025.37,-121974.9,-144889.9,-153377.5,-375000,-375000,-117706,-151516.9,0.03,-0.02,0.88,-4,0,-2,57,0
'[12:15:02.980 20/01/2026]',-92723.44,-122304,-144743.7,-154123.9,-375000,-375000,-117620.6,-151775.9,0.03,-0.02,0.88,-4,0,-2,57,0
'[12:15:02.984 20/01/2026]',-92989.78,-121922.3,-144763.5,-153532.8,-375000,-375000,-117661.3,-151253.7,0.03,-0.02,0.88,-4,0,-2,57,0
'[12:15:02.988 20/01/2026]',-93423.18,-121410.6,-144928.6,-152544.4,-375000,-375000,-117764.4,-150699.8,0.03,0.00,0.88,-4,0,-2,57,0
'[12:15:02.992 20/01/2026]',-93118.62,-121814.5,-144919.4,-153138.5,-375000,-375000,-117719.6,-151354.8,0.03,0.00,0.88,-4,0,-2,57,0
'[12:15:02.996 20/01/2026]',-92722.45,-122302.8,-144753.5,-154086,-375000,-375000,-117620.2,-151796.5,0.03,0.00,0.88,-4,0,-2,57,0
'[12:15:03.000 20/01/2026]',-92937.84,-122011.4,-144762.1,-153690.9,-375000,-375000,-117648.9,-151383.3,0.03,0.00,0.88,-4,0,-2,57,0
'[12:15:03.004 20/01/2026]',-93392.42,-121438.8,-144897.1,-152640.2,-375000,-375000,-117744.3,-150742.3,0.03,0.00,0.88,-4,0,-2,57,0
'[12:15:03.008 20/01/2026]',-93185.89,-121677.6,-144947.3,-152895.8,-375000,-375000,-117734.7,-151204.2,0.03,0.00,0.88,-4,0,-2,57,0
'[12:15:03.012 20/01/2026]',-92684.5,-122267.3,-144767.6,-154002.8,-375000,-375000,-117615.1,-151832.1,0.03,0.00,0.88,-4,0,-2,57,0
'[12:15:03.016 20/01/2026]',-92825.85,-122084.6,-144715.4,-153796.6,-375000,-375000,-117608,-151505.3,0.03,0.00,0.88,-4,0,-2,57,0
'[12:15:03.020 20/01/2026]',-93318.4,-121534.3,-144852.4,-152765,-375000,-375000,-117701.2,-150842.8,0.03,0.00,0.88,-4,0,-2,57,0
'[12:15:03.024 20/01/2026]',-93319.24,-121583.4,-144946.3,-152689.5,-375000,-375000,-117721.1,-151076.3,0.03,-0.02,0.89,-4,0,-2,57,0
'[12:15:03.028 20/01/2026]',-92745.97,-122236.6,-144769.2,-153873.2,-375000,-375000,-117598.5,-151843.3,0.03,-0.02,0.89,-4,0,-2,57,0
'[12:15:03.032 20/01/2026]',-92777.13,-122155,-144704.4,-153897.6,-375000,-375000,-117573.7,-151636.5,0.03,-0.02,0.89,-4,0,-2,57,0
'[12:15:03.036 20/01/2026]',-93244.63,-121610.9,-144831.3,-152936.7,-375000,-375000,-117682.2,-150994.3,0.03,-0.02,0.89,-4,0,-2,57,0
'[12:15:03.040 20/01/2026]',-93367.44,-121461.6,-144948.9,-152534.6,-375000,-375000,-117736.1,-150988.8,0.03,-0.02,0.89,-4,0,-2,57,0
'[12:15:03.044 20/01/2026]',-92774.49,-122150,-144809.4,-153709.2,-375000,-375000,-117617.4,-151829,0.03,-0.02,0.89,-4,0,-2,57,0
'[12:15:03.048 20/01/2026]',-92686.29,-122201.5,-144706.9,-153975.2,-375000,-375000,-117559.1,-151748.8,0.03,-0.02,0.89,-4,0,-2,57,0
'[12:15:03.052 20/01/2026]',-93142.98,-121723.2,-144810.3,-153132.9,-375000,-375000,-117654.5,-151152.5,0.03,-0.02,0.89,-4,0,-2,57,0
'[12:15:03.056 20/01/2026]',-93391.76,-121408.3,-144941.2,-152469.3,-375000,-375000,-117726.6,-150916.9,0.03,-0.02,0.89,-4,0,-2,57,0
'[12:15:03.060 20/01/2026]',-92870.02,-122063.1,-144837.7,-153513,-375000,-375000,-117628.6,-151754.6,0.02,0.00,0.88,-4,0,-2,57,0
'[12:15:03.064 20/01/2026]',-92664.88,-122249.9,-144684.3,-154008.8,-375000,-375000,-117550.1,-151834.1,0.02,0.00,0.88,-4,0,-2,57,0
'[12:15:03.068 20/01/2026]',-93044.19,-121805.2,-144758,-153296.1,-375000,-375000,-117622.7,-151275.3,0.02,0.00,0.88,-4,0,-2,57,0
'[12:15:03.072 20/01/2026]',-93412.85,-121385.6,-144913.9,-152450.3,-375000,-375000,-117729.4,-150874.3,0.02,0.00,0.88,-4,0,-2,57,0
'[12:15:03.076 20/01/2026]',-92946.69,-121922.7,-144860.6,-153274.1,-375000,-375000,-117655.4,-151645.7,0.02,0.00,0.88,-4,0,-2,57,0
'[12:15:03.080 20/01/2026]',-92651.29,-122271.5,-144693.4,-154019.8,-375000,-375000,-117555.7,-151900,0.02,0.00,0.88,-4,0,-2,57,0
'[12:15:03.084 20/01/2026]',-92953.26,-121915.2,-144726.3,-153466,-375000,-375000,-117595.7,-151398.9,0.02,0.00,0.88,-4,0,-2,57,0
'[12:15:03.088 20/01/2026]',-93372.35,-121413.4,-144887,-152495.5,-375000,-375000,-117701.7,-150855.3,0.02,0.00,0.88,-4,0,-2,57,0
'[12:15:03.092 20/01/2026]',-93047,-121796.8,-144875,-153032.8,-375000,-375000,-117656.8,-151469.7,0.02,0.00,0.88,-4,0,-2,57,0
'[12:15:03.096 20/01/2026]',-92639.75,-122256.6,-144687.3,-153955.3,-375000,-375000,-117543,-151890.3,0.03,0.00,0.88,-4,0,-2,57,0
'[12:15:03.100 20/01/2026]',-92849.14,-121999.6,-144678.5,-153579.4,-375000,-375000,-117572.9,-151476.1,0.03,0.00,0.88,-4,0,-2,57,0
'[12:15:03.104 20/01/2026]',-93279.1,-121448.1,-144816.3,-152561.3,-375000,-375000,-117670.2,-150837.9,0.03,0.00,0.88,-4,0,-2,57,0
'[12:15:03.108 20/01/2026]',-93114.37,-121643.8,-144857.8,-152792.2,-375000,-375000,-117661.8,-151256.1,0.03,0.00,0.88,-4,0,-2,57,0
'[12:15:03.112 20/01/2026]',-92651.29,-122241.3,-144700.3,-153877.3,-375000,-375000,-117553.4,-151854.7,0.03,0.00,0.88,-4,0,-2,57,0
'[12:15:03.116 20/01/2026]',-92788.16,-122072.9,-144655.5,-153701.2,-375000,-375000,-117553.7,-151533.6,0.03,0.00,0.88,-4,0,-2,57,0
'[12:15:03.120 20/01/2026]',-93249.33,-121509,-144782.6,-152718.1,-375000,-375000,-117661,-150874.2,0.03,0.00,0.88,-4,0,-2,57,0
'[12:15:03.124 20/01/2026]',-93235.91,-121549.5,-144876.2,-152625,-375000,-375000,-117699,-151082.8,0.03,0.00,0.88,-4,0,-2,57,0
'[12:15:03.128 20/01/2026]',-92683.47,-122198.5,-144716.4,-153767.3,-375000,-375000,-117578.2,-151810.2,0.03,0.00,0.88,-4,0,-2,57,0
'[12:15:03.132 20/01/2026]',-92719.46,-122139.7,-144640.1,-153817.3,-375000,-375000,-117554.5,-151608.1,0.03,-0.02,0.88,-4,0,-2,57,0
'[12:15:03.136 20/01/2026]',-93152.05,-121598.4,-144745.4,-152881.4,-375000,-375000,-117627.7,-150938.5,0.03,-0.02,0.88,-4,0,-2,57,0
'[12:15:03.140 20/01/2026]',-93276.24,-121442.2,-144858.2,-152478,-375000,-375000,-117684.3,-150901,0.03,-0.02,0.88,-4,0,-2,57,0
'[12:15:03.144 20/01/2026]',-92745.07,-122130.1,-144721.5,-153604.7,-375000,-375000,-117579.5,-151699.1,0.03,-0.02,0.88,-4,0,-2,57,0
'[12:15:03.148 20/01/2026]',-92662.51,-122196.6,-144617.6,-153878.5,-375000,-375000,-117521.9,-151618,0.03,-0.02,0.88,-4,0,-2,57,0
'[12:15:03.152 20/01/2026]',-93046.2,-121707.8,-144703.2,-153062.7,-375000,-375000,-117602.6,-151016,0.03,-0.02,0.88,-4,0,-2,57,0
'[12:15:03.156 20/01/2026]',-93315.4,-121379.2,-144831.4,-152397.1,-375000,-375000,-117677.6,-150767.3,0.03,-0.02,0.88,-4,0,-2,57,0
'[12:15:03.160 20/01/2026]',-92803.05,-122030.5,-144747.1,-153396.7,-375000,-375000,-117591.6,-151588.4,0.03,-0.02,0.88,-4,0,-2,57,0
'[12:15:03.164 20/01/2026]',-92603.59,-122252,-144614.3,-153923.8,-375000,-375000,-117522.8,-151681.8,0.03,-0.02,0.88,-4,0,-2,57,0
'[12:15:03.168 20/01/2026]',-92961.62,-121811.5,-144679,-153241.4,-375000,-375000,-117587.2,-151127.9,0.02,-0.02,0.88,-4,0,-2,57,0
'[12:15:03.172 20/01/2026]',-93326.48,-121369,-144819,-152386.6,-375000,-375000,-117677.8,-150690.7,0.02,-0.02,0.88,-4,0,-2,57,0
'[12:15:03.176 20/01/2026]',-92919.28,-121916.1,-144779.7,-153201.9,-375000,-375000,-117616.1,-151449.6,0.02,-0.02,0.88,-4,0,-2,57,0
'[12:15:03.180 20/01/2026]',-92601.76,-122266.5,-144614.8,-153947,-375000,-375000,-117519.7,-151698.3,0.02,-0.02,0.88,-4,0,-2,57,0
'[12:15:03.184 20/01/2026]',-92883.34,-121919.9,-144637.9,-153407.8,-375000,-375000,-117556.4,-151189.4,0.02,-0.02,0.88,-4,0,-2,57,0
'[12:15:03.188 20/01/2026]',-93316.52,-121402.3,-144777.5,-152440.4,-375000,-375000,-117649.9,-150630.3,0.02,-0.02,0.88,-4,0,-2,57,0
'[12:15:03.192 20/01/2026]',-93002.92,-121778.7,-144792.9,-152959.1,-375000,-375000,-117616,-151237.8,0.02,-0.02,0.88,-4,0,-2,57,0
'[12:15:03.196 20/01/2026]',-92579.89,-122280.7,-144621.7,-153908.9,-375000,-375000,-117501.1,-151669,0.02,-0.02,0.88,-4,0,-2,57,0
'[12:15:03.200 20/01/2026]',-92778.69,-122013.8,-144613.5,-153543.8,-375000,-375000,-117524.7,-151244.7,0.02,-0.02,0.88,-4,0,-2,57,0
'[12:15:03.204 20/01/2026]',-93246.24,-121447.2,-144764.4,-152540.1,-375000,-375000,-117640.7,-150612.7,0.02,0.00,0.88,-4,0,-2,57,0
'[12:15:03.208 20/01/2026]',-93116.29,-121650,-144826,-152757.5,-375000,-375000,-117644.9,-151023,0.02,0.00,0.88,-4,0,-2,57,0
'[12:15:03.212 20/01/2026]',-92629.7,-122292.2,-144662.1,-153872,-375000,-375000,-117532.1,-151644.5,0.02,0.00,0.88,-4,0,-2,57,0
'[12:15:03.216 20/01/2026]',-92734.52,-122121.6,-144601,-153704,-375000,-375000,-117504.5,-151314.9,0.02,0.00,0.88,-4,0,-2,57,0
'[12:15:03.220 20/01/2026]',-93191.26,-121545.3,-144736.3,-152721.4,-375000,-375000,-117608.4,-150672.2,0.02,0.00,0.88,-4,0,-2,57,0
'[12:15:03.224 20/01/2026]',-93193.77,-121545.6,-144829.5,-152603.7,-375000,-375000,-117644.6,-150881.6,0.02,0.00,0.88,-4,0,-2,57,0
'[12:15:03.228 20/01/2026]',-92622.18,-122217.5,-144677.3,-153763,-375000,-375000,-117526.3,-151650.6,0.02,0.00,0.88,-4,0,-2,57,0
'[12:15:03.232 20/01/2026]',-92617.31,-122184.5,-144607,-153826.4,-375000,-375000,-117507.4,-151490.5,0.02,0.00,0.88,-4,0,-2,57,0
'[12:15:03.236 20/01/2026]',-93096.31,-121648,-144711.7,-152877.4,-375000,-375000,-117596.4,-150864.8,0.02,0.00,0.88,-4,0,-2,57,0
'[12:15:03.240 20/01/2026]',-93281.02,-121480.2,-144857.9,-152438,-375000,-375000,-117663.2,-150841.5,0.03,-0.02,0.88,-4,0,-2,57,0
'[12:15:03.244 20/01/2026]',-92714.45,-122160.6,-144735.5,-153570.5,-375000,-375000,-117541.3,-151677.4,0.03,-0.02,0.88,-4,0,-2,57,0
'[12:15:03.248 20/01/2026]',-92587.59,-122236.9,-144618.2,-153867.8,-375000,-375000,-117493.5,-151645.7,0.03,-0.02,0.88,-4,0,-2,57,0
'[12:15:03.252 20/01/2026]',-92999.57,-121741.6,-144697.4,-153035.8,-375000,-375000,-117576.5,-151049.9,0.03,-0.02,0.88,-4,0,-2,57,0
'[12:15:03.256 20/01/2026]',-93301.27,-121392.8,-144825.8,-152336.3,-375000,-375000,-117625.9,-150763.7,0.03,-0.02,0.88,-4,0,-2,57,0
'[12:15:03.260 20/01/2026]',-92785.04,-122058.3,-144756.2,-153361.7,-375000,-375000,-117535.8,-151614.2,0.03,-0.02,0.88,-4,0,-2,57,0
'[12:15:03.264 20/01/2026]',-92561.79,-122302,-144620.6,-153892.4,-375000,-375000,-117462.8,-151737.6,0.03,-0.02,0.88,-4,0,-2,57,0
'[12:15:03.268 20/01/2026]',-92911.23,-121854.7,-144660,-153189.8,-375000,-375000,-117520.9,-151198,0.03,-0.02,0.88,-4,0,-2,57,0
'[12:15:03.272 20/01/2026]',-93289.74,-121381.1,-144804.1,-152315.4,-375000,-375000,-117620.1,-150783.5,0.03,-0.02,0.88,-4,0,-2,57,0
'[12:15:03.276 20/01/2026]',-92865.51,-121926.7,-144770.9,-153129.1,-375000,-375000,-117569.8,-151576.1,0.03,-0.02,0.88,-4,0,-2,57,0
'[12:15:03.280 20/01/2026]',-92539.75,-122307.7,-144607.4,-153902.6,-375000,-375000,-117475.4,-151901,0.03,-0.02,0.88,-4,0,-2,57,0
'[12:15:03.284 20/01/2026]',-92803.86,-121958.8,-144623.1,-153350.3,-375000,-375000,-117498.3,-151418.3,0.03,-0.02,0.88,-4,0,-2,57,0
'[12:15:03.288 20/01/2026]',-93253.13,-121430.5,-144764.9,-152373.1,-375000,-375000,-117596.4,-150869.4,0.03,-0.02,0.88,-4,0,-2,57,0
'[12:15:03.292 20/01/2026]',-92974.94,-121812.4,-144779,-152890.5,-375000,-375000,-117574.1,-151496.9,0.03,-0.02,0.88,-4,0,-2,57,0
'[12:15:03.296 20/01/2026]',-92567.2,-122326.5,-144612.3,-153858.6,-375000,-375000,-117471.6,-151979.2,0.03,-0.02,0.88,-4,0,-2,57,0
'[12:15:03.300 20/01/2026]',-92766.98,-122053.1,-144597.3,-153505.6,-375000,-375000,-117484.6,-151573.9,0.03,-0.02,0.88,-4,0,-2,57,0
'[12:15:03.304 20/01/2026]',-93216.25,-121471.2,-144724.9,-152467.8,-375000,-375000,-117582,-150927.5,0.03,-0.02,0.88,-4,0,-2,57,0
'[12:15:03.308 20/01/2026]',-93079.14,-121669.3,-144793,-152650.4,-375000,-375000,-117603.3,-151330.3,0.03,-0.02,0.88,-4,0,-2,57,0
'[12:15:03.312 20/01/2026]',-92587.85,-122315.5,-144640,-153771.9,-375000,-375000,-117498.9,-151966.5,0.03,0.00,0.89,-4,0,-2,57,0
'[12:15:03.316 20/01/2026]',-92716.11,-122172.9,-144591.6,-153634.8,-375000,-375000,-117488.8,-151659.5,0.03,0.00,0.89,-4,0,-2,57,0
'[12:15:03.320 20/01/2026]',-93187.68,-121612.9,-144712.3,-152645.1,-375000,-375000,-117590.9,-150988.9,0.03,0.00,0.89,-4,0,-2,57,0
'[12:15:03.324 20/01/2026]',-93215.48,-121629.3,-144807.9,-152492.8,-375000,-375000,-117616.3,-151112.1,0.03,0.00,0.89,-4,0,-2,57,0
'[12:15:03.328 20/01/2026]',-92681.33,-122344.6,-144674.2,-153667,-375000,-375000,-117499.6,-151858.6,0.03,0.00,0.89,-4,0,-2,57,0
'[12:15:03.332 20/01/2026]',-92729.56,-122328,-144598.3,-153745.8,-375000,-375000,-117476.5,-151667.1,0.03,0.00,0.89,-4,0,-2,57,0
'[12:15:03.336 20/01/2026]',-93181.78,-121807.8,-144701.8,-152829.7,-375000,-375000,-117572.5,-151025.2,0.03,0.00,0.89,-4,0,-2,57,0
'[12:15:03.340 20/01/2026]',-93363.14,-121633.9,-144825.8,-152391.2,-375000,-375000,-117647.1,-150958.1,0.03,0.00,0.89,-4,0,-2,57,0
'[12:15:03.344 20/01/2026]',-92818.03,-122335.5,-144721.8,-153529.4,-375000,-375000,-117525.5,-151754.1,0.03,0.00,0.89,-4,0,-2,57,0
'[12:15:03.348 20/01/2026]',-92744.05,-122458.8,-144604.7,-153849.9,-375000,-375000,-117454.7,-151692.6,0.03,0.00,0.88,-4,0,-2,57,0
'[12:15:03.352 20/01/2026]',-93209.19,-122002.8,-144697.2,-153042.2,-375000,-375000,-117537.4,-151081.3,0.03,0.00,0.88,-4,0,-2,57,0
'[12:15:03.356 20/01/2026]',-93540.98,-121684.4,-144841.3,-152348.3,-375000,-375000,-117633.3,-150801.4,0.03,0.00,0.88,-4,0,-2,57,0
'[12:15:03.360 20/01/2026]',-93039.31,-122348.5,-144783.9,-153367.7,-375000,-375000,-117554.9,-151618.6,0.03,0.00,0.88,-4,0,-2,57,0
'[12:15:03.364 20/01/2026]',-92837.3,-122603.4,-144628.3,-153928.2,-375000,-375000,-117469.8,-151724.8,0.03,0.00,0.88,-4,0,-2,57,0
'[12:15:03.368 20/01/2026]',-93178.7,-122195.5,-144683.8,-153259.2,-375000,-375000,-117535.3,-151175.8,0.03,0.00,0.88,-4,0,-2,57,0
'[12:15:03.372 20/01/2026]',-93537.27,-121704,-144834.7,-152361.5,-375000,-375000,-117619.3,-150704.4,0.03,0.00,0.88,-4,0,-2,57,0
'[12:15:03.376 20/01/2026]',-93133.86,-122212.9,-144813.2,-153155.3,-375000,-375000,-117577,-151454.8,0.03,0.00,0.88,-4,0,-2,57,0
'[12:15:03.380 20/01/2026]',-92813.07,-122621.2,-144644.3,-153941.5,-375000,-375000,-117472.5,-151739.9,0.03,0.00,0.88,-4,0,-2,57,0
'[12:15:03.384 20/01/2026]',-93074,-122279.7,-144655.7,-153418.7,-375000,-375000,-117502.1,-151262.8,0.03,-0.02,0.88,-4,0,-2,57,0
'[12:15:03.388 20/01/2026]',-93509.33,-121719.8,-144797.5,-152420.2,-375000,-375000,-117615.9,-150701.4,0.03,-0.02,0.88,-4,0,-2,57,0
'[12:15:03.392 20/01/2026]',-93201.72,-122053.3,-144810.7,-152893,-375000,-375000,-117580.6,-151274.8,0.03,-0.02,0.88,-4,0,-2,57,0
'[12:15:03.396 20/01/2026]',-92781.59,-122554.7,-144643.9,-153889.4,-375000,-375000,-117477.3,-151761.2,0.03,-0.02,0.88,-4,0,-2,57,0
'[12:15:03.400 20/01/2026]',-92955.72,-122289.2,-144619.7,-153546.5,-375000,-375000,-117502.3,-151374.5,0.03,-0.02,0.88,-4,0,-2,57,0
'[12:15:03.404 20/01/2026]',-93394.8,-121717.1,-144751.5,-152517.9,-375000,-375000,-117603,-150746,0.03,-0.02,0.88,-4,0,-2,57,0
'[12:15:03.408 20/01/2026]',-93235.34,-121858.4,-144817.8,-152661.8,-375000,-375000,-117592.2,-151128.4,0.03,-0.02,0.88,-4,0,-2,57,0
'[12:15:03.412 20/01/2026]',-92718.66,-122494.7,-144675.2,-153795.7,-375000,-375000,-117490,-151800.3,0.03,-0.02,0.88,-4,0,-2,57,0
'[12:15:03.416 20/01/2026]',-92802.83,-122333.4,-144627.9,-153673.2,-375000,-375000,-117490.2,-151524.6,0.03,-0.02,0.88,-4,0,-2,57,0
'[12:15:03.420 20/01/2026]',-93232.88,-121747,-144726.7,-152665.3,-375000,-375000,-117578.1,-150867.9,0.03,0.00,0.89,-4,0,-2,57,0
'[12:15:03.424 20/01/2026]',-93252.77,-121691.6,-144813.2,-152469.5,-375000,-375000,-117596,-151009,0.03,0.00,0.89,-4,0,-2,57,0
'[12:15:03.428 20/01/2026]',-92682.22,-122374.4,-144686.2,-153654.7,-375000,-375000,-117495.2,-151798.1,0.03,0.00,0.89,-4,0,-2,57,0
'[12:15:03.432 20/01/2026]',-92679.85,-122333.8,-144595.4,-153750,-375000,-375000,-117459.6,-151626.8,0.03,0.00,0.89,-4,0,-2,57,0
'[12:15:03.436 20/01/2026]',-93104.67,-121762.9,-144661.5,-152809.4,-375000,-375000,-117531.5,-150981.6,0.03,0.00,0.89,-4,0,-2,57,0
'[12:15:03.440 20/01/2026]',-93272.04,-121550.9,-144793.8,-152332.5,-375000,-375000,-117599.4,-150908.7,0.03,0.00,0.89,-4,0,-2,57,0
'[12:15:03.444 20/01/2026]',-92709.35,-122250,-144692.1,-153473.5,-375000,-375000,-117497.6,-151748.9,0.03,0.00,0.89,-4,0,-2,57,0
'[12:15:03.448 20/01/2026]',-92591.38,-122346,-144561.8,-153804.2,-375000,-375000,-117430.5,-151719.5,0.03,0.00,0.89,-4,0,-2,57,0
'[12:15:03.452 20/01/2026]',-92973.95,-121852.7,-144636.9,-152990.4,-375000,-375000,-117499.1,-151113.8,0.03,0.00,0.89,-4,0,-2,57,0
'[12:15:03.456 20/01/2026]',-93265.38,-121494.7,-144780.4,-152262.2,-375000,-375000,-117585.6,-150823.8,0.03,0.00,0.89,-4,0,-2,57,0
'[12:15:03.460 20/01/2026]',-92787.59,-122137.6,-144727.5,-153270.8,-375000,-375000,-117529,-151683.4,0.03,0.00,0.89,-4,0,-2,57,0
'[12:15:03.464 20/01/2026]',-92561.88,-122379.1,-144573.9,-153853.3,-375000,-375000,-117448.1,-151821.4,0.03,0.00,0.89,-4,0,-2,57,0
'[12:15:03.468 20/01/2026]',-92874.49,-121946.1,-144599.1,-153176.5,-375000,-375000,-117475,-151254.7,0.03,0.00,0.89,-4,0,-2,57,0
'[12:15:03.472 20/01/2026]',-93232.03,-121476.5,-144744,-152262.4,-375000,-375000,-117575.6,-150785.9,0.03,0.00,0.89,-4,0,-2,57,0
'[12:15:03.476 20/01/2026]',-92843.78,-121991.5,-144719.1,-153017.3,-375000,-375000,-117523.9,-151520.5,0.03,0.00,0.89,-4,0,-2,57,0
'[12:15:03.480 20/01/2026]',-92519.41,-122386.9,-144554.5,-153830.6,-375000,-375000,-117415.8,-151825.6,0.03,0.00,0.89,-4,0,-2,57,0
'[12:15:03.484 20/01/2026]',-92775.12,-122063.2,-144581.2,-153320.2,-375000,-375000,-117455.7,-151354.1,0.03,0.00,0.89,-4,0,-2,57,0
'[12:15:03.488 20/01/2026]',-93197.65,-121500.3,-144703.5,-152307.6,-375000,-375000,-117559.4,-150759.1,0.03,0.00,0.89,-4,0,-2,57,0
'[12:15:03.492 20/01/2026]',-92936.09,-121833,-144718.8,-152768.5,-375000,-375000,-117520.4,-151320,0.05,-0.02,0.88,-4,0,-2,57,0
'[12:15:03.496 20/01/2026]',-92493.17,-122372.9,-144565,-153775.2,-375000,-375000,-117423.1,-151826.9,0.05,-0.02,0.88,-4,0,-2,57,0
'[12:15:03.500 20/01/2026]',-92657.32,-122133.4,-144548.7,-153459.4,-375000,-375000,-117444.2,-151446.9,0.05,-0.02,0.88,-4,0,-2,57,0
'[12:15:03.504 20/01/2026]',-93140.88,-121560.4,-144661.6,-152425.3,-375000,-375000,-117532.5,-150781.5,0.05,-0.02,0.88,-4,0,-2,57,0
'[12:15:03.508 20/01/2026]',-93016.6,-121705.6,-144719.1,-152535.5,-375000,-375000,-117526.2,-151104,0.05,-0.02,0.88,-4,0,-2,57,0
'[12:15:03.512 20/01/2026]',-92497.86,-122349,-144572.6,-153677.9,-375000,-375000,-117433.6,-151783.2,0.05,-0.02,0.88,-4,0,-2,57,0
'[12:15:03.516 20/01/2026]',-92577.52,-122199,-144521.4,-153564.3,-375000,-375000,-117414.8,-151482.5,0.05,-0.02,0.88,-4,0,-2,57,0
'[12:15:03.520 20/01/2026]',-93048.21,-121621.5,-144632.2,-152560.8,-375000,-375000,-117494.7,-150796.8,0.05,-0.02,0.88,-4,0,-2,57,0
'[12:15:03.524 20/01/2026]',-93114.64,-121583.8,-144730.3,-152353.4,-375000,-375000,-117544.3,-150922.5,0.05,-0.02,0.88,-4,0,-2,57,0
'[12:15:03.528 20/01/2026]',-92570.38,-122277.5,-144608.5,-153541.7,-375000,-375000,-117449.1,-151716.3,0.03,0.00,0.89,-4,0,-2,57,0
'[12:15:03.532 20/01/2026]',-92529.65,-122247.3,-144503.5,-153651.7,-375000,-375000,-117398,-151536.1,0.03,0.00,0.89,-4,0,-2,57,0
'[12:15:03.536 20/01/2026]',-92949.63,-121709.1,-144590.5,-152737.5,-375000,-375000,-117477.8,-150874,0.03,0.00,0.89,-4,0,-2,57,0
'[12:15:03.540 20/01/2026]',-93155.85,-121469.7,-144713.5,-152228.3,-375000,-375000,-117544.7,-150762.2,0.03,0.00,0.89,-4,0,-2,57,0
'[12:15:03.544 20/01/2026]',-92612.48,-122178.7,-144620.8,-153375.3,-375000,-375000,-117460.1,-151614.7,0.03,0.00,0.89,-4,0,-2,57,0
'[12:15:03.548 20/01/2026]',-92467.64,-122310.6,-144506,-153747.6,-375000,-375000,-117408.5,-151606.4,0.03,0.00,0.89,-4,0,-2,57,0
'[12:15:03.552 20/01/2026]',-92870.11,-121819.6,-144572.1,-152944.5,-375000,-375000,-117468.6,-150996.8,0.03,0.00,0.89,-4,0,-2,57,0
'[12:15:03.556 20/01/2026]',-93187.77,-121431.7,-144709.7,-152184.2,-375000,-375000,-117556,-150672.9,0.03,0.00,0.89,-4,0,-2,57,0
'[12:15:03.560 20/01/2026]',-92693.53,-122061.7,-144645.6,-153154.5,-375000,-375000,-117474.7,-151477.6,0.03,0.00,0.89,-4,0,-2,57,0
'[12:15:03.564 20/01/2026]',-92438.5,-122320.1,-144489,-153754.3,-375000,-375000,-117372.4,-151612.7,0.03,0.00,0.88,-4,0,-2,57,0
'[12:15:03.568 20/01/2026]',-92768.05,-121882.7,-144535.2,-153101,-375000,-375000,-117426,-151069,0.03,0.00,0.88,-4,0,-2,57,0
'[12:15:03.572 20/01/2026]',-93153.22,-121392.8,-144675.2,-152186.5,-375000,-375000,-117530.2,-150595.5,0.03,0.00,0.88,-4,0,-2,57,0
'[12:15:03.576 20/01/2026]',-92786.6,-121938,-144670,-152937.9,-375000,-375000,-117492.7,-151329.9,0.03,0.00,0.88,-4,0,-2,57,0
'[12:15:03.580 20/01/2026]',-92410.91,-122344.6,-144498.9,-153765.6,-375000,-375000,-117386.7,-151646.1,0.03,0.00,0.88,-4,0,-2,57,0
'[12:15:03.584 20/01/2026]',-92654.86,-121978.7,-144498.3,-153255.5,-375000,-375000,-117398.1,-151155.8,0.03,0.00,0.88,-4,0,-2,57,0
'[12:15:03.588 20/01/2026]',-93103.87,-121425.3,-144629.1,-152242.7,-375000,-375000,-117499.3,-150560.8,0.03,0.00,0.88,-4,0,-2,57,0
'[12:15:03.592 20/01/2026]',-92867.29,-121758,-144663.3,-152675.9,-375000,-375000,-117482.2,-151121.6,0.03,0.00,0.88,-4,0,-2,57,0
'[12:15:03.596 20/01/2026]',-92412.57,-122300.4,-144498.3,-153699,-375000,-375000,-117358.9,-151623.2,0.03,0.00,0.88,-4,0,-2,57,0
'[12:15:03.600 20/01/2026]',-92585.66,-122050.8,-144481,-153388.1,-375000,-375000,-117368.6,-151245.4,0.03,0.00,0.88,-4,0,-2,57,0
'[12:15:03.604 20/01/2026]',-93057.55,-121477.9,-144612.1,-152355.5,-375000,-375000,-117480.4,-150619.4,0.03,0.00,0.88,-4,0,-2,57,0
'[12:15:03.608 20/01/2026]',-92961.88,-121634.5,-144693.1,-152463.2,-375000,-375000,-117497.5,-150973.6,0.03,0.00,0.88,-4,0,-2,57,0
'[12:15:03.612 20/01/2026]',-92413.73,-122273.1,-144524.9,-153601.7,-375000,-375000,-117364.7,-151622,0.03,0.00,0.88,-4,0,-2,57,0
'[12:15:03.616 20/01/2026]',-92522,-122146.7,-144474.6,-153513.8,-375000,-375000,-117347.7,-151355.3,0.03,0.00,0.88,-4,0,-2,57,0
'[12:15:03.620 20/01/2026]',-92981.91,-121566.8,-144579.9,-152514.5,-375000,-375000,-117439.5,-150697.6,0.03,0.00,0.88,-4,0,-2,57,0
'[12:15:03.624 20/01/2026]',-93037.61,-121505,-144689.3,-152279.9,-375000,-375000,-117492.3,-150812.9,0.03,0.00,0.88,-4,0,-2,57,0
'[12:15:03.628 20/01/2026]',-92482.09,-122203.7,-144563.2,-153470.9,-375000,-375000,-117380.1,-151608.5,0.03,0.00,0.88,-4,0,-2,57,0
'[12:15:03.632 20/01/2026]',-92484.09,-122203.7,-144468.3,-153611,-375000,-375000,-117352.2,-151470,0.03,0.00,0.88,-4,0,-2,57,0
'[12:15:03.636 20/01/2026]',-92904.48,-121659.9,-144551.4,-152695.8,-375000,-375000,-117444,-150835.1,0.03,-0.02,0.89,-4,0,-2,57,0
'[12:15:03.640 20/01/2026]',-93093.41,-121416.1,-144692.2,-152173.4,-375000,-375000,-117507.2,-150707.8,0.03,-0.02,0.89,-4,0,-2,57,0
