'Time and date','Fp1.','Fp2.','C3.','C4.','P3.','P4.','O1.','O2.'
'hh:mm:ss.mmm dd/mm/yyyy','uV','uV','uV','uV','uV','uV','uV','uV'
'[18:15:00.000 20/01/2026]',16.66054,7.528002,-2.834734,-2.936586,1.341672E-11,1.341672E-11,-4.710326,-10.65074
'[18:15:00.004 20/01/2026]',16.66054,7.528002,-2.834734,-2.936586,1.341672E-11,1.341672E-11,-4.710326,-10.65074
'[18:15:00.008 20/01/2026]',2.51896,-13.2222,-8.949883,-6.325937,1.341672E-11,1.341672E-11,-10.25422,-10.74122
'[18:15:00.012 20/01/2026]',-8.001066,-10.9066,-5.189517,-7.844898,1.341672E-11,1.341672E-11,-7.070281,-9.144939
'[18:15:00.016 20/01/2026]',16.64575,-5.115023,8.437056,1.136021,1.341672E-11,1.341672E-11,14.23809,11.28238
'[18:15:00.020 20/01/2026]',16.64575,-5.115023,8.437056,1.136021,1.341672E-11,1.341672E-11,14.23809,11.28238
'[18:15:00.024 20/01/2026]',16.64575,-5.115023,8.437056,1.136021,1.341672E-11,1.341672E-11,14.23809,11.28238
'[18:15:00.028 20/01/2026]',16.64575,-5.115023,8.437056,1.136021,1.341672E-11,1.341672E-11,14.23809,11.28238
'[18:15:00.032 20/01/2026]',3.571301,-16.57085,-7.492635,-1.072496,1.341672E-11,1.341672E-11,-8.896899,-6.915243
'[18:15:00.036 20/01/2026]',-0.08735811,0.9910316,5.599659,2.429701,1.341672E-11,1.341672E-11,2.306377,-9.537401
'[18:15:00.040 20/01/2026]',-0.08735811,0.9910316,5.599659,2.429701,1.341672E-11,1.341672E-11,2.306377,-9.537401
'[18:15:00.044 20/01/2026]',-0.08735811,0.9910316,5.599659,2.429701,1.341672E-11,1.341672E-11,2.306377,-9.537401
'[18:15:00.048 20/01/2026]',-0.08735811,0.9910316,5.599659,2.429701,1.341672E-11,1.341672E-11,2.306377,-9.537401
'[18:15:00.052 20/01/2026]',-0.08735811,0.9910316,5.599659,2.429701,1.341672E-11,1.341672E-11,2.306377,-9.537401
'[18:15:00.056 20/01/2026]',12.63576,10.26822,12.00172,19.09627,1.341672E-11,1.341672E-11,26.13166,32.19924
'[18:15:00.060 20/01/2026]',8.868504,5.275716,5.458814,7.088531,1.341672E-11,1.341672E-11,-2.355897,3.102628
'[18:15:00.064 20/01/2026]',2.360208,4.07358,-2.775467,0.7138018,1.341672E-11,1.341672E-11,-6.035019,-5.436059
'[18:15:00.068 20/01/2026]',2.360208,4.07358,-2.775467,0.7138018,1.341672E-11,1.341672E-11,-6.035019,-5.436059
'[18:15:00.072 20/01/2026]',2.360208,4.07358,-2.775467,0.7138018,1.341672E-11,1.341672E-11,-6.035019,-5.436059
'[18:15:00.076 20/01/2026]',5.755617,-4.766158,1.801932,1.078884,1.341672E-11,1.341672E-11,2.909227,-8.521663
'[18:15:00.080 20/01/2026]',2.347678,6.828217,4.524405,2.909531,1.341672E-11,1.341672E-11,7.029648,12.21711
'[18:15:00.084 20/01/2026]',2.347678,6.828217,4.524405,2.909531,1.341672E-11,1.341672E-11,7.029648,12.21711
'[18:15:00.088 20/01/2026]',2.347678,6.828217,4.524405,2.909531,1.341672E-11,1.341672E-11,7.029648,12.21711
'[18:15:00.092 20/01/2026]',2.347678,6.828217,4.524405,2.909531,1.341672E-11,1.341672E-11,7.029648,12.21711
'[18:15:00.096 20/01/2026]',2.347678,6.828217,4.524405,2.909531,1.341672E-11,1.341672E-11,7.029648,12.21711
'[18:15:00.100 20/01/2026]',-6.539482,-12.19175,-0.6940426,-2.682765,1.341672E-11,1.341672E-11,3.120409,0.5360104
'[18:15:00.104 20/01/2026]',-3.918732,-12.59801,9.753123,10.01804,1.341672E-11,1.341672E-11,5.030283,3.385371
'[18:15:00.108 20/01/2026]',2.738038,2.924191,5.033324,18.82165,1.341672E-11,1.341672E-11,10.70574,30.24843
'[18:15:00.112 20/01/2026]',2.738038,2.924191,5.033324,18.82165,1.341672E-11,1.341672E-11,10.70574,30.24843
'[18:15:00.116 20/01/2026]',2.738038,2.924191,5.033324,18.82165,1.341672E-11,1.341672E-11,10.70574,30.24843
'[18:15:00.120 20/01/2026]',2.738038,2.924191,5.033324,18.82165,1.341672E-11,1.341672E-11,10.70574,30.24843
'[18:15:00.124 20/01/2026]',-6.091608,-1.330918,-13.09803,-11.02659,1.341672E-11,1.341672E-11,-1.4745,-12.56622
'[18:15:00.128 20/01/2026]',-4.166056,-10.23859,0.7202057,-4.781649,1.341672E-11,1.341672E-11,4.337647,13.18121
'[18:15:00.132 20/01/2026]',2.701117,14.66812,-1.502115,-4.32568,1.341672E-11,1.341672E-11,-2.123162,-18.03126
'[18:15:00.136 20/01/2026]',2.701117,14.66812,-1.502115,-4.32568,1.341672E-11,1.341672E-11,-2.123162,-18.03126
'[18:15:00.140 20/01/2026]',2.701117,14.66812,-1.502115,-4.32568,1.341672E-11,1.341672E-11,-2.123162,-18.03126
'[18:15:00.144 20/01/2026]',2.701117,14.66812,-1.502115,-4.32568,1.341672E-11,1.341672E-11,-2.123162,-18.03126
'[18:15:00.148 20/01/2026]',22.38735,13.33333,5.668705,-6.741688,1.341672E-11,1.341672E-11,-6.466389,3.131279
'[18:15:00.152 20/01/2026]',-3.098352,-3.935403,1.580865,7.163485,1.341672E-11,1.341672E-11,5.979886,11.07464
'[18:15:00.156 20/01/2026]',-11.0724,-18.87418,-4.509576,-1.133068,1.341672E-11,1.341672E-11,5.346764,11.5364
'[18:15:00.160 20/01/2026]',-11.0724,-18.87418,-4.509576,-1.133068,1.341672E-11,1.341672E-11,5.346764,11.5364
'[18:15:00.164 20/01/2026]',-11.0724,-18.87418,-4.509576,-1.133068,1.341672E-11,1.341672E-11,5.346764,11.5364
'[18:15:00.168 20/01/2026]',-11.0724,-18.87418,-4.509576,-1.133068,1.341672E-11,1.341672E-11,5.346764,11.5364
'[18:15:00.172 20/01/2026]',-3.185944,-1.537299,-5.699143,-7.680642,1.341672E-11,1.341672E-11,-7.466698,-15.04761
'[18:15:00.176 20/01/2026]',-0.07130332,-5.573584,-3.593802,-8.587957,1.341672E-11,1.341672E-11,-3.873128,1.575388
'[18:15:00.180 20/01/2026]',-0.07130332,-5.573584,-3.593802,-8.587957,1.341672E-11,1.341672E-11,-3.873128,1.575388
'[18:15:00.184 20/01/2026]',-0.07130332,-5.573584,-3.593802,-8.587957,1.341672E-11,1.341672E-11,-3.873128,1.575388
'[18:15:00.188 20/01/2026]',-0.07130332,-5.573584,-3.593802,-8.587957,1.341672E-11,1.341672E-11,-3.873128,1.575388
'[18:15:00.192 20/01/2026]',13.66037,-6.170339,6.487979,-4.841848,1.341672E-11,1.341672E-11,7.215452,-5.345029
'[18:15:00.196 20/01/2026]',2.930044,-12.96319,-4.38612,-14.8041,1.341672E-11,1.341672E-11,-4.240382,-5.053693
'[18:15:00.200 20/01/2026]',2.930044,-12.96319,-4.38612,-14.8041,1.341672E-11,1.341672E-11,-4.240382,-5.053693
'[18:15:00.204 20/01/2026]',2.930044,-12.96319,-4.38612,-14.8041,1.341672E-11,1.341672E-11,-4.240382,-5.053693
'[18:15:00.208 20/01/2026]',2.930044,-12.96319,-4.38612,-14.8041,1.341672E-11,1.341672E-11,-4.240382,-5.053693
'[18:15:00.212 20/01/2026]',2.930044,-12.96319,-4.38612,-14.8041,1.341672E-11,1.341672E-11,-4.240382,-5.053693
'[18:15:00.216 20/01/2026]',2.930044,-12.96319,-4.38612,-14.8041,1.341672E-11,1.341672E-11,-4.240382,-5.053693
'[18:15:00.220 20/01/2026]',2.570552,1.981302,7.381195,-9.208636,1.341672E-11,1.341672E-11,7.770132,2.772789
'[18:15:00.224 20/01/2026]',-5.980675,-47.61342,-11.97841,11.95211,1.341672E-11,1.341672E-11,7.628457,8.965594
'[18:15:00.228 20/01/2026]',-5.980675,-47.61342,-11.97841,11.95211,1.341672E-11,1.341672E-11,7.628457,8.965594
'[18:15:00.232 20/01/2026]',-5.980675,-47.61342,-11.97841,11.95211,1.341672E-11,1.341672E-11,7.628457,8.965594
'[18:15:00.236 20/01/2026]',-5.980675,-47.61342,-11.97841,11.95211,1.341672E-11,1.341672E-11,7.628457,8.965594
'[18:15:00.240 20/01/2026]',8.692348,-23.48187,8.178893,12.77368,1.341672E-11,1.341672E-11,11.62398,24.62358
'[18:15:00.244 20/01/2026]',4.778422,-46.29631,5.480175,25.31274,1.341672E-11,1.341672E-11,-4.216558,7.214766
'[18:15:00.248 20/01/2026]',4.778422,-46.29631,5.480175,25.31274,1.341672E-11,1.341672E-11,-4.216558,7.214766
'[18:15:00.252 20/01/2026]',4.778422,-46.29631,5.480175,25.31274,1.341672E-11,1.341672E-11,-4.216558,7.214766
'[18:15:00.256 20/01/2026]',4.778422,-46.29631,5.480175,25.31274,1.341672E-11,1.341672E-11,-4.216558,7.214766
'[18:15:00.260 20/01/2026]',4.778422,-46.29631,5.480175,25.31274,1.341672E-11,1.341672E-11,-4.216558,7.214766
'[18:15:00.264 20/01/2026]',10.47836,18.75012,-1.6033,-16.42068,1.341672E-11,1.341672E-11,-2.95538,32.50603
'[18:15:00.268 20/01/2026]',-3.986613,-0.08872223,10.04624,-11.05532,1.341672E-11,1.341672E-11,-3.800736,-2.225622
'[18:15:00.272 20/01/2026]',8.705939,17.73028,1.635306,10.07295,1.341672E-11,1.341672E-11,13.26105,18.98633
'[18:15:00.276 20/01/2026]',-0.2245866,-11.36252,-13.54416,-5.968602,1.341672E-11,1.341672E-11,-20.32349,-34.90422
'[18:15:00.280 20/01/2026]',-0.2245866,-11.36252,-13.54416,-5.968602,1.341672E-11,1.341672E-11,-20.32349,-34.90422
'[18:15:00.284 20/01/2026]',-0.2245866,-11.36252,-13.54416,-5.968602,1.341672E-11,1.341672E-11,-20.32349,-34.90422
'[18:15:00.288 20/01/2026]',10.42912,-0.5024384,6.761355,-21.73793,1.341672E-11,1.341672E-11,6.318162,0.105119
'[18:15:00.292 20/01/2026]',0.3659241,-7.728439,-5.670306,-10.10136,1.341672E-11,1.341672E-11,9.130686,-0.8350996
'[18:15:00.296 20/01/2026]',-11.5093,-4.614551,-7.174322,5.928502,1.341672E-11,1.341672E-11,3.773318,-2.64187
'[18:15:00.300 20/01/2026]',-14.90808,-10.10307,-6.718228,-5.084176,1.341672E-11,1.341672E-11,-15.44272,-18.10221
'[18:15:00.304 20/01/2026]',-14.90808,-10.10307,-6.718228,-5.084176,1.341672E-11,1.341672E-11,-15.44272,-18.10221
'[18:15:00.308 20/01/2026]',-14.90808,-10.10307,-6.718228,-5.084176,1.341672E-11,1.341672E-11,-15.44272,-18.10221
'[18:15:00.312 20/01/2026]',10.81572,9.215118,13.93508,10.67493,1.341672E-11,1.341672E-11,14.7243,17.95955
'[18:15:00.316 20/01/2026]',3.015594,-3.900424,1.287324,-2.365266,1.341672E-11,1.341672E-11,1.996096,-2.159679
'[18:15:00.320 20/01/2026]',3.015594,-3.900424,1.287324,-2.365266,1.341672E-11,1.341672E-11,1.996096,-2.159679
'[18:15:00.324 20/01/2026]',3.015594,-3.900424,1.287324,-2.365266,1.341672E-11,1.341672E-11,1.996096,-2.159679
'[18:15:00.328 20/01/2026]',3.015594,-3.900424,1.287324,-2.365266,1.341672E-11,1.341672E-11,1.996096,-2.159679
'[18:15:00.332 20/01/2026]',2.837037,-0.5423943,-1.111735,-4.897461,1.341672E-11,1.341672E-11,9.025721,-0.35501
'[18:15:00.336 20/01/2026]',2.924926,-3.951215,-0.2960255,-13.61618,1.341672E-11,1.341672E-11,-0.9780664,-4.820375
'[18:15:00.340 20/01/2026]',-0.1935003,5.576788,6.760249,3.027792,1.341672E-11,1.341672E-11,12.30016,14.11275
'[18:15:00.344 20/01/2026]',-0.1935003,5.576788,6.760249,3.027792,1.341672E-11,1.341672E-11,12.30016,14.11275
'[18:15:00.348 20/01/2026]',-0.1935003,5.576788,6.760249,3.027792,1.341672E-11,1.341672E-11,12.30016,14.11275
'[18:15:00.352 20/01/2026]',-0.1935003,5.576788,6.760249,3.027792,1.341672E-11,1.341672E-11,12.30016,14.11275
'[18:15:00.356 20/01/2026]',-3.667109,-4.571709,-2.327884,9.134311,1.341672E-11,1.341672E-11,6.618533,3.941075
'[18:15:00.360 20/01/2026]',7.954327,-1.403764,3.647483,6.888456,1.341672E-11,1.341672E-11,7.484992,-4.787447
'[18:15:00.364 20/01/2026]',-31.34837,-27.10421,-4.430922,-7.173067,1.341672E-11,1.341672E-11,4.458272,18.5662
'[18:15:00.368 20/01/2026]',-31.34837,-27.10421,-4.430922,-7.173067,1.341672E-11,1.341672E-11,4.458272,18.5662
'[18:15:00.372 20/01/2026]',-31.34837,-27.10421,-4.430922,-7.173067,1.341672E-11,1.341672E-11,4.458272,18.5662
'[18:15:00.376 20/01/2026]',-31.34837,-27.10421,-4.430922,-7.173067,1.341672E-11,1.341672E-11,4.458272,18.5662
'[18:15:00.380 20/01/2026]',21.48051,35.06848,-0.4154093,11.68787,1.341672E-11,1.341672E-11,-8.209665,10.19837
'[18:15:00.384 20/01/2026]',-19.52153,7.880551,-13.34565,11.4541,1.341672E-11,1.341672E-11,-6.587729,-9.752077
'[18:15:00.388 20/01/2026]',-19.52153,7.880551,-13.34565,11.4541,1.341672E-11,1.341672E-11,-6.587729,-9.752077
'[18:15:00.392 20/01/2026]',-19.52153,7.880551,-13.34565,11.4541,1.341672E-11,1.341672E-11,-6.587729,-9.752077
'[18:15:00.396 20/01/2026]',-19.52153,7.880551,-13.34565,11.4541,1.341672E-11,1.341672E-11,-6.587729,-9.752077
'[18:15:00.400 20/01/2026]',-19.52153,7.880551,-13.34565,11.4541,1.341672E-11,1.341672E-11,-6.587729,-9.752077
'[18:15:00.404 20/01/2026]',-2.162332,4.134517,2.051694,9.575598,1.341672E-11,1.341672E-11,-2.195434,-9.351657
'[18:15:00.408 20/01/2026]',-0.5165954,-14.49686,-5.26254,-9.134618,1.341672E-11,1.341672E-11,-1.327321,3.592332
'[18:15:00.412 20/01/2026]',-13.02626,-34.61643,-19.92177,-54.36877,1.341672E-11,1.341672E-11,-18.3868,-42.3889
'[18:15:00.416 20/01/2026]',-13.02626,-34.61643,-19.92177,-54.36877,1.341672E-11,1.341672E-11,-18.3868,-42.3889
'[18:15:00.420 20/01/2026]',-13.02626,-34.61643,-19.92177,-54.36877,1.341672E-11,1.341672E-11,-18.3868,-42.3889
'[18:15:00.424 20/01/2026]',-13.02626,-34.61643,-19.92177,-54.36877,1.341672E-11,1.341672E-11,-18.3868,-42.3889
'[18:15:00.428 20/01/2026]',16.93737,-7.134225,5.076449,-12.77688,1.341672E-11,1.341672E-11,-5.074233,-3.169236
'[18:15:00.432 20/01/2026]',-12.46276,0.9061903,-0.5879651,-3.088746,1.341672E-11,1.341672E-11,-6.582505,-3.370239
'[18:15:00.436 20/01/2026]',3.287247,-1.927397,3.627105,-0.4745665,1.341672E-11,1.341672E-11,1.482009,-2.105541
'[18:15:00.440 20/01/2026]',3.287247,-1.927397,3.627105,-0.4745665,1.341672E-11,1.341672E-11,1.482009,-2.105541
'[18:15:00.444 20/01/2026]',3.287247,-1.927397,3.627105,-0.4745665,1.341672E-11,1.341672E-11,1.482009,-2.105541
'[18:15:00.448 20/01/2026]',3.287247,-1.927397,3.627105,-0.4745665,1.341672E-11,1.341672E-11,1.482009,-2.105541
'[18:15:00.452 20/01/2026]',30.88906,8.792838,-9.165296,1.771544,1.341672E-11,1.341672E-11,-0.103583,-8.736242
'[18:15:00.456 20/01/2026]',-3.398701,1.284891,-0.9910299,-3.338373,1.341672E-11,1.341672E-11,-4.969228,1.770727
'[18:15:00.460 20/01/2026]',-18.39335,3.538943,1.487834,-0.374246,1.341672E-11,1.341672E-11,-4.092997,-0.9649907
'[18:15:00.464 20/01/2026]',-18.39335,3.538943,1.487834,-0.374246,1.341672E-11,1.341672E-11,-4.092997,-0.9649907
'[18:15:00.468 20/01/2026]',-18.39335,3.538943,1.487834,-0.374246,1.341672E-11,1.341672E-11,-4.092997,-0.9649907
'[18:15:00.472 20/01/2026]',-0.01458224,1.505762,-2.391193,1.620772,1.341672E-11,1.341672E-11,-1.404295,-2.019552
'[18:15:00.476 20/01/2026]',7.007964,-1.944933,4.044491,-0.1795416,1.341672E-11,1.341672E-11,0.899521,5.491248
'[18:15:00.480 20/01/2026]',7.007964,-1.944933,4.044491,-0.1795416,1.341672E-11,1.341672E-11,0.899521,5.491248
'[18:15:00.484 20/01/2026]',7.007964,-1.944933,4.044491,-0.1795416,1.341672E-11,1.341672E-11,0.899521,5.491248
'[18:15:00.488 20/01/2026]',7.007964,-1.944933,4.044491,-0.1795416,1.341672E-11,1.341672E-11,0.899521,5.491248
'[18:15:00.492 20/01/2026]',7.007964,-1.944933,4.044491,-0.1795416,1.341672E-11,1.341672E-11,0.899521,5.491248
'[18:15:00.496 20/01/2026]',4.198968,0.9605085,-2.893855,2.109204,1.341672E-11,1.341672E-11,-4.528381,-1.829779
'[18:15:00.500 20/01/2026]',8.379395,-2.294294,-4.370959,-0.3116997,1.341672E-11,1.341672E-11,6.806672,2.056115
'[18:15:00.504 20/01/2026]',7.907213,3.254728,-5.300488,1.050253,1.341672E-11,1.341672E-11,-0.7890747,0.2588893
'[18:15:00.508 20/01/2026]',7.907213,3.254728,-5.300488,1.050253,1.341672E-11,1.341672E-11,-0.7890747,0.2588893
'[18:15:00.512 20/01/2026]',7.907213,3.254728,-5.300488,1.050253,1.341672E-11,1.341672E-11,-0.7890747,0.2588893
'[18:15:00.516 20/01/2026]',7.907213,3.254728,-5.300488,1.050253,1.341672E-11,1.341672E-11,-0.7890747,0.2588893
'[18:15:00.520 20/01/2026]',-7.468482,-4.452997,5.761048,3.256471,1.341672E-11,1.341672E-11,3.211787,3.188686
'[18:15:00.524 20/01/2026]',5.258703,3.32246,3.029969,10.11118,1.341672E-11,1.341672E-11,-4.871233,4.077225
'[18:15:00.528 20/01/2026]',-7.848451,-2.190658,2.334457,2.953265,1.341672E-11,1.341672E-11,7.293958,-3.706656
'[18:15:00.532 20/01/2026]',-7.848451,-2.190658,2.334457,2.953265,1.341672E-11,1.341672E-11,7.293958,-3.706656
'[18:15:00.536 20/01/2026]',-7.848451,-2.190658,2.334457,2.953265,1.341672E-11,1.341672E-11,7.293958,-3.706656
'[18:15:00.540 20/01/2026]',-7.848451,-2.190658,2.334457,2.953265,1.341672E-11,1.341672E-11,7.293958,-3.706656
'[18:15:00.544 20/01/2026]',6.934269,5.241984,2.750128,-4.761981,1.341672E-11,1.341672E-11,-3.228071,-6.928667
'[18:15:00.548 20/01/2026]',10.57028,15.81313,-3.096387,2.061104,1.341672E-11,1.341672E-11,-2.630249,4.048052
'[18:15:00.552 20/01/2026]',10.57028,15.81313,-3.096387,2.061104,1.341672E-11,1.341672E-11,-2.630249,4.048052
'[18:15:00.556 20/01/2026]',10.57028,15.81313,-3.096387,2.061104,1.341672E-11,1.341672E-11,-2.630249,4.048052
'[18:15:00.560 20/01/2026]',10.57028,15.81313,-3.096387,2.061104,1.341672E-11,1.341672E-11,-2.630249,4.048052
'[18:15:00.564 20/01/2026]',10.57028,15.81313,-3.096387,2.061104,1.341672E-11,1.341672E-11,-2.630249,4.048052
'[18:15:00.568 20/01/2026]',-15.23565,-12.48536,-2.129425,3.137997,1.341672E-11,1.341672E-11,1.042038,4.559636
'[18:15:00.572 20/01/2026]',-0.2440645,3.481293,-1.548399,-1.996011,1.341672E-11,1.341672E-11,2.523332,1.528871
'[18:15:00.576 20/01/2026]',2.438814,4.981493,3.292936,3.97194,1.341672E-11,1.341672E-11,6.894732,4.144285
'[18:15:00.580 20/01/2026]',2.438814,4.981493,3.292936,3.97194,1.341672E-11,1.341672E-11,6.894732,4.144285
'[18:15:00.584 20/01/2026]',2.438814,4.981493,3.292936,3.97194,1.341672E-11,1.341672E-11,6.894732,4.144285
'[18:15:00.588 20/01/2026]',2.438814,4.981493,3.292936,3.97194,1.341672E-11,1.341672E-11,6.894732,4.144285
'[18:15:00.592 20/01/2026]',2.866755,-13.51799,3.607759,10.11031,1.341672E-11,1.341672E-11,7.988077,14.696
'[18:15:00.596 20/01/2026]',5.823926,15.72456,-0.2746265,10.42375,1.341672E-11,1.341672E-11,6.229049,8.743795
'[18:15:00.600 20/01/2026]',7.573664,5.778117,2.093034,-6.169142,1.341672E-11,1.341672E-11,-5.904402,-7.426737
'[18:15:00.604 20/01/2026]',7.573664,5.778117,2.093034,-6.169142,1.341672E-11,1.341672E-11,-5.904402,-7.426737
'[18:15:00.608 20/01/2026]',7.573664,5.778117,2.093034,-6.169142,1.341672E-11,1.341672E-11,-5.904402,-7.426737
'[18:15:00.612 20/01/2026]',7.573664,5.778117,2.093034,-6.169142,1.341672E-11,1.341672E-11,-5.904402,-7.426737
'[18:15:00.616 20/01/2026]',-10.19012,-0.5834973,1.22787,-7.486554,1.341672E-11,1.341672E-11,-6.387503,-6.706686
'[18:15:00.620 20/01/2026]',0.7462857,14.33197,3.514125,15.25248,1.341672E-11,1.341672E-11,-2.912355,15.89059
'[18:15:00.624 20/01/2026]',0.7462857,14.33197,3.514125,15.25248,1.341672E-11,1.341672E-11,-2.912355,15.89059
'[18:15:00.628 20/01/2026]',0.7462857,14.33197,3.514125,15.25248,1.341672E-11,1.341672E-11,-2.912355,15.89059
'[18:15:00.632 20/01/2026]',0.7462857,14.33197,3.514125,15.25248,1.341672E-11,1.341672E-11,-2.912355,15.89059
'[18:15:00.636 20/01/2026]',2.414081,16.42388,1.282692,16.92946,1.341672E-11,1.341672E-11,0.3572522,-0.9743439
'[18:15:00.640 20/01/2026]',8.024594,11.18203,-3.262722,12.36466,1.341672E-11,1.341672E-11,1.439353,2.999284
'[18:15:00.644 20/01/2026]',1.290891,-16.59404,-12.49462,-12.18211,1.341672E-11,1.341672E-11,-10.00459,-5.661519
'[18:15:00.648 20/01/2026]',1.290891,-16.59404,-12.49462,-12.18211,1.341672E-11,1.341672E-11,-10.00459,-5.661519
'[18:15:00.652 20/01/2026]',1.290891,-16.59404,-12.49462,-12.18211,1.341672E-11,1.341672E-11,-10.00459,-5.661519
'[18:15:00.656 20/01/2026]',1.290891,-16.59404,-12.49462,-12.18211,1.341672E-11,1.341672E-11,-10.00459,-5.661519
'[18:15:00.660 20/01/2026]',14.87596,-11.95261,-13.07228,-15.68587,1.341672E-11,1.341672E-11,-7.941179,-7.806734
'[18:15:00.664 20/01/2026]',16.97318,-16.92216,-10.74451,-23.45606,1.341672E-11,1.341672E-11,-7.540238,-4.185413
'[18:15:00.668 20/01/2026]',3.495214,-9.011336,-7.673794,-4.591183,1.341672E-11,1.341672E-11,-9.167139,-6.814819
'[18:15:00.672 20/01/2026]',3.495214,-9.011336,-7.673794,-4.591183,1.341672E-11,1.341672E-11,-9.167139,-6.814819
'[18:15:00.676 20/01/2026]',3.495214,-9.011336,-7.673794,-4.591183,1.341672E-11,1.341672E-11,-9.167139,-6.814819
'[18:15:00.680 20/01/2026]',3.495214,-9.011336,-7.673794,-4.591183,1.341672E-11,1.341672E-11,-9.167139,-6.814819
'[18:15:00.684 20/01/2026]',-4.500454,8.198627,3.403284,17.54563,1.341672E-11,1.341672E-11,13.25195,19.83692
'[18:15:00.688 20/01/2026]',-12.19148,-1.575886,-0.4647066,11.94035,1.341672E-11,1.341672E-11,-1.848333,7.256663
'[18:15:00.692 20/01/2026]',10.16663,7.567071,8.301275,11.86228,1.341672E-11,1.341672E-11,23.58362,17.87051
'[18:15:00.696 20/01/2026]',10.16663,7.567071,8.301275,11.86228,1.341672E-11,1.341672E-11,23.58362,17.87051
'[18:15:00.700 20/01/2026]',10.16663,7.567071,8.301275,11.86228,1.341672E-11,1.341672E-11,23.58362,17.87051
'[18:15:00.704 20/01/2026]',10.16663,7.567071,8.301275,11.86228,1.341672E-11,1.341672E-11,23.58362,17.87051
'[18:15:00.708 20/01/2026]',-3.044322,-5.394557,-3.198293,-3.479642,1.341672E-11,1.341672E-11,-3.248801,5.741665
'[18:15:00.712 20/01/2026]',3.376687,-7.505521,7.61885,5.329766,1.341672E-11,1.341672E-11,6.920269,-6.836895
'[18:15:00.716 20/01/2026]',3.376687,-7.505521,7.61885,5.329766,1.341672E-11,1.341672E-11,6.920269,-6.836895
'[18:15:00.720 20/01/2026]',3.376687,-7.505521,7.61885,5.329766,1.341672E-11,1.341672E-11,6.920269,-6.836895
'[18:15:00.724 20/01/2026]',3.376687,-7.505521,7.61885,5.329766,1.341672E-11,1.341672E-11,6.920269,-6.836895
'[18:15:00.728 20/01/2026]',3.376687,-7.505521,7.61885,5.329766,1.341672E-11,1.341672E-11,6.920269,-6.836895
'[18:15:00.732 20/01/2026]',1.764777,-7.585042,-3.780404,-6.469215,1.341672E-11,1.341672E-11,1.131536,4.139126
'[18:15:00.736 20/01/2026]',5.392049,-11.82179,-4.110243,-8.002921,1.341672E-11,1.341672E-11,6.119108,4.646054
'[18:15:00.740 20/01/2026]',-3.207074,-11.90765,-5.90897,-21.49995,1.341672E-11,1.341672E-11,-8.711823,-16.44037
'[18:15:00.744 20/01/2026]',-3.207074,-11.90765,-5.90897,-21.49995,1.341672E-11,1.341672E-11,-8.711823,-16.44037
'[18:15:00.748 20/01/2026]',-3.207074,-11.90765,-5.90897,-21.49995,1.341672E-11,1.341672E-11,-8.711823,-16.44037
'[18:15:00.752 20/01/2026]',2.317326,-0.4039181,-0.7834082,-2.011944,1.341672E-11,1.341672E-11,-4.01792,-13.97441
'[18:15:00.756 20/01/2026]',11.97677,5.885721,-0.1914846,8.662271,1.341672E-11,1.341672E-11,4.67118,5.999
'[18:15:00.760 20/01/2026]',18.2942,8.564146,0.647932,12.32852,1.341672E-11,1.341672E-11,-4.788568,-32.46002
'[18:15:00.764 20/01/2026]',18.2942,8.564146,0.647932,12.32852,1.341672E-11,1.341672E-11,-4.788568,-32.46002
'[18:15:00.768 20/01/2026]',18.2942,8.564146,0.647932,12.32852,1.341672E-11,1.341672E-11,-4.788568,-32.46002
'[18:15:00.772 20/01/2026]',18.2942,8.564146,0.647932,12.32852,1.341672E-11,1.341672E-11,-4.788568,-32.46002
'[18:15:00.776 20/01/2026]',18.2942,8.564146,0.647932,12.32852,1.341672E-11,1.341672E-11,-4.788568,-32.46002
'[18:15:00.780 20/01/2026]',3.128411,-6.47569,0.743237,-3.027991,1.341672E-11,1.341672E-11,-2.428807,1.225632
'[18:15:00.784 20/01/2026]',-0.7336537,8.843349,-4.300951,6.016128,1.341672E-11,1.341672E-11,-1.613089,26.6675
'[18:15:00.788 20/01/2026]',-7.522483,-4.286252,-3.068354,-6.454142,1.341672E-11,1.341672E-11,-8.078394,-23.07579
'[18:15:00.792 20/01/2026]',-7.522483,-4.286252,-3.068354,-6.454142,1.341672E-11,1.341672E-11,-8.078394,-23.07579
'[18:15:00.796 20/01/2026]',-7.522483,-4.286252,-3.068354,-6.454142,1.341672E-11,1.341672E-11,-8.078394,-23.07579
'[18:15:00.800 20/01/2026]',-7.522483,-4.286252,-3.068354,-6.454142,1.341672E-11,1.341672E-11,-8.078394,-23.07579
'[18:15:00.804 20/01/2026]',41.97155,36.97615,3.176771,9.92021,1.341672E-11,1.341672E-11,2.674473,0.3266016
'[18:15:00.808 20/01/2026]',7.688031,-12.73965,-11.95078,-4.473151,1.341672E-11,1.341672E-11,3.264066,-13.76836
'[18:15:00.812 20/01/2026]',7.688031,-12.73965,-11.95078,-4.473151,1.341672E-11,1.341672E-11,3.264066,-13.76836
'[18:15:00.816 20/01/2026]',7.688031,-12.73965,-11.95078,-4.473151,1.341672E-11,1.341672E-11,3.264066,-13.76836
'[18:15:00.820 20/01/2026]',7.688031,-12.73965,-11.95078,-4.473151,1.341672E-11,1.341672E-11,3.264066,-13.76836
'[18:15:00.824 20/01/2026]',-2.24057,-10.70788,-0.9356322,-3.424504,1.341672E-11,1.341672E-11,0.3131575,2.323693
'[18:15:00.828 20/01/2026]',-7.34881,-0.3554461,-2.742283,4.63394,1.341672E-11,1.341672E-11,0.5494413,8.76708
'[18:15:00.832 20/01/2026]',-2.789538,4.916474,-7.890954,-1.91577,1.341672E-11,1.341672E-11,0.9818648,0.54307
'[18:15:00.836 20/01/2026]',-2.789538,4.916474,-7.890954,-1.91577,1.341672E-11,1.341672E-11,0.9818648,0.54307
'[18:15:00.840 20/01/2026]',-2.789538,4.916474,-7.890954,-1.91577,1.341672E-11,1.341672E-11,0.9818648,0.54307
'[18:15:00.844 20/01/2026]',-2.789538,4.916474,-7.890954,-1.91577,1.341672E-11,1.341672E-11,0.9818648,0.54307
'[18:15:00.848 20/01/2026]',-7.939013,-2.938893,-4.661512,4.222568,1.341672E-11,1.341672E-11,-0.0302435,-0.6691995
'[18:15:00.852 20/01/2026]',-3.820753,8.670129,2.199219,5.654875,1.341672E-11,1.341672E-11,5.353794,3.006069
'[18:15:00.856 20/01/2026]',-1.712643,7.184711,0.1178437,-0.305976,1.341672E-11,1.341672E-11,-5.680876,-4.664535
'[18:15:00.860 20/01/2026]',-1.712643,7.184711,0.1178437,-0.305976,1.341672E-11,1.341672E-11,-5.680876,-4.664535
'[18:15:00.864 20/01/2026]',-1.712643,7.184711,0.1178437,-0.305976,1.341672E-11,1.341672E-11,-5.680876,-4.664535
'[18:15:00.868 20/01/2026]',-1.712643,7.184711,0.1178437,-0.305976,1.341672E-11,1.341672E-11,-5.680876,-4.664535
'[18:15:00.872 20/01/2026]',-15.91643,-3.841278,-7.9676,-8.456995,1.341672E-11,1.341672E-11,-11.36066,-10.00213
'[18:15:00.876 20/01/2026]',-2.178418,1.683286,4.16237,-4.421537,1.341672E-11,1.341672E-11,-0.2028826,-2.750699
'[18:15:00.880 20/01/2026]',-2.178418,1.683286,4.16237,-4.421537,1.341672E-11,1.341672E-11,-0.2028826,-2.750699
'[18:15:00.884 20/01/2026]',-2.178418,1.683286,4.16237,-4.421537,1.341672E-11,1.341672E-11,-0.2028826,-2.750699
'[18:15:00.888 20/01/2026]',-2.178418,1.683286,4.16237,-4.421537,1.341672E-11,1.341672E-11,-0.2028826,-2.750699
'[18:15:00.892 20/01/2026]',-6.996404,14.05649,-1.967518,4.967565,1.341672E-11,1.341672E-11,-1.48556,1.437458
'[18:15:00.896 20/01/2026]',-3.236115,0.7672063,13.51636,4.130817,1.341672E-11,1.341672E-11,3.215914,8.290926
'[18:15:00.900 20/01/2026]',-1.019899,1.029961,5.715844,1.066568,1.341672E-11,1.341672E-11,-0.807285,-6.999988
'[18:15:00.904 20/01/2026]',-1.019899,1.029961,5.715844,1.066568,1.341672E-11,1.341672E-11,-0.807285,-6.999988
'[18:15:00.908 20/01/2026]',-1.019899,1.029961,5.715844,1.066568,1.341672E-11,1.341672E-11,-0.807285,-6.999988
'[18:15:00.912 20/01/2026]',-1.019899,1.029961,5.715844,1.066568,1.341672E-11,1.341672E-11,-0.807285,-6.999988
'[18:15:00.916 20/01/2026]',-1.019899,1.029961,5.715844,1.066568,1.341672E-11,1.341672E-11,-0.807285,-6.999988
'[18:15:00.920 20/01/2026]',13.61678,-5.289826,0.01204031,-0.7209688,1.341672E-11,1.341672E-11,-4.688818,-5.187623
'[18:15:00.924 20/01/2026]',21.33116,-1.388214,7.307985,17.13903,1.341672E-11,1.341672E-11,6.312834,7.472697
'[18:15:00.928 20/01/2026]',14.97759,14.06666,-4.570499,-0.1969968,1.341672E-11,1.341672E-11,4.007241,4.932724
'[18:15:00.932 20/01/2026]',14.97759,14.06666,-4.570499,-0.1969968,1.341672E-11,1.341672E-11,4.007241,4.932724
'[18:15:00.936 20/01/2026]',14.97759,14.06666,-4.570499,-0.1969968,1.341672E-11,1.341672E-11,4.007241,4.932724
'[18:15:00.940 20/01/2026]',-14.24723,-29.98187,-18.19861,-20.60728,1.341672E-11,1.341672E-11,-18.89962,-29.74189
'[18:15:00.944 20/01/2026]',-11.5107,-3.480005,-9.985021,-11.51502,1.341672E-11,1.341672E-11,-2.540845,-0.252495
'[18:15:00.948 20/01/2026]',-11.5107,-3.480005,-9.985021,-11.51502,1.341672E-11,1.341672E-11,-2.540845,-0.252495
'[18:15:00.952 20/01/2026]',-11.5107,-3.480005,-9.985021,-11.51502,1.341672E-11,1.341672E-11,-2.540845,-0.252495
'[18:15:00.956 20/01/2026]',-11.5107,-3.480005,-9.985021,-11.51502,1.341672E-11,1.341672E-11,-2.540845,-0.252495
'[18:15:00.960 20/01/2026]',-11.5107,-3.480005,-9.985021,-11.51502,1.341672E-11,1.341672E-11,-2.540845,-0.252495
'[18:15:00.964 20/01/2026]',6.830253,-1.404443,0.3878016,1.864562,1.341672E-11,1.341672E-11,0.7344804,1.836846
'[18:15:00.968 20/01/2026]',-7.580662,-11.24774,-2.147062,-2.770714,1.341672E-11,1.341672E-11,1.185058,-2.453613
'[18:15:00.972 20/01/2026]',10.01314,17.78833,7.449882,5.689284,1.341672E-11,1.341672E-11,-6.758194,0.1955585
'[18:15:00.976 20/01/2026]',10.01314,17.78833,7.449882,5.689284,1.341672E-11,1.341672E-11,-6.758194,0.1955585
'[18:15:00.980 20/01/2026]',10.01314,17.78833,7.449882,5.689284,1.341672E-11,1.341672E-11,-6.758194,0.1955585
'[18:15:00.984 20/01/2026]',10.01314,17.78833,7.449882,5.689284,1.341672E-11,1.341672E-11,-6.758194,0.1955585
'[18:15:00.988 20/01/2026]',2.748533,14.69579,2.62732,4.463906,1.341672E-11,1.341672E-11,10.25592,21.51159
'[18:15:00.992 20/01/2026]',-15.75307,-7.112726,-11.54827,-1.637831,1.341672E-11,1.341672E-11,-3.141117,0.9228679
'[18:15:00.996 20/01/2026]',-20.57929,-7.007373,-2.016539,-9.650104,1.341672E-11,1.341672E-11,-10.83363,-13.87517
'[18:15:01.000 20/01/2026]',-20.57929,-7.007373,-2.016539,-9.650104,1.341672E-11,1.341672E-11,-10.83363,-13.87517
'[18:15:01.004 20/01/2026]',-20.57929,-7.007373,-2.016539,-9.650104,1.341672E-11,1.341672E-11,-10.83363,-13.87517
'[18:15:01.008 20/01/2026]',-20.57929,-7.007373,-2.016539,-9.650104,1.341672E-11,1.341672E-11,-10.83363,-13.87517
'[18:15:01.012 20/01/2026]',5.049569,-3.508285,9.734732,1.472354,1.341672E-11,1.341672E-11,3.644219,3.700135
'[18:15:01.016 20/01/2026]',8.025204,-0.7481758,0.9703352,-0.5289637,1.341672E-11,1.341672E-11,1.12401,1.885809
'[18:15:01.020 20/01/2026]',1.857428,-0.1719928,3.861943,-0.9259059,1.341672E-11,1.341672E-11,-2.523417,1.327325
'[18:15:01.024 20/01/2026]',1.857428,-0.1719928,3.861943,-0.9259059,1.341672E-11,1.341672E-11,-2.523417,1.327325
'[18:15:01.028 20/01/2026]',1.857428,-0.1719928,3.861943,-0.9259059,1.341672E-11,1.341672E-11,-2.523417,1.327325
'[18:15:01.032 20/01/2026]',1.857428,-0.1719928,3.861943,-0.9259059,1.341672E-11,1.341672E-11,-2.523417,1.327325
'[18:15:01.036 20/01/2026]',-21.33381,-8.198558,-17.13699,-14.85351,1.341672E-11,1.341672E-11,-0.6380103,0.3020161
'[18:15:01.040 20/01/2026]',11.44155,-0.1953341,-3.878833,2.971602,1.341672E-11,1.341672E-11,1.998847,1.317193
'[18:15:01.044 20/01/2026]',11.44155,-0.1953341,-3.878833,2.971602,1.341672E-11,1.341672E-11,1.998847,1.317193
'[18:15:01.048 20/01/2026]',11.44155,-0.1953341,-3.878833,2.971602,1.341672E-11,1.341672E-11,1.998847,1.317193
'[18:15:01.052 20/01/2026]',11.44155,-0.1953341,-3.878833,2.971602,1.341672E-11,1.341672E-11,1.998847,1.317193
'[18:15:01.056 20/01/2026]',11.44155,-0.1953341,-3.878833,2.971602,1.341672E-11,1.341672E-11,1.998847,1.317193
'[18:15:01.060 20/01/2026]',1.284241,4.931646,10.40486,2.685135,1.341672E-11,1.341672E-11,12.09748,9.741785
'[18:15:01.064 20/01/2026]',14.85288,8.611669,6.511168,13.01282,1.341672E-11,1.341672E-11,5.123681,12.45791
'[18:15:01.068 20/01/2026]',12.07099,5.807852,-3.915065,-3.943419,1.341672E-11,1.341672E-11,-4.880421,6.999601
'[18:15:01.072 20/01/2026]',12.07099,5.807852,-3.915065,-3.943419,1.341672E-11,1.341672E-11,-4.880421,6.999601
'[18:15:01.076 20/01/2026]',12.07099,5.807852,-3.915065,-3.943419,1.341672E-11,1.341672E-11,-4.880421,6.999601
'[18:15:01.080 20/01/2026]',-1.476327,9.351902,1.916365,1.79443,1.341672E-11,1.341672E-11,-2.386248,-5.960628
'[18:15:01.084 20/01/2026]',2.785637,1.870982,5.570549,11.94771,1.341672E-11,1.341672E-11,2.793704,9.279305
'[18:15:01.088 20/01/2026]',5.63567,0.1978184,0.4188479,2.477104,1.341672E-11,1.341672E-11,1.236894,0.9494399
'[18:15:01.092 20/01/2026]',5.63567,0.1978184,0.4188479,2.477104,1.341672E-11,1.341672E-11,1.236894,0.9494399
'[18:15:01.096 20/01/2026]',5.63567,0.1978184,0.4188479,2.477104,1.341672E-11,1.341672E-11,1.236894,0.9494399
'[18:15:01.100 20/01/2026]',5.63567,0.1978184,0.4188479,2.477104,1.341672E-11,1.341672E-11,1.236894,0.9494399
'[18:15:01.104 20/01/2026]',3.692915,7.63376,10.10396,8.868847,1.341672E-11,1.341672E-11,4.446802,11.64512
'[18:15:01.108 20/01/2026]',-5.106369,-8.604458,-6.992049,-0.6002108,1.341672E-11,1.341672E-11,3.282083,5.777246
'[18:15:01.112 20/01/2026]',-5.106369,-8.604458,-6.992049,-0.6002108,1.341672E-11,1.341672E-11,3.282083,5.777246
'[18:15:01.116 20/01/2026]',-5.106369,-8.604458,-6.992049,-0.6002108,1.341672E-11,1.341672E-11,3.282083,5.777246
'[18:15:01.120 20/01/2026]',-5.106369,-8.604458,-6.992049,-0.6002108,1.341672E-11,1.341672E-11,3.282083,5.777246
'[18:15:01.124 20/01/2026]',-5.106369,-8.604458,-6.992049,-0.6002108,1.341672E-11,1.341672E-11,3.282083,5.777246
'[18:15:01.128 20/01/2026]',27.75921,29.70418,13.6181,11.75888,1.341672E-11,1.341672E-11,5.565136,-1.634546
'[18:15:01.132 20/01/2026]',2.958434,15.03387,16.91727,8.289706,1.341672E-11,1.341672E-11,-0.2383081,-3.636963
'[18:15:01.136 20/01/2026]',-3.666315,-14.84812,-6.950723,-7.208709,1.341672E-11,1.341672E-11,-4.744606,-12.48162
'[18:15:01.140 20/01/2026]',-3.666315,-14.84812,-6.950723,-7.208709,1.341672E-11,1.341672E-11,-4.744606,-12.48162
'[18:15:01.144 20/01/2026]',-3.666315,-14.84812,-6.950723,-7.208709,1.341672E-11,1.341672E-11,-4.744606,-12.48162
'[18:15:01.148 20/01/2026]',-3.666315,-14.84812,-6.950723,-7.208709,1.341672E-11,1.341672E-11,-4.744606,-12.48162
'[18:15:01.152 20/01/2026]',1.155053,-7.160207,-0.5624702,-4.707711,1.341672E-11,1.341672E-11,-5.210111,-5.981707
'[18:15:01.156 20/01/2026]',-14.76395,-0.7687568,1.457942,2.486466,1.341672E-11,1.341672E-11,0.3751059,7.394105
'[18:15:01.160 20/01/2026]',-13.42204,-11.95438,-13.4752,-9.59552,1.341672E-11,1.341672E-11,-2.530511,-3.056845
'[18:15:01.164 20/01/2026]',-13.42204,-11.95438,-13.4752,-9.59552,1.341672E-11,1.341672E-11,-2.530511,-3.056845
'[18:15:01.168 20/01/2026]',-13.42204,-11.95438,-13.4752,-9.59552,1.341672E-11,1.341672E-11,-2.530511,-3.056845
'[18:15:01.172 20/01/2026]',-13.42204,-11.95438,-13.4752,-9.59552,1.341672E-11,1.341672E-11,-2.530511,-3.056845
'[18:15:01.176 20/01/2026]',5.546398,1.263573,-1.391505,4.88875,1.341672E-11,1.341672E-11,2.532763,-3.057532
'[18:15:01.180 20/01/2026]',-5.500578,-0.7184408,8.395945,7.333177,1.341672E-11,1.341672E-11,2.694611,0.3313407
'[18:15:01.184 20/01/2026]',5.168999,2.267388,10.42418,7.639465,1.341672E-11,1.341672E-11,15.3384,13.83717
'[18:15:01.188 20/01/2026]',5.168999,2.267388,10.42418,7.639465,1.341672E-11,1.341672E-11,15.3384,13.83717
'[18:15:01.192 20/01/2026]',5.168999,2.267388,10.42418,7.639465,1.341672E-11,1.341672E-11,15.3384,13.83717
'[18:15:01.196 20/01/2026]',5.168999,2.267388,10.42418,7.639465,1.341672E-11,1.341672E-11,15.3384,13.83717
'[18:15:01.200 20/01/2026]',11.17414,0.2985097,-4.299103,0.7878959,1.341672E-11,1.341672E-11,-5.168332,-3.401309
'[18:15:01.204 20/01/2026]',-1.1832,-2.437643,1.006634,4.109644,1.341672E-11,1.341672E-11,1.655112,-0.4935262
'[18:15:01.208 20/01/2026]',-1.1832,-2.437643,1.006634,4.109644,1.341672E-11,1.341672E-11,1.655112,-0.4935262
'[18:15:01.212 20/01/2026]',-1.1832,-2.437643,1.006634,4.109644,1.341672E-11,1.341672E-11,1.655112,-0.4935262
'[18:15:01.216 20/01/2026]',-1.1832,-2.437643,1.006634,4.109644,1.341672E-11,1.341672E-11,1.655112,-0.4935262
'[18:15:01.220 20/01/2026]',-1.1832,-2.437643,1.006634,4.109644,1.341672E-11,1.341672E-11,1.655112,-0.4935262
'[18:15:01.224 20/01/2026]',-1.1832,-2.437643,1.006634,4.109644,1.341672E-11,1.341672E-11,1.655112,-0.4935262
'[18:15:01.228 20/01/2026]',-1.1832,-2.437643,1.006634,4.109644,1.341672E-11,1.341672E-11,1.655112,-0.4935262
'[18:15:01.232 20/01/2026]',-1.1832,-2.437643,1.006634,4.109644,1.341672E-11,1.341672E-11,1.655112,-0.4935262
'[18:15:01.236 20/01/2026]',-1.1832,-2.437643,1.006634,4.109644,1.341672E-11,1.341672E-11,1.655112,-0.4935262
'[18:15:01.240 20/01/2026]',-1.1832,-2.437643,1.006634,4.109644,1.341672E-11,1.341672E-11,1.655112,-0.4935262
'[18:15:01.244 20/01/2026]',-1.1832,-2.437643,1.006634,4.109644,1.341672E-11,1.341672E-11,1.655112,-0.4935262
'[18:15:01.248 20/01/2026]',-1.1832,-2.437643,1.006634,4.109644,1.341672E-11,1.341672E-11,1.655112,-0.4935262
'[18:15:01.252 20/01/2026]',-1.1832,-2.437643,1.006634,4.109644,1.341672E-11,1.341672E-11,1.655112,-0.4935262
'[18:15:01.256 20/01/2026]',-1.1832,-2.437643,1.006634,4.109644,1.341672E-11,1.341672E-11,1.655112,-0.4935262
'[18:15:01.260 20/01/2026]',-1.1832,-2.437643,1.006634,4.109644,1.341672E-11,1.341672E-11,1.655112,-0.4935262
'[18:15:01.264 20/01/2026]',-1.1832,-2.437643,1.006634,4.109644,1.341672E-11,1.341672E-11,1.655112,-0.4935262
'[18:15:01.268 20/01/2026]',8.186713,2.137158,-8.484924,-5.59835,1.341672E-11,1.341672E-11,3.682339,3.901776
'[18:15:01.272 20/01/2026]',4.259901,3.692031,5.073568,3.916672,1.341672E-11,1.341672E-11,-1.541081,2.618506
'[18:15:01.276 20/01/2026]',-1.366929,-8.176645,-11.31409,-8.959675,1.341672E-11,1.341672E-11,-3.21902,4.290359
'[18:15:01.280 20/01/2026]',-1.366929,-8.176645,-11.31409,-8.959675,1.341672E-11,1.341672E-11,-3.21902,4.290359
'[18:15:01.284 20/01/2026]',-1.366929,-8.176645,-11.31409,-8.959675,1.341672E-11,1.341672E-11,-3.21902,4.290359
'[18:15:01.288 20/01/2026]',-1.366929,-8.176645,-11.31409,-8.959675,1.341672E-11,1.341672E-11,-3.21902,4.290359
'[18:15:01.292 20/01/2026]',-12.5067,-8.754099,-21.08234,-10.71612,1.341672E-11,1.341672E-11,-11.90803,-12.06305
'[18:15:01.296 20/01/2026]',-7.572074,-3.345107,-6.065097,-3.405061,1.341672E-11,1.341672E-11,-2.878492,-10.70194
'[18:15:01.300 20/01/2026]',10.93385,12.94463,9.173818,9.832691,1.341672E-11,1.341672E-11,0.5683007,1.664276
'[18:15:01.304 20/01/2026]',17.23685,2.623988,-2.953883,-3.202069,1.341672E-11,1.341672E-11,-0.7605909,-0.4995902
'[18:15:01.308 20/01/2026]',1.257581,-9.645008,-3.437258,-4.212795,1.341672E-11,1.341672E-11,4.68451,1.192599
'[18:15:01.312 20/01/2026]',-17.49192,-16.22466,-0.7098675,-8.215224,1.341672E-11,1.341672E-11,-7.730212,-3.719769
'[18:15:01.316 20/01/2026]',30.99305,19.33224,3.092307,5.234316,1.341672E-11,1.341672E-11,1.857133,-5.043453
'[18:15:01.320 20/01/2026]',2.508494,7.210083,1.073772,1.301935,1.341672E-11,1.341672E-11,8.527367,17.4742
'[18:15:01.324 20/01/2026]',6.33557,1.905015,-7.179729,-8.830976,1.341672E-11,1.341672E-11,0.8493554,-1.982626
'[18:15:01.328 20/01/2026]',5.853916,10.02731,-7.060966,3.966143,1.341672E-11,1.341672E-11,-1.794508,5.350188
'[18:15:01.332 20/01/2026]',5.430896,-7.268277,-11.80859,-14.62726,1.341672E-11,1.341672E-11,-0.9535952,-3.375209
'[18:15:01.336 20/01/2026]',-4.897553,0.8222418,7.001231,2.024651,1.341672E-11,1.341672E-11,2.033067,7.632274
'[18:15:01.340 20/01/2026]',-8.22112,-4.810117,-2.411146,0.2166014,1.341672E-11,1.341672E-11,-1.248236,-6.704864
'[18:15:01.344 20/01/2026]',-8.22112,-4.810117,-2.411146,0.2166014,1.341672E-11,1.341672E-11,-1.248236,-6.704864
'[18:15:01.348 20/01/2026]',-8.22112,-4.810117,-2.411146,0.2166014,1.341672E-11,1.341672E-11,-1.248236,-6.704864
'[18:15:01.352 20/01/2026]',-8.22112,-4.810117,-2.411146,0.2166014,1.341672E-11,1.341672E-11,-1.248236,-6.704864
'[18:15:01.356 20/01/2026]',-8.22112,-4.810117,-2.411146,0.2166014,1.341672E-11,1.341672E-11,-1.248236,-6.704864
'[18:15:01.360 20/01/2026]',5.340544,4.626155,1.642407,3.785707,1.341672E-11,1.341672E-11,-3.978513,-7.04468
'[18:15:01.364 20/01/2026]',9.282591,3.864026,0.08922128,5.238091,1.341672E-11,1.341672E-11,3.841892,-0.2691563
'[18:15:01.368 20/01/2026]',5.287294,11.85513,3.939845,7.020875,1.341672E-11,1.341672E-11,11.67436,20.42405
'[18:15:01.372 20/01/2026]',5.287294,11.85513,3.939845,7.020875,1.341672E-11,1.341672E-11,11.67436,20.42405
'[18:15:01.376 20/01/2026]',5.287294,11.85513,3.939845,7.020875,1.341672E-11,1.341672E-11,11.67436,20.42405
'[18:15:01.380 20/01/2026]',5.287294,11.85513,3.939845,7.020875,1.341672E-11,1.341672E-11,11.67436,20.42405
'[18:15:01.384 20/01/2026]',-3.86695,4.292505,9.391013,7.267605,1.341672E-11,1.341672E-11,2.705402,6.878746
'[18:15:01.388 20/01/2026]',6.654482,-1.827343,-2.660575,7.206618,1.341672E-11,1.341672E-11,-4.862075,-1.588113
'[18:15:01.392 20/01/2026]',-7.063687,-0.6538072,4.753453,4.95524,1.341672E-11,1.341672E-11,2.479656,2.689641
'[18:15:01.396 20/01/2026]',-7.063687,-0.6538072,4.753453,4.95524,1.341672E-11,1.341672E-11,2.479656,2.689641
'[18:15:01.400 20/01/2026]',-7.063687,-0.6538072,4.753453,4.95524,1.341672E-11,1.341672E-11,2.479656,2.689641
'[18:15:01.404 20/01/2026]',-7.063687,-0.6538072,4.753453,4.95524,1.341672E-11,1.341672E-11,2.479656,2.689641
'[18:15:01.408 20/01/2026]',-7.063687,-0.6538072,4.753453,4.95524,1.341672E-11,1.341672E-11,2.479656,2.689641
'[18:15:01.412 20/01/2026]',-14.89666,-7.837653,-4.611948,-2.213138,1.341672E-11,1.341672E-11,-2.06535,6.26768
'[18:15:01.416 20/01/2026]',-6.810421,0.178248,-0.04395128,7.562049,1.341672E-11,1.341672E-11,-2.236144,-0.9582607
'[18:15:01.420 20/01/2026]',-6.485737,-2.719496,1.742686,-5.735593,1.341672E-11,1.341672E-11,2.345394,3.692912
'[18:15:01.424 20/01/2026]',-6.485737,-2.719496,1.742686,-5.735593,1.341672E-11,1.341672E-11,2.345394,3.692912
'[18:15:01.428 20/01/2026]',-6.485737,-2.719496,1.742686,-5.735593,1.341672E-11,1.341672E-11,2.345394,3.692912
'[18:15:01.432 20/01/2026]',18.72881,5.580392,-4.855986,-3.952294,1.341672E-11,1.341672E-11,-5.273888,-6.949727
'[18:15:01.436 20/01/2026]',11.84461,5.6281,7.984875,7.877024,1.341672E-11,1.341672E-11,6.498805,13.45179
'[18:15:01.440 20/01/2026]',11.84461,5.6281,7.984875,7.877024,1.341672E-11,1.341672E-11,6.498805,13.45179
'[18:15:01.444 20/01/2026]',11.84461,5.6281,7.984875,7.877024,1.341672E-11,1.341672E-11,6.498805,13.45179
'[18:15:01.448 20/01/2026]',11.84461,5.6281,7.984875,7.877024,1.341672E-11,1.341672E-11,6.498805,13.45179
'[18:15:01.452 20/01/2026]',11.84461,5.6281,7.984875,7.877024,1.341672E-11,1.341672E-11,6.498805,13.45179
'[18:15:01.456 20/01/2026]',4.475049,11.4497,-1.287276,4.209208,1.341672E-11,1.341672E-11,0.1613315,1.645416
'[18:15:01.460 20/01/2026]',-6.559531,-7.68814,0.0052136,2.840999,1.341672E-11,1.341672E-11,-6.061313,-5.355612
'[18:15:01.464 20/01/2026]',-6.559531,-7.68814,0.0052136,2.840999,1.341672E-11,1.341672E-11,-6.061313,-5.355612
'[18:15:01.468 20/01/2026]',-6.559531,-7.68814,0.0052136,2.840999,1.341672E-11,1.341672E-11,-6.061313,-5.355612
'[18:15:01.472 20/01/2026]',-6.559531,-7.68814,0.0052136,2.840999,1.341672E-11,1.341672E-11,-6.061313,-5.355612
'[18:15:01.476 20/01/2026]',-10.1233,2.560735,3.668395,-3.284341,1.341672E-11,1.341672E-11,3.548407,-0.6496491
'[18:15:01.480 20/01/2026]',-9.847682,1.477156,7.653658,-0.8479277,1.341672E-11,1.341672E-11,1.489077,1.401699
'[18:15:01.484 20/01/2026]',5.974144,10.05903,-6.682964,-1.396981,1.341672E-11,1.341672E-11,3.852901,2.053726
'[18:15:01.488 20/01/2026]',-8.864935,-10.32103,-13.24931,0.2526356,1.341672E-11,1.341672E-11,-8.262824,-5.990792
'[18:15:01.492 20/01/2026]',-8.864935,-10.32103,-13.24931,0.2526356,1.341672E-11,1.341672E-11,-8.262824,-5.990792
'[18:15:01.496 20/01/2026]',-8.864935,-10.32103,-13.24931,0.2526356,1.341672E-11,1.341672E-11,-8.262824,-5.990792
'[18:15:01.500 20/01/2026]',-8.864935,-10.32103,-13.24931,0.2526356,1.341672E-11,1.341672E-11,-8.262824,-5.990792
'[18:15:01.504 20/01/2026]',14.95595,4.5106,2.985814,-1.616283,1.341672E-11,1.341672E-11,7.725788,12.2664
'[18:15:01.508 20/01/2026]',-1.942626,0.2428625,-1.933787,2.589689,1.341672E-11,1.341672E-11,-4.949621,3.453837
'[18:15:01.512 20/01/2026]',-1.942626,0.2428625,-1.933787,2.589689,1.341672E-11,1.341672E-11,-4.949621,3.453837
'[18:15:01.516 20/01/2026]',-1.942626,0.2428625,-1.933787,2.589689,1.341672E-11,1.341672E-11,-4.949621,3.453837
'[18:15:01.520 20/01/2026]',-1.942626,0.2428625,-1.933787,2.589689,1.341672E-11,1.341672E-11,-4.949621,3.453837
'[18:15:01.524 20/01/2026]',21.86994,-3.132812,9.324473,9.300352,1.341672E-11,1.341672E-11,0.6232486,-2.417534
'[18:15:01.528 20/01/2026]',2.911791,8.519989,4.783492,2.831392,1.341672E-11,1.341672E-11,5.959604,8.80585
'[18:15:01.532 20/01/2026]',-8.992467,-5.746803,-2.66729,-3.776222,1.341672E-11,1.341672E-11,-6.588434,-5.055352
'[18:15:01.536 20/01/2026]',-8.992467,-5.746803,-2.66729,-3.776222,1.341672E-11,1.341672E-11,-6.588434,-5.055352
'[18:15:01.540 20/01/2026]',-8.992467,-5.746803,-2.66729,-3.776222,1.341672E-11,1.341672E-11,-6.588434,-5.055352
'[18:15:01.544 20/01/2026]',-8.992467,-5.746803,-2.66729,-3.776222,1.341672E-11,1.341672E-11,-6.588434,-5.055352
'[18:15:01.548 20/01/2026]',2.14697,1.651956,-6.482138,-1.883492,1.341672E-11,1.341672E-11,-4.910215,-3.045409
'[18:15:01.552 20/01/2026]',19.75187,20.09904,5.581585,-1.732454,1.341672E-11,1.341672E-11,9.561563,13.87884
'[18:15:01.556 20/01/2026]',-9.199409,-3.870018,2.059659,-8.016094,1.341672E-11,1.341672E-11,-0.8964135,-3.214116
'[18:15:01.560 20/01/2026]',-9.199409,-3.870018,2.059659,-8.016094,1.341672E-11,1.341672E-11,-0.8964135,-3.214116
'[18:15:01.564 20/01/2026]',-9.199409,-3.870018,2.059659,-8.016094,1.341672E-11,1.341672E-11,-0.8964135,-3.214116
'[18:15:01.568 20/01/2026]',-9.199409,-3.870018,2.059659,-8.016094,1.341672E-11,1.341672E-11,-0.8964135,-3.214116
'[18:15:01.572 20/01/2026]',0.354901,1.760285,3.801188,-3.14137,1.341672E-11,1.341672E-11,0.8855416,-4.662781
'[18:15:01.576 20/01/2026]',-15.21939,-8.291406,-7.080202,-0.9213277,1.341672E-11,1.341672E-11,-1.976152,-2.271206
'[18:15:01.580 20/01/2026]',-15.21939,-8.291406,-7.080202,-0.9213277,1.341672E-11,1.341672E-11,-1.976152,-2.271206
'[18:15:01.584 20/01/2026]',-15.21939,-8.291406,-7.080202,-0.9213277,1.341672E-11,1.341672E-11,-1.976152,-2.271206
'[18:15:01.588 20/01/2026]',-15.21939,-8.291406,-7.080202,-0.9213277,1.341672E-11,1.341672E-11,-1.976152,-2.271206
'[18:15:01.592 20/01/2026]',8.492147,-12.3383,-9.598353,-5.335621,1.341672E-11,1.341672E-11,-8.622046,1.342348
'[18:15:01.596 20/01/2026]',4.057476,10.05151,1.560515,2.529909,1.341672E-11,1.341672E-11,7.2776,9.015907
'[18:15:01.600 20/01/2026]',-4.399318,-3.559447,8.582279,2.833976,1.341672E-11,1.341672E-11,1.409905,0.9379994
'[18:15:01.604 20/01/2026]',-4.399318,-3.559447,8.582279,2.833976,1.341672E-11,1.341672E-11,1.409905,0.9379994
'[18:15:01.608 20/01/2026]',-4.399318,-3.559447,8.582279,2.833976,1.341672E-11,1.341672E-11,1.409905,0.9379994
'[18:15:01.612 20/01/2026]',-4.399318,-3.559447,8.582279,2.833976,1.341672E-11,1.341672E-11,1.409905,0.9379994
'[18:15:01.616 20/01/2026]',-4.399318,-3.559447,8.582279,2.833976,1.341672E-11,1.341672E-11,1.409905,0.9379994
'[18:15:01.620 20/01/2026]',14.27421,9.304914,7.008867,6.968716,1.341672E-11,1.341672E-11,7.557515,6.781843
'[18:15:01.624 20/01/2026]',6.079565,8.405417,-3.275934,3.070361,1.341672E-11,1.341672E-11,-3.580071,-7.274682
'[18:15:01.628 20/01/2026]',-10.23961,-21.96996,0.01489802,-3.782964,1.341672E-11,1.341672E-11,-0.9296353,-1.829368
'[18:15:01.632 20/01/2026]',-10.23961,-21.96996,0.01489802,-3.782964,1.341672E-11,1.341672E-11,-0.9296353,-1.829368
'[18:15:01.636 20/01/2026]',-10.23961,-21.96996,0.01489802,-3.782964,1.341672E-11,1.341672E-11,-0.9296353,-1.829368
'[18:15:01.640 20/01/2026]',-10.23961,-21.96996,0.01489802,-3.782964,1.341672E-11,1.341672E-11,-0.9296353,-1.829368
'[18:15:01.644 20/01/2026]',-20.06227,-2.973424,4.084305,-5.064434,1.341672E-11,1.341672E-11,6.892752,4.193093
'[18:15:01.648 20/01/2026]',0.7509204,-3.985767,-9.804765,-2.746839,1.341672E-11,1.341672E-11,-10.43641,-15.86741
'[18:15:01.652 20/01/2026]',0.7509204,-3.985767,-9.804765,-2.746839,1.341672E-11,1.341672E-11,-10.43641,-15.86741
'[18:15:01.656 20/01/2026]',0.7509204,-3.985767,-9.804765,-2.746839,1.341672E-11,1.341672E-11,-10.43641,-15.86741
'[18:15:01.660 20/01/2026]',0.7509204,-3.985767,-9.804765,-2.746839,1.341672E-11,1.341672E-11,-10.43641,-15.86741
'[18:15:01.664 20/01/2026]',-7.633564,2.509756,-0.448304,-5.22262,1.341672E-11,1.341672E-11,-4.08824,1.00564
'[18:15:01.668 20/01/2026]',11.99302,9.135254,5.571305,-5.225745,1.341672E-11,1.341672E-11,-1.425631,-7.546358
'[18:15:01.672 20/01/2026]',6.535173,-2.205233,2.990685,-7.241048,1.341672E-11,1.341672E-11,-1.277934,-9.128872
'[18:15:01.676 20/01/2026]',6.535173,-2.205233,2.990685,-7.241048,1.341672E-11,1.341672E-11,-1.277934,-9.128872
'[18:15:01.680 20/01/2026]',6.535173,-2.205233,2.990685,-7.241048,1.341672E-11,1.341672E-11,-1.277934,-9.128872
'[18:15:01.684 20/01/2026]',6.535173,-2.205233,2.990685,-7.241048,1.341672E-11,1.341672E-11,-1.277934,-9.128872
'[18:15:01.688 20/01/2026]',-9.367043,-7.32232,-8.178477,-2.140505,1.341672E-11,1.341672E-11,-1.517596,-5.879475
'[18:15:01.692 20/01/2026]',-0.07700627,-5.747946,-3.525055,-7.96523,1.341672E-11,1.341672E-11,3.971475,6.337224
'[18:15:01.696 20/01/2026]',-4.358199,-0.3858419,1.147237,13.43114,1.341672E-11,1.341672E-11,-2.696396,4.285706
'[18:15:01.700 20/01/2026]',-4.358199,-0.3858419,1.147237,13.43114,1.341672E-11,1.341672E-11,-2.696396,4.285706
'[18:15:01.704 20/01/2026]',-4.358199,-0.3858419,1.147237,13.43114,1.341672E-11,1.341672E-11,-2.696396,4.285706
'[18:15:01.708 20/01/2026]',-4.358199,-0.3858419,1.147237,13.43114,1.341672E-11,1.341672E-11,-2.696396,4.285706
'[18:15:01.712 20/01/2026]',1.471247,-3.86452,1.475932,-6.380001,1.341672E-11,1.341672E-11,-6.863616,-5.91359
'[18:15:01.716 20/01/2026]',-5.705358,6.620514,0.9802218,7.368552,1.341672E-11,1.341672E-11,1.705653,0.3281547
'[18:15:01.720 20/01/2026]',-4.973066,-6.667212,-12.00465,-6.919018,1.341672E-11,1.341672E-11,-13.99197,-13.40917
'[18:15:01.724 20/01/2026]',-4.973066,-6.667212,-12.00465,-6.919018,1.341672E-11,1.341672E-11,-13.99197,-13.40917
'[18:15:01.728 20/01/2026]',-4.973066,-6.667212,-12.00465,-6.919018,1.341672E-11,1.341672E-11,-13.99197,-13.40917
'[18:15:01.732 20/01/2026]',-4.973066,-6.667212,-12.00465,-6.919018,1.341672E-11,1.341672E-11,-13.99197,-13.40917
'[18:15:01.736 20/01/2026]',8.135388,-1.331838,3.506827,4.086286,1.341672E-11,1.341672E-11,21.67844,13.99835
'[18:15:01.740 20/01/2026]',4.136898,-20.89425,8.85614,1.955128,1.341672E-11,1.341672E-11,1.974877,-1.835227
'[18:15:01.744 20/01/2026]',0.8504839,4.894765,0.4889505,-3.685329,1.341672E-11,1.341672E-11,11.85629,6.935107
'[18:15:01.748 20/01/2026]',0.8504839,4.894765,0.4889505,-3.685329,1.341672E-11,1.341672E-11,11.85629,6.935107
'[18:15:01.752 20/01/2026]',0.8504839,4.894765,0.4889505,-3.685329,1.341672E-11,1.341672E-11,11.85629,6.935107
'[18:15:01.756 20/01/2026]',0.8504839,4.894765,0.4889505,-3.685329,1.341672E-11,1.341672E-11,11.85629,6.935107
'[18:15:01.760 20/01/2026]',-2.729732,-1.767709,1.798353,-3.256186,1.341672E-11,1.341672E-11,-9.207468,-0.423503
'[18:15:01.764 20/01/2026]',-18.90312,5.629368,-10.40082,-0.192108,1.341672E-11,1.341672E-11,-13.39767,0.4620066
'[18:15:01.768 20/01/2026]',-18.90312,5.629368,-10.40082,-0.192108,1.341672E-11,1.341672E-11,-13.39767,0.4620066
'[18:15:01.772 20/01/2026]',-18.90312,5.629368,-10.40082,-0.192108,1.341672E-11,1.341672E-11,-13.39767,0.4620066
'[18:15:01.776 20/01/2026]',-18.90312,5.629368,-10.40082,-0.192108,1.341672E-11,1.341672E-11,-13.39767,0.4620066
'[18:15:01.780 20/01/2026]',-18.90312,5.629368,-10.40082,-0.192108,1.341672E-11,1.341672E-11,-13.39767,0.4620066
'[18:15:01.784 20/01/2026]',-1.983373,12.48383,-8.1743,-9.968999,1.341672E-11,1.341672E-11,-7.901061,-9.084591
'[18:15:01.788 20/01/2026]',-9.937335,-9.841747,-3.884258,1.953434,1.341672E-11,1.341672E-11,-4.201411,-7.293008
'[18:15:01.792 20/01/2026]',4.947536,-5.848968,4.314002,-0.930058,1.341672E-11,1.341672E-11,2.774529,-11.37451
'[18:15:01.796 20/01/2026]',4.947536,-5.848968,4.314002,-0.930058,1.341672E-11,1.341672E-11,2.774529,-11.37451
'[18:15:01.800 20/01/2026]',4.947536,-5.848968,4.314002,-0.930058,1.341672E-11,1.341672E-11,2.774529,-11.37451
'[18:15:01.804 20/01/2026]',20.46861,20.37322,13.83319,16.99486,1.341672E-11,1.341672E-11,20.23113,35.34435
'[18:15:01.808 20/01/2026]',11.95714,0.06047216,4.103127,-1.539626,1.341672E-11,1.341672E-11,14.48625,15.54872
'[18:15:01.812 20/01/2026]',4.282957,4.908343,2.385781,4.378952,1.341672E-11,1.341672E-11,-3.710861,-4.938688
'[18:15:01.816 20/01/2026]',4.282957,4.908343,2.385781,4.378952,1.341672E-11,1.341672E-11,-3.710861,-4.938688
'[18:15:01.820 20/01/2026]',4.282957,4.908343,2.385781,4.378952,1.341672E-11,1.341672E-11,-3.710861,-4.938688
'[18:15:01.824 20/01/2026]',4.282957,4.908343,2.385781,4.378952,1.341672E-11,1.341672E-11,-3.710861,-4.938688
'[18:15:01.828 20/01/2026]',0.6189619,-4.292808,-2.147448,-0.6699954,1.341672E-11,1.341672E-11,7.663795,7.658855
'[18:15:01.832 20/01/2026]',-8.241392,-0.6006635,6.512175,11.64169,1.341672E-11,1.341672E-11,8.769249,9.986781
'[18:15:01.836 20/01/2026]',-8.241392,-0.6006635,6.512175,11.64169,1.341672E-11,1.341672E-11,8.769249,9.986781
'[18:15:01.840 20/01/2026]',-8.241392,-0.6006635,6.512175,11.64169,1.341672E-11,1.341672E-11,8.769249,9.986781
'[18:15:01.844 20/01/2026]',-8.241392,-0.6006635,6.512175,11.64169,1.341672E-11,1.341672E-11,8.769249,9.986781
'[18:15:01.848 20/01/2026]',-8.241392,-0.6006635,6.512175,11.64169,1.341672E-11,1.341672E-11,8.769249,9.986781
'[18:15:01.852 20/01/2026]',-2.109498,1.665782,-2.987769,3.80522,1.341672E-11,1.341672E-11,-10.71611,0.91006
'[18:15:01.856 20/01/2026]',6.546658,19.10843,17.2687,21.06634,1.341672E-11,1.341672E-11,17.2617,24.55204
'[18:15:01.860 20/01/2026]',-10.59376,8.224033,3.938983,3.113837,1.341672E-11,1.341672E-11,5.861881,11.87398
'[18:15:01.864 20/01/2026]',-10.59376,8.224033,3.938983,3.113837,1.341672E-11,1.341672E-11,5.861881,11.87398
'[18:15:01.868 20/01/2026]',-10.59376,8.224033,3.938983,3.113837,1.341672E-11,1.341672E-11,5.861881,11.87398
'[18:15:01.872 20/01/2026]',-10.59376,8.224033,3.938983,3.113837,1.341672E-11,1.341672E-11,5.861881,11.87398
'[18:15:01.876 20/01/2026]',-13.8121,-1.031218,-8.100856,-6.043015,1.341672E-11,1.341672E-11,-8.73437,-0.3374566
'[18:15:01.880 20/01/2026]',8.021525,12.45029,21.88533,14.66721,1.341672E-11,1.341672E-11,15.51569,8.422111
'[18:15:01.884 20/01/2026]',6.431377,7.714091,3.491974,4.826056,1.341672E-11,1.341672E-11,2.077307,-1.211651
'[18:15:01.888 20/01/2026]',6.431377,7.714091,3.491974,4.826056,1.341672E-11,1.341672E-11,2.077307,-1.211651
'[18:15:01.892 20/01/2026]',6.431377,7.714091,3.491974,4.826056,1.341672E-11,1.341672E-11,2.077307,-1.211651
'[18:15:01.896 20/01/2026]',6.431377,7.714091,3.491974,4.826056,1.341672E-11,1.341672E-11,2.077307,-1.211651
'[18:15:01.900 20/01/2026]',-20.81633,-5.77879,-3.991045,-5.584606,1.341672E-11,1.341672E-11,-1.605475,0.1461986
'[18:15:01.904 20/01/2026]',-9.918794,-5.588561,-19.61958,-2.053921,1.341672E-11,1.341672E-11,-3.114824,15.27799
'[18:15:01.908 20/01/2026]',-9.918794,-5.588561,-19.61958,-2.053921,1.341672E-11,1.341672E-11,-3.114824,15.27799
'[18:15:01.912 20/01/2026]',-9.918794,-5.588561,-19.61958,-2.053921,1.341672E-11,1.341672E-11,-3.114824,15.27799
'[18:15:01.916 20/01/2026]',-9.918794,-5.588561,-19.61958,-2.053921,1.341672E-11,1.341672E-11,-3.114824,15.27799
'[18:15:01.920 20/01/2026]',-9.918794,-5.588561,-19.61958,-2.053921,1.341672E-11,1.341672E-11,-3.114824,15.27799
'[18:15:01.924 20/01/2026]',-37.82848,-44.84343,-36.87856,-42.52073,1.341672E-11,1.341672E-11,-50.51977,-117.5227
'[18:15:01.928 20/01/2026]',32.39817,31.53451,31.61241,27.08304,1.341672E-11,1.341672E-11,20.5211,45.51759
'[18:15:01.932 20/01/2026]',3.077245,-12.25189,-16.52033,-26.57686,1.341672E-11,1.341672E-11,-4.932424,-13.6307
'[18:15:01.936 20/01/2026]',3.077245,-12.25189,-16.52033,-26.57686,1.341672E-11,1.341672E-11,-4.932424,-13.6307
'[18:15:01.940 20/01/2026]',3.077245,-12.25189,-16.52033,-26.57686,1.341672E-11,1.341672E-11,-4.932424,-13.6307
'[18:15:01.944 20/01/2026]',9.752858,0.6231946,4.294645,1.09582,1.341672E-11,1.341672E-11,9.140808,15.77065
'[18:15:01.948 20/01/2026]',1.898013,10.17165,0.3902199,3.995796,1.341672E-11,1.341672E-11,11.23276,13.79862
'[18:15:01.952 20/01/2026]',-25.78077,-14.51583,-9.68179,-11.68064,1.341672E-11,1.341672E-11,-10.07499,-19.16816
'[18:15:01.956 20/01/2026]',-25.78077,-14.51583,-9.68179,-11.68064,1.341672E-11,1.341672E-11,-10.07499,-19.16816
'[18:15:01.960 20/01/2026]',-25.78077,-14.51583,-9.68179,-11.68064,1.341672E-11,1.341672E-11,-10.07499,-19.16816
'[18:15:01.964 20/01/2026]',-25.78077,-14.51583,-9.68179,-11.68064,1.341672E-11,1.341672E-11,-10.07499,-19.16816
'[18:15:01.968 20/01/2026]',-3.125592,-7.829394,-7.546631,-16.10354,1.341672E-11,1.341672E-11,-6.162721,-10.62317
'[18:15:01.972 20/01/2026]',12.81775,0.4626522,-3.40748,-2.673779,1.341672E-11,1.341672E-11,-8.880921,2.740674
'[18:15:01.976 20/01/2026]',12.81775,0.4626522,-3.40748,-2.673779,1.341672E-11,1.341672E-11,-8.880921,2.740674
'[18:15:01.980 20/01/2026]',12.81775,0.4626522,-3.40748,-2.673779,1.341672E-11,1.341672E-11,-8.880921,2.740674
'[18:15:01.984 20/01/2026]',12.81775,0.4626522,-3.40748,-2.673779,1.341672E-11,1.341672E-11,-8.880921,2.740674
'[18:15:01.988 20/01/2026]',12.81775,0.4626522,-3.40748,-2.673779,1.341672E-11,1.341672E-11,-8.880921,2.740674
'[18:15:01.992 20/01/2026]',4.562562,11.62537,2.401372,7.77254,1.341672E-11,1.341672E-11,0.49396,12.17889
'[18:15:01.996 20/01/2026]',9.112012,6.929429,1.097079,4.790975,1.341672E-11,1.341672E-11,3.097295,4.406299
'[18:15:02.000 20/01/2026]',-9.076211,-3.751729,-2.7124,-1.781993,1.341672E-11,1.341672E-11,10.59379,12.6077
'[18:15:02.004 20/01/2026]',-9.076211,-3.751729,-2.7124,-1.781993,1.341672E-11,1.341672E-11,10.59379,12.6077
'[18:15:02.008 20/01/2026]',-9.076211,-3.751729,-2.7124,-1.781993,1.341672E-11,1.341672E-11,10.59379,12.6077
'[18:15:02.012 20/01/2026]',-9.076211,-3.751729,-2.7124,-1.781993,1.341672E-11,1.341672E-11,10.59379,12.6077
'[18:15:02.016 20/01/2026]',-2.213036,1.201388,5.67378,2.686424,1.341672E-11,1.341672E-11,2.029891,-9.917508
'[18:15:02.020 20/01/2026]',-0.5050306,-5.450561,4.488806,5.620695,1.341672E-11,1.341672E-11,1.253962,3.540258
'[18:15:02.024 20/01/2026]',-1.08505,-2.677357,-2.497583,-8.61014,1.341672E-11,1.341672E-11,-0.2411179,0.1180236
'[18:15:02.028 20/01/2026]',-1.08505,-2.677357,-2.497583,-8.61014,1.341672E-11,1.341672E-11,-0.2411179,0.1180236
'[18:15:02.032 20/01/2026]',-1.08505,-2.677357,-2.497583,-8.61014,1.341672E-11,1.341672E-11,-0.2411179,0.1180236
'[18:15:02.036 20/01/2026]',-1.08505,-2.677357,-2.497583,-8.61014,1.341672E-11,1.341672E-11,-0.2411179,0.1180236
'[18:15:02.040 20/01/2026]',26.87811,30.14672,18.02469,11.86125,1.341672E-11,1.341672E-11,10.81151,8.681451
'[18:15:02.044 20/01/2026]',-15.64086,-16.06824,-11.43175,-9.816154,1.341672E-11,1.341672E-11,-10.77289,-10.28627
'[18:15:02.048 20/01/2026]',-15.64086,-16.06824,-11.43175,-9.816154,1.341672E-11,1.341672E-11,-10.77289,-10.28627
'[18:15:02.052 20/01/2026]',-15.64086,-16.06824,-11.43175,-9.816154,1.341672E-11,1.341672E-11,-10.77289,-10.28627
'[18:15:02.056 20/01/2026]',-15.64086,-16.06824,-11.43175,-9.816154,1.341672E-11,1.341672E-11,-10.77289,-10.28627
'[18:15:02.060 20/01/2026]',11.70322,6.093857,-6.373905,-3.373527,1.341672E-11,1.341672E-11,-5.589079,-11.74104
'[18:15:02.064 20/01/2026]',-2.899476,-2.086739,8.281376,0.7883493,1.341672E-11,1.341672E-11,-7.731204,-11.65172
'[18:15:02.068 20/01/2026]',11.22465,-2.930498,1.205777,-3.17241,1.341672E-11,1.341672E-11,-3.127008,-9.711395
'[18:15:02.072 20/01/2026]',8.231513,3.300205,-4.979825,0.8264982,1.341672E-11,1.341672E-11,-6.254812,-2.636902
'[18:15:02.076 20/01/2026]',8.231513,3.300205,-4.979825,0.8264982,1.341672E-11,1.341672E-11,-6.254812,-2.636902
'[18:15:02.080 20/01/2026]',8.231513,3.300205,-4.979825,0.8264982,1.341672E-11,1.341672E-11,-6.254812,-2.636902
'[18:15:02.084 20/01/2026]',8.231513,3.300205,-4.979825,0.8264982,1.341672E-11,1.341672E-11,-6.254812,-2.636902
'[18:15:02.088 20/01/2026]',0.9346211,-0.4213489,1.875022,8.384473,1.341672E-11,1.341672E-11,8.005859,13.82618
'[18:15:02.092 20/01/2026]',11.05602,-3.089864,-3.885118,-1.60408,1.341672E-11,1.341672E-11,-1.90442,-3.00823
'[18:15:02.096 20/01/2026]',11.05602,-3.089864,-3.885118,-1.60408,1.341672E-11,1.341672E-11,-1.90442,-3.00823
'[18:15:02.100 20/01/2026]',11.05602,-3.089864,-3.885118,-1.60408,1.341672E-11,1.341672E-11,-1.90442,-3.00823
'[18:15:02.104 20/01/2026]',11.05602,-3.089864,-3.885118,-1.60408,1.341672E-11,1.341672E-11,-1.90442,-3.00823
'[18:15:02.108 20/01/2026]',11.67368,4.941969,6.96283,4.875515,1.341672E-11,1.341672E-11,10.29285,11.53028
'[18:15:02.112 20/01/2026]',-0.4012572,1.73656,10.12562,5.392188,1.341672E-11,1.341672E-11,11.04505,8.478681
'[18:15:02.116 20/01/2026]',-0.4012572,1.73656,10.12562,5.392188,1.341672E-11,1.341672E-11,11.04505,8.478681
'[18:15:02.120 20/01/2026]',-0.4012572,1.73656,10.12562,5.392188,1.341672E-11,1.341672E-11,11.04505,8.478681
'[18:15:02.124 20/01/2026]',-0.4012572,1.73656,10.12562,5.392188,1.341672E-11,1.341672E-11,11.04505,8.478681
'[18:15:02.128 20/01/2026]',-0.4012572,1.73656,10.12562,5.392188,1.341672E-11,1.341672E-11,11.04505,8.478681
'[18:15:02.132 20/01/2026]',-13.08644,-1.48809,6.067883,0.2686395,1.341672E-11,1.341672E-11,1.864669,-0.730327
'[18:15:02.136 20/01/2026]',-17.85851,-20.78532,-5.921111,-9.649943,1.341672E-11,1.341672E-11,-4.227802,-9.472525
'[18:15:02.140 20/01/2026]',-17.85851,-20.78532,-5.921111,-9.649943,1.341672E-11,1.341672E-11,-4.227802,-9.472525
'[18:15:02.144 20/01/2026]',-17.85851,-20.78532,-5.921111,-9.649943,1.341672E-11,1.341672E-11,-4.227802,-9.472525
'[18:15:02.148 20/01/2026]',-17.85851,-20.78532,-5.921111,-9.649943,1.341672E-11,1.341672E-11,-4.227802,-9.472525
'[18:15:02.152 20/01/2026]',-17.85851,-20.78532,-5.921111,-9.649943,1.341672E-11,1.341672E-11,-4.227802,-9.472525
'[18:15:02.156 20/01/2026]',-20.91266,-3.169957,4.345613,2.750181,1.341672E-11,1.341672E-11,1.369718,5.89299
'[18:15:02.160 20/01/2026]',2.388473,10.60696,17.45936,4.394429,1.341672E-11,1.341672E-11,17.9415,15.78738
'[18:15:02.164 20/01/2026]',-9.07729,3.319698,8.085338,-6.916044,1.341672E-11,1.341672E-11,-10.60009,-2.864241
'[18:15:02.168 20/01/2026]',-9.07729,3.319698,8.085338,-6.916044,1.341672E-11,1.341672E-11,-10.60009,-2.864241
'[18:15:02.172 20/01/2026]',-9.07729,3.319698,8.085338,-6.916044,1.341672E-11,1.341672E-11,-10.60009,-2.864241
'[18:15:02.176 20/01/2026]',-9.07729,3.319698,8.085338,-6.916044,1.341672E-11,1.341672E-11,-10.60009,-2.864241
'[18:15:02.180 20/01/2026]',-3.510437,4.957487,1.799911,4.214062,1.341672E-11,1.341672E-11,21.42056,16.38647
'[18:15:02.184 20/01/2026]',0.706991,3.855851,6.800518,4.893444,1.341672E-11,1.341672E-11,0.1564299,7.505383
'[18:15:02.188 20/01/2026]',-5.231541,-5.146697,-1.975726,4.017543,1.341672E-11,1.341672E-11,7.43539,13.26144
'[18:15:02.192 20/01/2026]',-3.252291,-5.556444,5.824119,-5.429711,1.341672E-11,1.341672E-11,-4.634861,-2.612918
'[18:15:02.196 20/01/2026]',-3.252291,-5.556444,5.824119,-5.429711,1.341672E-11,1.341672E-11,-4.634861,-2.612918
'[18:15:02.200 20/01/2026]',-3.252291,-5.556444,5.824119,-5.429711,1.341672E-11,1.341672E-11,-4.634861,-2.612918
'[18:15:02.204 20/01/2026]',3.929551,7.048063,-0.9341044,-0.9037671,1.341672E-11,1.341672E-11,1.021277,-0.9895181
'[18:15:02.208 20/01/2026]',3.929551,7.048063,-0.9341044,-0.9037671,1.341672E-11,1.341672E-11,1.021277,-0.9895181
'[18:15:02.212 20/01/2026]',3.929551,7.048063,-0.9341044,-0.9037671,1.341672E-11,1.341672E-11,1.021277,-0.9895181
'[18:15:02.216 20/01/2026]',3.929551,7.048063,-0.9341044,-0.9037671,1.341672E-11,1.341672E-11,1.021277,-0.9895181
'[18:15:02.220 20/01/2026]',3.929551,7.048063,-0.9341044,-0.9037671,1.341672E-11,1.341672E-11,1.021277,-0.9895181
'[18:15:02.224 20/01/2026]',-9.430974,6.237582,13.83678,12.62794,1.341672E-11,1.341672E-11,22.70868,21.92771
'[18:15:02.228 20/01/2026]',12.41581,6.813945,4.934047,-0.0001231956,1.341672E-11,1.341672E-11,0.8424001,-5.268484
'[18:15:02.232 20/01/2026]',0.3631436,-5.303686,-10.25506,-6.153903,1.341672E-11,1.341672E-11,-2.581409,-3.337669
'[18:15:02.236 20/01/2026]',0.3631436,-5.303686,-10.25506,-6.153903,1.341672E-11,1.341672E-11,-2.581409,-3.337669
'[18:15:02.240 20/01/2026]',0.3631436,-5.303686,-10.25506,-6.153903,1.341672E-11,1.341672E-11,-2.581409,-3.337669
'[18:15:02.244 20/01/2026]',0.3631436,-5.303686,-10.25506,-6.153903,1.341672E-11,1.341672E-11,-2.581409,-3.337669
'[18:15:02.248 20/01/2026]',16.12275,2.689146,3.457137,3.155279,1.341672E-11,1.341672E-11,-2.308747,-1.507803
'[18:15:02.252 20/01/2026]',1.728785,5.601096,5.710342,1.459162,1.341672E-11,1.341672E-11,0.6909976,2.344522
'[18:15:02.256 20/01/2026]',-2.490299,-1.654409,-7.849481,-4.841126,1.341672E-11,1.341672E-11,-6.372423,-6.235221
'[18:15:02.260 20/01/2026]',-2.490299,-1.654409,-7.849481,-4.841126,1.341672E-11,1.341672E-11,-6.372423,-6.235221
'[18:15:02.264 20/01/2026]',-2.490299,-1.654409,-7.849481,-4.841126,1.341672E-11,1.341672E-11,-6.372423,-6.235221
'[18:15:02.268 20/01/2026]',-2.490299,-1.654409,-7.849481,-4.841126,1.341672E-11,1.341672E-11,-6.372423,-6.235221
'[18:15:02.272 20/01/2026]',-12.63292,6.967796,1.358006,-0.1917968,1.341672E-11,1.341672E-11,-1.872036,0.7149603
'[18:15:02.276 20/01/2026]',11.69011,-0.2990271,2.93956,-0.8174732,1.341672E-11,1.341672E-11,4.018877,0.585718
'[18:15:02.280 20/01/2026]',-17.75155,-2.99366,-10.0113,-4.86646,1.341672E-11,1.341672E-11,-2.860732,-4.66921
'[18:15:02.284 20/01/2026]',-17.75155,-2.99366,-10.0113,-4.86646,1.341672E-11,1.341672E-11,-2.860732,-4.66921
'[18:15:02.288 20/01/2026]',-17.75155,-2.99366,-10.0113,-4.86646,1.341672E-11,1.341672E-11,-2.860732,-4.66921
'[18:15:02.292 20/01/2026]',-17.75155,-2.99366,-10.0113,-4.86646,1.341672E-11,1.341672E-11,-2.860732,-4.66921
'[18:15:02.296 20/01/2026]',9.116863,6.154799,4.511951,8.040839,1.341672E-11,1.341672E-11,3.115749,-0.9474446
'[18:15:02.300 20/01/2026]',10.17917,-5.922586,-4.828994,1.521675,1.341672E-11,1.341672E-11,-1.974232,-5.985144
'[18:15:02.304 20/01/2026]',-9.723621,3.779332,-5.261762,-10.42019,1.341672E-11,1.341672E-11,-6.121953,-4.585807
'[18:15:02.308 20/01/2026]',-9.723621,3.779332,-5.261762,-10.42019,1.341672E-11,1.341672E-11,-6.121953,-4.585807
'[18:15:02.312 20/01/2026]',-9.723621,3.779332,-5.261762,-10.42019,1.341672E-11,1.341672E-11,-6.121953,-4.585807
'[18:15:02.316 20/01/2026]',-7.117487,9.031929,5.890947,6.489078,1.341672E-11,1.341672E-11,2.537973,1.24764
'[18:15:02.320 20/01/2026]',-6.100873,7.389545,1.855627,8.169435,1.341672E-11,1.341672E-11,-2.239426,2.709418
'[18:15:02.324 20/01/2026]',13.80912,10.5977,-2.796403,-1.283402,1.341672E-11,1.341672E-11,-4.254732,2.267453
'[18:15:02.328 20/01/2026]',13.80912,10.5977,-2.796403,-1.283402,1.341672E-11,1.341672E-11,-4.254732,2.267453
'[18:15:02.332 20/01/2026]',13.80912,10.5977,-2.796403,-1.283402,1.341672E-11,1.341672E-11,-4.254732,2.267453
'[18:15:02.336 20/01/2026]',13.80912,10.5977,-2.796403,-1.283402,1.341672E-11,1.341672E-11,-4.254732,2.267453
'[18:15:02.340 20/01/2026]',13.80912,10.5977,-2.796403,-1.283402,1.341672E-11,1.341672E-11,-4.254732,2.267453
'[18:15:02.344 20/01/2026]',1.516401,8.573848,5.006523,5.728612,1.341672E-11,1.341672E-11,1.282191,-1.939405
'[18:15:02.348 20/01/2026]',-14.26553,5.005099,1.913597,5.180831,1.341672E-11,1.341672E-11,0.5942937,3.287547
'[18:15:02.352 20/01/2026]',-2.381031,1.063348,3.919625,-1.927001,1.341672E-11,1.341672E-11,-1.69681,-6.944604
'[18:15:02.356 20/01/2026]',-2.381031,1.063348,3.919625,-1.927001,1.341672E-11,1.341672E-11,-1.69681,-6.944604
'[18:15:02.360 20/01/2026]',-2.381031,1.063348,3.919625,-1.927001,1.341672E-11,1.341672E-11,-1.69681,-6.944604
'[18:15:02.364 20/01/2026]',-2.381031,1.063348,3.919625,-1.927001,1.341672E-11,1.341672E-11,-1.69681,-6.944604
'[18:15:02.368 20/01/2026]',-14.59457,-21.43918,-7.048516,-0.4591171,1.341672E-11,1.341672E-11,-5.758304,-0.6161765
'[18:15:02.372 20/01/2026]',27.04049,29.29408,6.085106,11.55576,1.341672E-11,1.341672E-11,4.203121,16.22289
'[18:15:02.376 20/01/2026]',27.04049,29.29408,6.085106,11.55576,1.341672E-11,1.341672E-11,4.203121,16.22289
'[18:15:02.380 20/01/2026]',27.04049,29.29408,6.085106,11.55576,1.341672E-11,1.341672E-11,4.203121,16.22289
'[18:15:02.384 20/01/2026]',27.04049,29.29408,6.085106,11.55576,1.341672E-11,1.341672E-11,4.203121,16.22289
'[18:15:02.388 20/01/2026]',-14.4893,-2.115963,-3.084062,-8.035263,1.341672E-11,1.341672E-11,-12.15674,-8.236147
'[18:15:02.392 20/01/2026]',2.555295,0.9099558,6.424059,6.202806,1.341672E-11,1.341672E-11,5.932678,2.849613
'[18:15:02.396 20/01/2026]',16.14867,-1.490385,4.864661,5.600894,1.341672E-11,1.341672E-11,2.405019,8.120363
'[18:15:02.400 20/01/2026]',16.14867,-1.490385,4.864661,5.600894,1.341672E-11,1.341672E-11,2.405019,8.120363
'[18:15:02.404 20/01/2026]',16.14867,-1.490385,4.864661,5.600894,1.341672E-11,1.341672E-11,2.405019,8.120363
'[18:15:02.408 20/01/2026]',16.14867,-1.490385,4.864661,5.600894,1.341672E-11,1.341672E-11,2.405019,8.120363
'[18:15:02.412 20/01/2026]',-0.1547024,-2.758121,-5.325744,-0.1264043,1.341672E-11,1.341672E-11,-2.990745,-9.984586
'[18:15:02.416 20/01/2026]',4.676805,9.394887,9.492998,11.61915,1.341672E-11,1.341672E-11,4.616456,1.163132
'[18:15:02.420 20/01/2026]',-1.060231,-4.764063,1.51959,1.089086,1.341672E-11,1.341672E-11,1.797885,3.46218
'[18:15:02.424 20/01/2026]',-1.060231,-4.764063,1.51959,1.089086,1.341672E-11,1.341672E-11,1.797885,3.46218
'[18:15:02.428 20/01/2026]',-1.060231,-4.764063,1.51959,1.089086,1.341672E-11,1.341672E-11,1.797885,3.46218
'[18:15:02.432 20/01/2026]',-1.060231,-4.764063,1.51959,1.089086,1.341672E-11,1.341672E-11,1.797885,3.46218
'[18:15:02.436 20/01/2026]',25.60674,30.19544,20.38069,10.92358,1.341672E-11,1.341672E-11,12.35592,12.48487
'[18:15:02.440 20/01/2026]',8.103401,11.5778,10.1154,11.27548,1.341672E-11,1.341672E-11,1.895725,6.768314
'[18:15:02.444 20/01/2026]',8.103401,11.5778,10.1154,11.27548,1.341672E-11,1.341672E-11,1.895725,6.768314
'[18:15:02.448 20/01/2026]',8.103401,11.5778,10.1154,11.27548,1.341672E-11,1.341672E-11,1.895725,6.768314
'[18:15:02.452 20/01/2026]',8.103401,11.5778,10.1154,11.27548,1.341672E-11,1.341672E-11,1.895725,6.768314
'[18:15:02.456 20/01/2026]',8.103401,11.5778,10.1154,11.27548,1.341672E-11,1.341672E-11,1.895725,6.768314
'[18:15:02.460 20/01/2026]',7.714762,3.103909,14.56107,9.433736,1.341672E-11,1.341672E-11,13.61236,5.5295
'[18:15:02.464 20/01/2026]',9.846593,-7.212967,-0.0461404,-0.2251389,1.341672E-11,1.341672E-11,-4.748432,-4.15171
'[18:15:02.468 20/01/2026]',5.1389,4.256447,3.050189,5.314115,1.341672E-11,1.341672E-11,14.59098,18.76735
'[18:15:02.472 20/01/2026]',5.1389,4.256447,3.050189,5.314115,1.341672E-11,1.341672E-11,14.59098,18.76735
'[18:15:02.476 20/01/2026]',5.1389,4.256447,3.050189,5.314115,1.341672E-11,1.341672E-11,14.59098,18.76735
'[18:15:02.480 20/01/2026]',5.1389,4.256447,3.050189,5.314115,1.341672E-11,1.341672E-11,14.59098,18.76735
'[18:15:02.484 20/01/2026]',-15.61411,-8.094592,-1.133557,-0.6641636,1.341672E-11,1.341672E-11,-6.215052,-4.296407
'[18:15:02.488 20/01/2026]',8.031635,-6.819792,3.830456,4.028687,1.341672E-11,1.341672E-11,-1.175972,-6.938878
'[18:15:02.492 20/01/2026]',1.150192,3.766919,4.270155,3.304122,1.341672E-11,1.341672E-11,-0.2675112,5.441898
'[18:15:02.496 20/01/2026]',1.150192,3.766919,4.270155,3.304122,1.341672E-11,1.341672E-11,-0.2675112,5.441898
'[18:15:02.500 20/01/2026]',1.150192,3.766919,4.270155,3.304122,1.341672E-11,1.341672E-11,-0.2675112,5.441898
'[18:15:02.504 20/01/2026]',1.150192,3.766919,4.270155,3.304122,1.341672E-11,1.341672E-11,-0.2675112,5.441898
'[18:15:02.508 20/01/2026]',-27.17386,-20.70374,-14.2017,-11.53924,1.341672E-11,1.341672E-11,-12.19208,-6.33742
'[18:15:02.512 20/01/2026]',22.20358,3.43281,12.66648,9.787665,1.341672E-11,1.341672E-11,4.193905,2.752507
'[18:15:02.516 20/01/2026]',22.20358,3.43281,12.66648,9.787665,1.341672E-11,1.341672E-11,4.193905,2.752507
'[18:15:02.520 20/01/2026]',22.20358,3.43281,12.66648,9.787665,1.341672E-11,1.341672E-11,4.193905,2.752507
'[18:15:02.524 20/01/2026]',22.20358,3.43281,12.66648,9.787665,1.341672E-11,1.341672E-11,4.193905,2.752507
'[18:15:02.528 20/01/2026]',-9.346669,-1.793793,0.430597,-3.513129,1.341672E-11,1.341672E-11,13.07614,11.01781
'[18:15:02.532 20/01/2026]',-11.79344,-4.114876,-7.042523,-13.33058,1.341672E-11,1.341672E-11,4.840585,0.2467137
'[18:15:02.536 20/01/2026]',2.112408,-7.00163,-7.090966,-13.83287,1.341672E-11,1.341672E-11,-0.1508819,-4.760528
'[18:15:02.540 20/01/2026]',2.112408,-7.00163,-7.090966,-13.83287,1.341672E-11,1.341672E-11,-0.1508819,-4.760528
'[18:15:02.544 20/01/2026]',2.112408,-7.00163,-7.090966,-13.83287,1.341672E-11,1.341672E-11,-0.1508819,-4.760528
'[18:15:02.548 20/01/2026]',2.112408,-7.00163,-7.090966,-13.83287,1.341672E-11,1.341672E-11,-0.1508819,-4.760528
'[18:15:02.552 20/01/2026]',-9.86276,9.730335,3.290956,3.027156,1.341672E-11,1.341672E-11,8.411017,10.09713
'[18:15:02.556 20/01/2026]',-1.576407,5.145714,3.044695,7.377085,1.341672E-11,1.341672E-11,15.33668,15.56721
'[18:15:02.560 20/01/2026]',7.657536,4.527846,4.201673,8.912053,1.341672E-11,1.341672E-11,6.383167,9.706103
'[18:15:02.564 20/01/2026]',7.657536,4.527846,4.201673,8.912053,1.341672E-11,1.341672E-11,6.383167,9.706103
'[18:15:02.568 20/01/2026]',7.657536,4.527846,4.201673,8.912053,1.341672E-11,1.341672E-11,6.383167,9.706103
'[18:15:02.572 20/01/2026]',7.657536,4.527846,4.201673,8.912053,1.341672E-11,1.341672E-11,6.383167,9.706103
'[18:15:02.576 20/01/2026]',3.058404,4.936939,8.609885,7.088326,1.341672E-11,1.341672E-11,8.818932,10.66195
'[18:15:02.580 20/01/2026]',13.60219,10.28454,7.944633,7.618101,1.341672E-11,1.341672E-11,10.41797,16.09718
'[18:15:02.584 20/01/2026]',4.395602,2.875685,2.917053,-0.9317781,1.341672E-11,1.341672E-11,-1.376696,-3.96803
'[18:15:02.588 20/01/2026]',4.395602,2.875685,2.917053,-0.9317781,1.341672E-11,1.341672E-11,-1.376696,-3.96803
'[18:15:02.592 20/01/2026]',4.395602,2.875685,2.917053,-0.9317781,1.341672E-11,1.341672E-11,-1.376696,-3.96803
'[18:15:02.596 20/01/2026]',4.395602,2.875685,2.917053,-0.9317781,1.341672E-11,1.341672E-11,-1.376696,-3.96803
'[18:15:02.600 20/01/2026]',-16.89059,-8.750462,3.698666,-0.03740095,1.341672E-11,1.341672E-11,1.585673,-4.577329
'[18:15:02.604 20/01/2026]',-18.70754,-8.219291,3.814994,1.999358,1.341672E-11,1.341672E-11,-2.081104,3.362553
'[18:15:02.608 20/01/2026]',-18.70754,-8.219291,3.814994,1.999358,1.341672E-11,1.341672E-11,-2.081104,3.362553
'[18:15:02.612 20/01/2026]',-18.70754,-8.219291,3.814994,1.999358,1.341672E-11,1.341672E-11,-2.081104,3.362553
'[18:15:02.616 20/01/2026]',-18.70754,-8.219291,3.814994,1.999358,1.341672E-11,1.341672E-11,-2.081104,3.362553
'[18:15:02.620 20/01/2026]',-18.70754,-8.219291,3.814994,1.999358,1.341672E-11,1.341672E-11,-2.081104,3.362553
'[18:15:02.624 20/01/2026]',-3.978044,-5.190372,-4.62858,-4.256684,1.341672E-11,1.341672E-11,-2.214182,-0.701369
'[18:15:02.628 20/01/2026]',2.735442,0.3497062,3.195319,6.419766,1.341672E-11,1.341672E-11,5.473101,1.751884
'[18:15:02.632 20/01/2026]',2.305948,2.038602,13.48643,-0.6749005,1.341672E-11,1.341672E-11,9.452213,5.582123
'[18:15:02.636 20/01/2026]',2.305948,2.038602,13.48643,-0.6749005,1.341672E-11,1.341672E-11,9.452213,5.582123
'[18:15:02.640 20/01/2026]',2.305948,2.038602,13.48643,-0.6749005,1.341672E-11,1.341672E-11,9.452213,5.582123
'[18:15:02.644 20/01/2026]',-21.75593,-2.702372,11.88028,1.436145,1.341672E-11,1.341672E-11,2.650738,5.436014
'[18:15:02.648 20/01/2026]',-0.1319196,-5.354792,-14.50237,-9.098995,1.341672E-11,1.341672E-11,-0.4748444,-0.669848
'[18:15:02.652 20/01/2026]',-14.95741,-5.820089,-6.005437,-11.14608,1.341672E-11,1.341672E-11,4.570853,-4.90709
'[18:15:02.656 20/01/2026]',-14.95741,-5.820089,-6.005437,-11.14608,1.341672E-11,1.341672E-11,4.570853,-4.90709
'[18:15:02.660 20/01/2026]',-14.95741,-5.820089,-6.005437,-11.14608,1.341672E-11,1.341672E-11,4.570853,-4.90709
'[18:15:02.664 20/01/2026]',-14.95741,-5.820089,-6.005437,-11.14608,1.341672E-11,1.341672E-11,4.570853,-4.90709
'[18:15:02.668 20/01/2026]',30.63196,38.07652,-0.4972743,4.169169,1.341672E-11,1.341672E-11,0.6465146,5.679901
'[18:15:02.672 20/01/2026]',4.663886,11.65032,0.9272881,5.079387,1.341672E-11,1.341672E-11,-7.131926,-7.154154
'[18:15:02.676 20/01/2026]',-21.44805,-11.92071,-8.713736,-8.396812,1.341672E-11,1.341672E-11,-22.46021,-9.445533
'[18:15:02.680 20/01/2026]',-21.44805,-11.92071,-8.713736,-8.396812,1.341672E-11,1.341672E-11,-22.46021,-9.445533
'[18:15:02.684 20/01/2026]',-21.44805,-11.92071,-8.713736,-8.396812,1.341672E-11,1.341672E-11,-22.46021,-9.445533
'[18:15:02.688 20/01/2026]',-21.44805,-11.92071,-8.713736,-8.396812,1.341672E-11,1.341672E-11,-22.46021,-9.445533
'[18:15:02.692 20/01/2026]',5.036557,3.832777,3.909562,-2.974557,1.341672E-11,1.341672E-11,5.391365,4.65642
'[18:15:02.696 20/01/2026]',-2.556594,-14.59783,-5.772068,-9.313251,1.341672E-11,1.341672E-11,14.18033,7.799829
'[18:15:02.700 20/01/2026]',-2.556594,-14.59783,-5.772068,-9.313251,1.341672E-11,1.341672E-11,14.18033,7.799829
'[18:15:02.704 20/01/2026]',-2.556594,-14.59783,-5.772068,-9.313251,1.341672E-11,1.341672E-11,14.18033,7.799829
'[18:15:02.708 20/01/2026]',-2.556594,-14.59783,-5.772068,-9.313251,1.341672E-11,1.341672E-11,14.18033,7.799829
'[18:15:02.712 20/01/2026]',-2.556594,-14.59783,-5.772068,-9.313251,1.341672E-11,1.341672E-11,14.18033,7.799829
'[18:15:02.716 20/01/2026]',-3.100954,15.37336,7.413715,7.445878,1.341672E-11,1.341672E-11,2.596012,-2.843254
'[18:15:02.720 20/01/2026]',20.48907,21.74695,11.41628,18.93502,1.341672E-11,1.341672E-11,6.558223,14.89421
'[18:15:02.724 20/01/2026]',5.857626,10.60613,5.238388,9.878443,1.341672E-11,1.341672E-11,2.870261,-1.016307
'[18:15:02.728 20/01/2026]',5.857626,10.60613,5.238388,9.878443,1.341672E-11,1.341672E-11,2.870261,-1.016307
'[18:15:02.732 20/01/2026]',5.857626,10.60613,5.238388,9.878443,1.341672E-11,1.341672E-11,2.870261,-1.016307
'[18:15:02.736 20/01/2026]',5.857626,10.60613,5.238388,9.878443,1.341672E-11,1.341672E-11,2.870261,-1.016307
'[18:15:02.740 20/01/2026]',-9.447308,5.359331,2.543643,3.29587,1.341672E-11,1.341672E-11,6.339829,3.74663
'[18:15:02.744 20/01/2026]',5.585035,-2.905854,2.719753,-0.863515,1.341672E-11,1.341672E-11,-1.710744,-0.5822931
'[18:15:02.748 20/01/2026]',5.585035,-2.905854,2.719753,-0.863515,1.341672E-11,1.341672E-11,-1.710744,-0.5822931
'[18:15:02.752 20/01/2026]',5.585035,-2.905854,2.719753,-0.863515,1.341672E-11,1.341672E-11,-1.710744,-0.5822931
'[18:15:02.756 20/01/2026]',5.585035,-2.905854,2.719753,-0.863515,1.341672E-11,1.341672E-11,-1.710744,-0.5822931
'[18:15:02.760 20/01/2026]',7.840593,0.2000213,4.54744,-0.4381921,1.341672E-11,1.341672E-11,17.49453,16.33423
'[18:15:02.764 20/01/2026]',7.840593,0.2000213,4.54744,-0.4381921,1.341672E-11,1.341672E-11,17.49453,16.33423
'[18:15:02.768 20/01/2026]',7.840593,0.2000213,4.54744,-0.4381921,1.341672E-11,1.341672E-11,17.49453,16.33423
'[18:15:02.772 20/01/2026]',7.840593,0.2000213,4.54744,-0.4381921,1.341672E-11,1.341672E-11,17.49453,16.33423
'[18:15:02.776 20/01/2026]',7.840593,0.2000213,4.54744,-0.4381921,1.341672E-11,1.341672E-11,17.49453,16.33423
'[18:15:02.780 20/01/2026]',7.840593,0.2000213,4.54744,-0.4381921,1.341672E-11,1.341672E-11,17.49453,16.33423
'[18:15:02.784 20/01/2026]',7.840593,0.2000213,4.54744,-0.4381921,1.341672E-11,1.341672E-11,17.49453,16.33423
'[18:15:02.788 20/01/2026]',16.97995,14.21463,19.40086,-6.864485,1.341672E-11,1.341672E-11,17.25271,12.00983
'[18:15:02.792 20/01/2026]',-2.492112,-9.27536,-12.62944,-4.138129,1.341672E-11,1.341672E-11,-13.44814,-17.49514
'[18:15:02.796 20/01/2026]',-24.78714,-4.572452,-7.905632,37.97535,1.341672E-11,1.341672E-11,-10.24616,-2.548078
'[18:15:02.800 20/01/2026]',-24.78714,-4.572452,-7.905632,37.97535,1.341672E-11,1.341672E-11,-10.24616,-2.548078
'[18:15:02.804 20/01/2026]',-24.78714,-4.572452,-7.905632,37.97535,1.341672E-11,1.341672E-11,-10.24616,-2.548078
'[18:15:02.808 20/01/2026]',0.2649861,-3.523245,0.6900714,-25.65136,1.341672E-11,1.341672E-11,-1.406741,-5.994524
'[18:15:02.812 20/01/2026]',0.2649861,-3.523245,0.6900714,-25.65136,1.341672E-11,1.341672E-11,-1.406741,-5.994524
'[18:15:02.816 20/01/2026]',15.64863,15.14718,11.57626,18.13612,1.341672E-11,1.341672E-11,11.6779,4.484897
'[18:15:02.820 20/01/2026]',27.27856,37.64445,9.052325,21.35067,1.341672E-11,1.341672E-11,4.875221,5.333619
'[18:15:02.824 20/01/2026]',-1.529054,3.882106,0.2673337,-1.012492,1.341672E-11,1.341672E-11,2.184318,0.702325
'[18:15:02.828 20/01/2026]',-1.529054,3.882106,0.2673337,-1.012492,1.341672E-11,1.341672E-11,2.184318,0.702325
'[18:15:02.832 20/01/2026]',-0.6887978,-4.729331,2.147039,-5.538033,1.341672E-11,1.341672E-11,-6.790091,-6.239663
'[18:15:02.836 20/01/2026]',2.547811,0.7602591,0.2533618,-14.22752,1.341672E-11,1.341672E-11,-2.908833,1.846433
'[18:15:02.840 20/01/2026]',4.544207,7.456284,3.649407,32.14526,1.341672E-11,1.341672E-11,-0.5301233,0.6748019
'[18:15:02.844 20/01/2026]',-4.53157,-4.936313,-8.340671,-28.73727,1.341672E-11,1.341672E-11,-5.607522,3.57949
'[18:15:02.848 20/01/2026]',-4.53157,-4.936313,-8.340671,-28.73727,1.341672E-11,1.341672E-11,-5.607522,3.57949
'[18:15:02.852 20/01/2026]',-4.53157,-4.936313,-8.340671,-28.73727,1.341672E-11,1.341672E-11,-5.607522,3.57949
'[18:15:02.856 20/01/2026]',-1.636285,8.716748,6.568951,9.882049,1.341672E-11,1.341672E-11,40.74858,24.16779
'[18:15:02.860 20/01/2026]',-2.07119,1.240076,-0.9548484,-1.383871,1.341672E-11,1.341672E-11,-3.189692,0.3734549
'[18:15:02.864 20/01/2026]',-2.07119,1.240076,-0.9548484,-1.383871,1.341672E-11,1.341672E-11,-3.189692,0.3734549
'[18:15:02.868 20/01/2026]',-2.07119,1.240076,-0.9548484,-1.383871,1.341672E-11,1.341672E-11,-3.189692,0.3734549
'[18:15:02.872 20/01/2026]',-2.07119,1.240076,-0.9548484,-1.383871,1.341672E-11,1.341672E-11,-3.189692,0.3734549
'[18:15:02.876 20/01/2026]',-2.07119,1.240076,-0.9548484,-1.383871,1.341672E-11,1.341672E-11,-3.189692,0.3734549
'[18:15:02.880 20/01/2026]',3.135363,-3.143956,-1.940333,-4.123172,1.341672E-11,1.341672E-11,5.227326,8.228159
'[18:15:02.884 20/01/2026]',6.030376,6.033318,9.151759,13.70712,1.341672E-11,1.341672E-11,9.097421,11.73478
'[18:15:02.888 20/01/2026]',-3.436311,-15.54399,-6.722537,-5.325061,1.341672E-11,1.341672E-11,-7.229183,-8.795857
'[18:15:02.892 20/01/2026]',-3.436311,-15.54399,-6.722537,-5.325061,1.341672E-11,1.341672E-11,-7.229183,-8.795857
'[18:15:02.896 20/01/2026]',-3.436311,-15.54399,-6.722537,-5.325061,1.341672E-11,1.341672E-11,-7.229183,-8.795857
'[18:15:02.900 20/01/2026]',-3.436311,-15.54399,-6.722537,-5.325061,1.341672E-11,1.341672E-11,-7.229183,-8.795857
'[18:15:02.904 20/01/2026]',-1.526359,-1.881127,-1.599226,-3.308517,1.341672E-11,1.341672E-11,2.408505,-10.86898
'[18:15:02.908 20/01/2026]',-0.8499889,0.02751282,-5.636884,1.784015,1.341672E-11,1.341672E-11,-2.641099,3.599859
'[18:15:02.912 20/01/2026]',-0.8499889,0.02751282,-5.636884,1.784015,1.341672E-11,1.341672E-11,-2.641099,3.599859
'[18:15:02.916 20/01/2026]',-0.8499889,0.02751282,-5.636884,1.784015,1.341672E-11,1.341672E-11,-2.641099,3.599859
'[18:15:02.920 20/01/2026]',-0.8499889,0.02751282,-5.636884,1.784015,1.341672E-11,1.341672E-11,-2.641099,3.599859
'[18:15:02.924 20/01/2026]',5.303475,4.231375,2.388119,7.18584,1.341672E-11,1.341672E-11,4.820652,2.119817
'[18:15:02.928 20/01/2026]',10.97743,11.85492,15.64619,17.20876,1.341672E-11,1.341672E-11,19.04354,20.05478
'[18:15:02.932 20/01/2026]',-11.12625,-9.545501,-13.62921,-12.85423,1.341672E-11,1.341672E-11,-11.25932,-18.64386
'[18:15:02.936 20/01/2026]',-11.12625,-9.545501,-13.62921,-12.85423,1.341672E-11,1.341672E-11,-11.25932,-18.64386
'[18:15:02.940 20/01/2026]',-11.12625,-9.545501,-13.62921,-12.85423,1.341672E-11,1.341672E-11,-11.25932,-18.64386
'[18:15:02.944 20/01/2026]',-11.12625,-9.545501,-13.62921,-12.85423,1.341672E-11,1.341672E-11,-11.25932,-18.64386
'[18:15:02.948 20/01/2026]',2.602308,5.52683,0.5856212,6.101696,1.341672E-11,1.341672E-11,7.947806,3.468906
'[18:15:02.952 20/01/2026]',-1.780432,-0.6256993,-2.073694,-2.407639,1.341672E-11,1.341672E-11,1.605428,2.226547
'[18:15:02.956 20/01/2026]',0.4355447,5.576139,-10.40512,-12.35307,1.341672E-11,1.341672E-11,0.2965013,0.04844445
'[18:15:02.960 20/01/2026]',0.4355447,5.576139,-10.40512,-12.35307,1.341672E-11,1.341672E-11,0.2965013,0.04844445
'[18:15:02.964 20/01/2026]',0.4355447,5.576139,-10.40512,-12.35307,1.341672E-11,1.341672E-11,0.2965013,0.04844445
'[18:15:02.968 20/01/2026]',0.4355447,5.576139,-10.40512,-12.35307,1.341672E-11,1.341672E-11,0.2965013,0.04844445
'[18:15:02.972 20/01/2026]',32.26538,12.20358,-11.73108,-9.803271,1.341672E-11,1.341672E-11,-20.8767,-23.13069
'[18:15:02.976 20/01/2026]',-2.782296,-34.29564,-11.48835,-10.60198,1.341672E-11,1.341672E-11,1.95173,-5.233314
'[18:15:02.980 20/01/2026]',-2.782296,-34.29564,-11.48835,-10.60198,1.341672E-11,1.341672E-11,1.95173,-5.233314
'[18:15:02.984 20/01/2026]',-2.782296,-34.29564,-11.48835,-10.60198,1.341672E-11,1.341672E-11,1.95173,-5.233314
'[18:15:02.988 20/01/2026]',-2.782296,-34.29564,-11.48835,-10.60198,1.341672E-11,1.341672E-11,1.95173,-5.233314
'[18:15:02.992 20/01/2026]',-2.782296,-34.29564,-11.48835,-10.60198,1.341672E-11,1.341672E-11,1.95173,-5.233314
'[18:15:02.996 20/01/2026]',26.83002,34.29691,-9.392564,-0.3309374,1.341672E-11,1.341672E-11,-12.30149,-24.27002
'[18:15:03.000 20/01/2026]',6.316999,-11.67673,8.424632,3.982726,1.341672E-11,1.341672E-11,-6.818344,-14.45248
'[18:15:03.004 20/01/2026]',3.445333,12.19397,5.082697,-0.1893238,1.341672E-11,1.341672E-11,10.61591,5.305984
'[18:15:03.008 20/01/2026]',3.445333,12.19397,5.082697,-0.1893238,1.341672E-11,1.341672E-11,10.61591,5.305984
'[18:15:03.012 20/01/2026]',3.445333,12.19397,5.082697,-0.1893238,1.341672E-11,1.341672E-11,10.61591,5.305984
'[18:15:03.016 20/01/2026]',3.445333,12.19397,5.082697,-0.1893238,1.341672E-11,1.341672E-11,10.61591,5.305984
'[18:15:03.020 20/01/2026]',-5.636617,-10.04105,-7.947531,-5.175771,1.341672E-11,1.341672E-11,-3.818134,7.557837
'[18:15:03.024 20/01/2026]',-10.86084,-17.4373,-14.52844,-2.982692,1.341672E-11,1.341672E-11,-3.872744,5.561723
'[18:15:03.028 20/01/2026]',6.15125,5.305317,15.30372,12.2034,1.341672E-11,1.341672E-11,13.51227,19.21241
'[18:15:03.032 20/01/2026]',6.15125,5.305317,15.30372,12.2034,1.341672E-11,1.341672E-11,13.51227,19.21241
'[18:15:03.036 20/01/2026]',6.15125,5.305317,15.30372,12.2034,1.341672E-11,1.341672E-11,13.51227,19.21241
'[18:15:03.040 20/01/2026]',6.15125,5.305317,15.30372,12.2034,1.341672E-11,1.341672E-11,13.51227,19.21241
'[18:15:03.044 20/01/2026]',2.706193,0.1724619,-0.9543659,-1.332746,1.341672E-11,1.341672E-11,-5.91153,-5.524892
'[18:15:03.048 20/01/2026]',-5.458141,-15.39091,2.110262,3.87262,1.341672E-11,1.341672E-11,-9.990049,-9.766766
'[18:15:03.052 20/01/2026]',1.824237,-35.03172,-20.5371,-19.38281,1.341672E-11,1.341672E-11,-8.634709,-12.93497
'[18:15:03.056 20/01/2026]',1.824237,-35.03172,-20.5371,-19.38281,1.341672E-11,1.341672E-11,-8.634709,-12.93497
'[18:15:03.060 20/01/2026]',1.824237,-35.03172,-20.5371,-19.38281,1.341672E-11,1.341672E-11,-8.634709,-12.93497
'[18:15:03.064 20/01/2026]',1.824237,-35.03172,-20.5371,-19.38281,1.341672E-11,1.341672E-11,-8.634709,-12.93497
'[18:15:03.068 20/01/2026]',24.26936,31.58082,23.49494,14.90734,1.341672E-11,1.341672E-11,-9.39859,-8.251251
'[18:15:03.072 20/01/2026]',-12.96959,-10.49528,-5.145417,-3.227623,1.341672E-11,1.341672E-11,2.079406,0.5159114
'[18:15:03.076 20/01/2026]',-12.96959,-10.49528,-5.145417,-3.227623,1.341672E-11,1.341672E-11,2.079406,0.5159114
'[18:15:03.080 20/01/2026]',-12.96959,-10.49528,-5.145417,-3.227623,1.341672E-11,1.341672E-11,2.079406,0.5159114
'[18:15:03.084 20/01/2026]',-12.96959,-10.49528,-5.145417,-3.227623,1.341672E-11,1.341672E-11,2.079406,0.5159114
'[18:15:03.088 20/01/2026]',-12.96959,-10.49528,-5.145417,-3.227623,1.341672E-11,1.341672E-11,2.079406,0.5159114
'[18:15:03.092 20/01/2026]',2.478132,-10.56979,-2.393408,-0.1397276,1.341672E-11,1.341672E-11,-3.332504,-2.743681
'[18:15:03.096 20/01/2026]',-4.840886,-0.1181079,6.432868,14.21025,1.341672E-11,1.341672E-11,17.1825,17.5972
'[18:15:03.100 20/01/2026]',6.27427,-4.349001,3.320106,-3.808021,1.341672E-11,1.341672E-11,-4.182259,-1.556579
'[18:15:03.104 20/01/2026]',6.27427,-4.349001,3.320106,-3.808021,1.341672E-11,1.341672E-11,-4.182259,-1.556579
'[18:15:03.108 20/01/2026]',6.27427,-4.349001,3.320106,-3.808021,1.341672E-11,1.341672E-11,-4.182259,-1.556579
'[18:15:03.112 20/01/2026]',-11.13116,-6.06872,1.062476,3.915963,1.341672E-11,1.341672E-11,-2.342332,0.09687214
'[18:15:03.116 20/01/2026]',-7.156275,-0.05295658,7.266684,4.675532,1.341672E-11,1.341672E-11,7.806914,6.209622
'[18:15:03.120 20/01/2026]',3.77211,5.339445,0.6503614,0.2753613,1.341672E-11,1.341672E-11,-3.805131,-11.69951
'[18:15:03.124 20/01/2026]',3.77211,5.339445,0.6503614,0.2753613,1.341672E-11,1.341672E-11,-3.805131,-11.69951
'[18:15:03.128 20/01/2026]',3.77211,5.339445,0.6503614,0.2753613,1.341672E-11,1.341672E-11,-3.805131,-11.69951
'[18:15:03.132 20/01/2026]',3.77211,5.339445,0.6503614,0.2753613,1.341672E-11,1.341672E-11,-3.805131,-11.69951
'[18:15:03.136 20/01/2026]',9.210112,3.477425,1.305503,5.085247,1.341672E-11,1.341672E-11,6.488117,8.547357
'[18:15:03.140 20/01/2026]',-1.652064,-2.532249,-8.524154,2.303631,1.341672E-11,1.341672E-11,4.839655,7.03709
'[18:15:03.144 20/01/2026]',-1.652064,-2.532249,-8.524154,2.303631,1.341672E-11,1.341672E-11,4.839655,7.03709
'[18:15:03.148 20/01/2026]',-1.652064,-2.532249,-8.524154,2.303631,1.341672E-11,1.341672E-11,4.839655,7.03709
'[18:15:03.152 20/01/2026]',-1.652064,-2.532249,-8.524154,2.303631,1.341672E-11,1.341672E-11,4.839655,7.03709
'[18:15:03.156 20/01/2026]',-1.652064,-2.532249,-8.524154,2.303631,1.341672E-11,1.341672E-11,4.839655,7.03709
'[18:15:03.160 20/01/2026]',-14.05511,-1.648235,7.083409,0.1019606,1.341672E-11,1.341672E-11,-4.221865,-2.54688
'[18:15:03.164 20/01/2026]',13.52813,-6.748112,6.330131,-5.83564,1.341672E-11,1.341672E-11,13.40995,10.67647
'[18:15:03.168 20/01/2026]',2.018656,-5.097422,-8.979578,-13.95197,1.341672E-11,1.341672E-11,1.171342,-0.4290925
'[18:15:03.172 20/01/2026]',2.018656,-5.097422,-8.979578,-13.95197,1.341672E-11,1.341672E-11,1.171342,-0.4290925
'[18:15:03.176 20/01/2026]',2.018656,-5.097422,-8.979578,-13.95197,1.341672E-11,1.341672E-11,1.171342,-0.4290925
'[18:15:03.180 20/01/2026]',2.018656,-5.097422,-8.979578,-13.95197,1.341672E-11,1.341672E-11,1.171342,-0.4290925
'[18:15:03.184 20/01/2026]',-8.805919,4.105171,2.011368,0.241609,1.341672E-11,1.341672E-11,-3.33339,-8.080351
'[18:15:03.188 20/01/2026]',17.37731,10.01242,-2.460039,17.23887,1.341672E-11,1.341672E-11,4.973775,6.159919
'[18:15:03.192 20/01/2026]',-5.290157,-7.763501,-1.081821,-0.5136513,1.341672E-11,1.341672E-11,-5.249993,5.914595
'[18:15:03.196 20/01/2026]',-5.290157,-7.763501,-1.081821,-0.5136513,1.341672E-11,1.341672E-11,-5.249993,5.914595
'[18:15:03.200 20/01/2026]',-5.290157,-7.763501,-1.081821,-0.5136513,1.341672E-11,1.341672E-11,-5.249993,5.914595
'[18:15:03.204 20/01/2026]',6.68848,11.23079,6.063664,0.4768903,1.341672E-11,1.341672E-11,8.20364,5.714782
'[18:15:03.208 20/01/2026]',-3.395447,-7.044396,-9.100296,-9.493174,1.341672E-11,1.341672E-11,-8.696534,-8.383403
'[18:15:03.212 20/01/2026]',-3.395447,-7.044396,-9.100296,-9.493174,1.341672E-11,1.341672E-11,-8.696534,-8.383403
'[18:15:03.216 20/01/2026]',-3.395447,-7.044396,-9.100296,-9.493174,1.341672E-11,1.341672E-11,-8.696534,-8.383403
'[18:15:03.220 20/01/2026]',-3.395447,-7.044396,-9.100296,-9.493174,1.341672E-11,1.341672E-11,-8.696534,-8.383403
'[18:15:03.224 20/01/2026]',-3.395447,-7.044396,-9.100296,-9.493174,1.341672E-11,1.341672E-11,-8.696534,-8.383403
'[18:15:03.228 20/01/2026]',3.264432,0.6031738,-4.305705,-2.152296,1.341672E-11,1.341672E-11,-3.87245,-3.922678
'[18:15:03.232 20/01/2026]',-5.354546,-1.283359,4.092694,-2.691506,1.341672E-11,1.341672E-11,0.9250593,-0.439572
'[18:15:03.236 20/01/2026]',2.140468,3.033199,-0.7562273,-9.853621,1.341672E-11,1.341672E-11,0.1937464,-3.095734
'[18:15:03.240 20/01/2026]',2.140468,3.033199,-0.7562273,-9.853621,1.341672E-11,1.341672E-11,0.1937464,-3.095734
'[18:15:03.244 20/01/2026]',2.140468,3.033199,-0.7562273,-9.853621,1.341672E-11,1.341672E-11,0.1937464,-3.095734
'[18:15:03.248 20/01/2026]',2.140468,3.033199,-0.7562273,-9.853621,1.341672E-11,1.341672E-11,0.1937464,-3.095734
'[18:15:03.252 20/01/2026]',6.993983,2.234799,-5.1443,-7.879953,1.341672E-11,1.341672E-11,-6.472008,-7.060925
'[18:15:03.256 20/01/2026]',-22.08105,-13.24259,-10.15558,-5.648688,1.341672E-11,1.341672E-11,-9.05464,-14.39592
'[18:15:03.260 20/01/2026]',-7.32975,-5.659464,1.040261,-7.014925,1.341672E-11,1.341672E-11,-9.430979,-8.394733
'[18:15:03.264 20/01/2026]',-7.32975,-5.659464,1.040261,-7.014925,1.341672E-11,1.341672E-11,-9.430979,-8.394733
'[18:15:03.268 20/01/2026]',-7.32975,-5.659464,1.040261,-7.014925,1.341672E-11,1.341672E-11,-9.430979,-8.394733
'[18:15:03.272 20/01/2026]',-7.32975,-5.659464,1.040261,-7.014925,1.341672E-11,1.341672E-11,-9.430979,-8.394733
'[18:15:03.276 20/01/2026]',12.51548,9.304824,1.396295,3.543067,1.341672E-11,1.341672E-11,-5.057612,-0.02265397
'[18:15:03.280 20/01/2026]',-19.385,-3.589751,-2.722749,1.744591,1.341672E-11,1.341672E-11,-2.149164,-0.1538182
'[18:15:03.284 20/01/2026]',-46.73409,-54.01482,-49.41419,-50.13348,1.341672E-11,1.341672E-11,-46.44149,-46.56866
'[18:15:03.288 20/01/2026]',-46.73409,-54.01482,-49.41419,-50.13348,1.341672E-11,1.341672E-11,-46.44149,-46.56866
'[18:15:03.292 20/01/2026]',-46.73409,-54.01482,-49.41419,-50.13348,1.341672E-11,1.341672E-11,-46.44149,-46.56866
'[18:15:03.296 20/01/2026]',-46.73409,-54.01482,-49.41419,-50.13348,1.341672E-11,1.341672E-11,-46.44149,-46.56866
'[18:15:03.300 20/01/2026]',16.94231,13.22657,6.653468,5.743432,1.341672E-11,1.341672E-11,20.31186,18.53575
'[18:15:03.304 20/01/2026]',-28.42352,-25.1969,-23.41885,-21.60352,1.341672E-11,1.341672E-11,-25.79391,-26.92031
'[18:15:03.308 20/01/2026]',-28.42352,-25.1969,-23.41885,-21.60352,1.341672E-11,1.341672E-11,-25.79391,-26.92031
'[18:15:03.312 20/01/2026]',-28.42352,-25.1969,-23.41885,-21.60352,1.341672E-11,1.341672E-11,-25.79391,-26.92031
'[18:15:03.316 20/01/2026]',-28.42352,-25.1969,-23.41885,-21.60352,1.341672E-11,1.341672E-11,-25.79391,-26.92031
'[18:15:03.320 20/01/2026]',-28.42352,-25.1969,-23.41885,-21.60352,1.341672E-11,1.341672E-11,-25.79391,-26.92031
'[18:15:03.324 20/01/2026]',-58.5724,-50.89206,-57.78292,-51.38455,1.341672E-11,1.341672E-11,-53.77927,-56.12296
'[18:15:03.328 20/01/2026]',-34.22143,-50.43396,-44.11325,-45.52572,1.341672E-11,1.341672E-11,-42.91089,-39.19588
'[18:15:03.332 20/01/2026]',-31.8518,-34.84465,-38.6132,-46.69988,1.341672E-11,1.341672E-11,-43.90683,-48.53479
'[18:15:03.336 20/01/2026]',-31.8518,-34.84465,-38.6132,-46.69988,1.341672E-11,1.341672E-11,-43.90683,-48.53479
'[18:15:03.340 20/01/2026]',-31.8518,-34.84465,-38.6132,-46.69988,1.341672E-11,1.341672E-11,-43.90683,-48.53479
'[18:15:03.344 20/01/2026]',-31.8518,-34.84465,-38.6132,-46.69988,1.341672E-11,1.341672E-11,-43.90683,-48.53479
'[18:15:03.348 20/01/2026]',-2.385626,-2.853785,-1.6319,-5.593174,1.341672E-11,1.341672E-11,-3.499335,-2.820197
'[18:15:03.352 20/01/2026]',24.6349,6.798806,12.62305,18.13207,1.341672E-11,1.341672E-11,4.663093,14.99217
'[18:15:03.356 20/01/2026]',14.61148,7.669146,21.44848,15.7468,1.341672E-11,1.341672E-11,22.06392,11.39013
'[18:15:03.360 20/01/2026]',14.61148,7.669146,21.44848,15.7468,1.341672E-11,1.341672E-11,22.06392,11.39013
'[18:15:03.364 20/01/2026]',14.61148,7.669146,21.44848,15.7468,1.341672E-11,1.341672E-11,22.06392,11.39013
'[18:15:03.368 20/01/2026]',14.61148,7.669146,21.44848,15.7468,1.341672E-11,1.341672E-11,22.06392,11.39013
'[18:15:03.372 20/01/2026]',15.36213,32.02911,16.22376,26.11501,1.341672E-11,1.341672E-11,19.53121,25.69127
'[18:15:03.376 20/01/2026]',15.56403,10.25183,14.70943,15.65558,1.341672E-11,1.341672E-11,10.92018,16.02967
'[18:15:03.380 20/01/2026]',-10.92021,5.77934,7.615359,5.789854,1.341672E-11,1.341672E-11,14.73664,3.288142
'[18:15:03.384 20/01/2026]',-10.92021,5.77934,7.615359,5.789854,1.341672E-11,1.341672E-11,14.73664,3.288142
'[18:15:03.388 20/01/2026]',-10.92021,5.77934,7.615359,5.789854,1.341672E-11,1.341672E-11,14.73664,3.288142
'[18:15:03.392 20/01/2026]',17.75062,8.403548,17.49792,11.03475,1.341672E-11,1.341672E-11,8.619102,7.251122
'[18:15:03.396 20/01/2026]',4.691255,0.1959168,0.1873883,3.237728,1.341672E-11,1.341672E-11,4.67597,6.168801
'[18:15:03.400 20/01/2026]',4.691255,0.1959168,0.1873883,3.237728,1.341672E-11,1.341672E-11,4.67597,6.168801
'[18:15:03.404 20/01/2026]',4.691255,0.1959168,0.1873883,3.237728,1.341672E-11,1.341672E-11,4.67597,6.168801
'[18:15:03.408 20/01/2026]',4.691255,0.1959168,0.1873883,3.237728,1.341672E-11,1.341672E-11,4.67597,6.168801
'[18:15:03.412 20/01/2026]',4.691255,0.1959168,0.1873883,3.237728,1.341672E-11,1.341672E-11,4.67597,6.168801
'[18:15:03.416 20/01/2026]',11.15768,6.186542,6.209264,9.096807,1.341672E-11,1.341672E-11,-1.199726,6.005318
'[18:15:03.420 20/01/2026]',20.467,22.91729,12.61338,18.41386,1.341672E-11,1.341672E-11,10.41771,12.10137
'[18:15:03.424 20/01/2026]',7.959065,13.98033,9.321639,9.144952,1.341672E-11,1.341672E-11,9.905495,11.34922
'[18:15:03.428 20/01/2026]',7.959065,13.98033,9.321639,9.144952,1.341672E-11,1.341672E-11,9.905495,11.34922
'[18:15:03.432 20/01/2026]',7.959065,13.98033,9.321639,9.144952,1.341672E-11,1.341672E-11,9.905495,11.34922
'[18:15:03.436 20/01/2026]',7.959065,13.98033,9.321639,9.144952,1.341672E-11,1.341672E-11,9.905495,11.34922
'[18:15:03.440 20/01/2026]',9.165429,17.24718,1.69943,11.81975,1.341672E-11,1.341672E-11,10.24387,12.77459
'[18:15:03.444 20/01/2026]',14.03013,7.051629,15.27373,11.31049,1.341672E-11,1.341672E-11,12.67925,14.11324
'[18:15:03.448 20/01/2026]',14.03013,7.051629,15.27373,11.31049,1.341672E-11,1.341672E-11,12.67925,14.11324
'[18:15:03.452 20/01/2026]',14.03013,7.051629,15.27373,11.31049,1.341672E-11,1.341672E-11,12.67925,14.11324
'[18:15:03.456 20/01/2026]',14.03013,7.051629,15.27373,11.31049,1.341672E-11,1.341672E-11,12.67925,14.11324
'[18:15:03.460 20/01/2026]',-1.51463,7.174716,10.66127,2.412399,1.341672E-11,1.341672E-11,2.787859,6.684591
'[18:15:03.464 20/01/2026]',9.523074,2.503876,-1.082804,-3.667715,1.341672E-11,1.341672E-11,1.043009,2.854365
'[18:15:03.468 20/01/2026]',13.44196,7.559492,5.396095,3.570095,1.341672E-11,1.341672E-11,4.713058,0.2504881
'[18:15:03.472 20/01/2026]',13.44196,7.559492,5.396095,3.570095,1.341672E-11,1.341672E-11,4.713058,0.2504881
'[18:15:03.476 20/01/2026]',13.44196,7.559492,5.396095,3.570095,1.341672E-11,1.341672E-11,4.713058,0.2504881
'[18:15:03.480 20/01/2026]',13.44196,7.559492,5.396095,3.570095,1.341672E-11,1.341672E-11,4.713058,0.2504881
'[18:15:03.484 20/01/2026]',13.44196,7.559492,5.396095,3.570095,1.341672E-11,1.341672E-11,4.713058,0.2504881
'[18:15:03.488 20/01/2026]',4.924915,12.69427,6.59202,11.48401,1.341672E-11,1.341672E-11,3.712216,5.913002
'[18:15:03.492 20/01/2026]',11.20249,8.264858,5.766142,9.656662,1.341672E-11,1.341672E-11,10.16617,9.568123
'[18:15:03.496 20/01/2026]',-0.5815375,-8.666681,-7.710654,-11.9065,1.341672E-11,1.341672E-11,-10.3241,-11.28713
'[18:15:03.500 20/01/2026]',-0.5815375,-8.666681,-7.710654,-11.9065,1.341672E-11,1.341672E-11,-10.3241,-11.28713
'[18:15:03.504 20/01/2026]',-0.5815375,-8.666681,-7.710654,-11.9065,1.341672E-11,1.341672E-11,-10.3241,-11.28713
'[18:15:03.508 20/01/2026]',11.63566,3.171699,6.529885,10.00575,1.341672E-11,1.341672E-11,17.87584,11.73933
'[18:15:03.512 20/01/2026]',27.91932,9.519656,6.637145,4.203831,1.341672E-11,1.341672E-11,0.2694388,-2.2187
'[18:15:03.516 20/01/2026]',-0.7772525,-3.945939,3.214239,1.129563,1.341672E-11,1.341672E-11,9.370409,11.4946
'[18:15:03.520 20/01/2026]',-0.7772525,-3.945939,3.214239,1.129563,1.341672E-11,1.341672E-11,9.370409,11.4946
'[18:15:03.524 20/01/2026]',-0.7772525,-3.945939,3.214239,1.129563,1.341672E-11,1.341672E-11,9.370409,11.4946
'[18:15:03.528 20/01/2026]',-0.7772525,-3.945939,3.214239,1.129563,1.341672E-11,1.341672E-11,9.370409,11.4946
'[18:15:03.532 20/01/2026]',2.337805,-3.9478,3.276097,3.272342,1.341672E-11,1.341672E-11,-3.197124,7.981782
'[18:15:03.536 20/01/2026]',2.337805,-3.9478,3.276097,3.272342,1.341672E-11,1.341672E-11,-3.197124,7.981782
'[18:15:03.540 20/01/2026]',-8.156075,-4.751223,-7.412642,-7.720029,1.341672E-11,1.341672E-11,-6.551752,-7.618709
'[18:15:03.544 20/01/2026]',2.004853,9.839429,7.305581,11.56193,1.341672E-11,1.341672E-11,15.27102,17.36653
'[18:15:03.548 20/01/2026]',2.004853,9.839429,7.305581,11.56193,1.341672E-11,1.341672E-11,15.27102,17.36653
'[18:15:03.552 20/01/2026]',2.004853,9.839429,7.305581,11.56193,1.341672E-11,1.341672E-11,15.27102,17.36653
'[18:15:03.556 20/01/2026]',10.24527,3.383346,7.030474,4.033359,1.341672E-11,1.341672E-11,9.979918,4.363982
'[18:15:03.560 20/01/2026]',6.411742,1.13769,3.825858,4.302197,1.341672E-11,1.341672E-11,0.8078018,1.395467
'[18:15:03.564 20/01/2026]',6.411742,1.13769,3.825858,4.302197,1.341672E-11,1.341672E-11,0.8078018,1.395467
'[18:15:03.568 20/01/2026]',6.411742,1.13769,3.825858,4.302197,1.341672E-11,1.341672E-11,0.8078018,1.395467
'[18:15:03.572 20/01/2026]',6.411742,1.13769,3.825858,4.302197,1.341672E-11,1.341672E-11,0.8078018,1.395467
'[18:15:03.576 20/01/2026]',6.411742,1.13769,3.825858,4.302197,1.341672E-11,1.341672E-11,0.8078018,1.395467
'[18:15:03.580 20/01/2026]',7.70963,10.5012,-3.331442,3.086857,1.341672E-11,1.341672E-11,2.070923,4.065907
'[18:15:03.584 20/01/2026]',5.801008,13.12192,7.041558,11.2597,1.341672E-11,1.341672E-11,-3.689413,-0.9852979
'[18:15:03.588 20/01/2026]',-4.158598,-0.4936666,0.08868877,-2.93697,1.341672E-11,1.341672E-11,-7.235899,-8.188897
'[18:15:03.592 20/01/2026]',-4.158598,-0.4936666,0.08868877,-2.93697,1.341672E-11,1.341672E-11,-7.235899,-8.188897
'[18:15:03.596 20/01/2026]',-4.158598,-0.4936666,0.08868877,-2.93697,1.341672E-11,1.341672E-11,-7.235899,-8.188897
'[18:15:03.600 20/01/2026]',-4.158598,-0.4936666,0.08868877,-2.93697,1.341672E-11,1.341672E-11,-7.235899,-8.188897
'[18:15:03.604 20/01/2026]',-5.650557,-1.100483,-2.392429,1.021882,1.341672E-11,1.341672E-11,-5.986532,-7.020741
'[18:15:03.608 20/01/2026]',13.61534,0.4542128,1.610832,5.764167,1.341672E-11,1.341672E-11,-3.298325,-2.286756
'[18:15:03.612 20/01/2026]',2.992323,5.318891,5.612432,2.281672,1.341672E-11,1.341672E-11,0.6006433,-3.796347
'[18:15:03.616 20/01/2026]',2.992323,5.318891,5.612432,2.281672,1.341672E-11,1.341672E-11,0.6006433,-3.796347
'[18:15:03.620 20/01/2026]',2.992323,5.318891,5.612432,2.281672,1.341672E-11,1.341672E-11,0.6006433,-3.796347
'[18:15:03.624 20/01/2026]',2.992323,5.318891,5.612432,2.281672,1.341672E-11,1.341672E-11,0.6006433,-3.796347
'[18:15:03.628 20/01/2026]',0.3458815,-0.9827979,1.067198,-0.5442054,1.341672E-11,1.341672E-11,1.969243,2.85624
'[18:15:03.632 20/01/2026]',18.16486,3.722979,3.368258,7.456517,1.341672E-11,1.341672E-11,12.24401,14.37581
'[18:15:03.636 20/01/2026]',18.16486,3.722979,3.368258,7.456517,1.341672E-11,1.341672E-11,12.24401,14.37581
'[18:15:03.640 20/01/2026]',18.16486,3.722979,3.368258,7.456517,1.341672E-11,1.341672E-11,12.24401,14.37581
'[18:15:03.644 20/01/2026]',18.16486,3.722979,3.368258,7.456517,1.341672E-11,1.341672E-11,12.24401,14.37581
'[18:15:03.648 20/01/2026]',10.52007,-4.672307,-3.613824,-7.746569,1.341672E-11,1.341672E-11,-9.791126,-8.101936
'[18:15:03.652 20/01/2026]',21.30609,3.454753,8.624135,10.50939,1.341672E-11,1.341672E-11,10.83041,9.748406
'[18:15:03.656 20/01/2026]',-7.843443,-1.564099,-2.692365,-6.668232,1.341672E-11,1.341672E-11,-0.6898568,-5.839519
'[18:15:03.660 20/01/2026]',-7.843443,-1.564099,-2.692365,-6.668232,1.341672E-11,1.341672E-11,-0.6898568,-5.839519
'[18:15:03.664 20/01/2026]',-7.843443,-1.564099,-2.692365,-6.668232,1.341672E-11,1.341672E-11,-0.6898568,-5.839519
'[18:15:03.668 20/01/2026]',-7.843443,-1.564099,-2.692365,-6.668232,1.341672E-11,1.341672E-11,-0.6898568,-5.839519
'[18:15:03.672 20/01/2026]',15.17985,9.110961,6.758703,7.922275,1.341672E-11,1.341672E-11,2.483232,6.168885
'[18:15:03.676 20/01/2026]',7.600905,-3.863606,-7.41998,-1.397565,1.341672E-11,1.341672E-11,-3.276766,0.5310892
'[18:15:03.680 20/01/2026]',-0.0775839,6.208597,7.837642,2.502461,1.341672E-11,1.341672E-11,4.733207,3.697242
'[18:15:03.684 20/01/2026]',-0.0775839,6.208597,7.837642,2.502461,1.341672E-11,1.341672E-11,4.733207,3.697242
'[18:15:03.688 20/01/2026]',-0.0775839,6.208597,7.837642,2.502461,1.341672E-11,1.341672E-11,4.733207,3.697242
'[18:15:03.692 20/01/2026]',-0.0775839,6.208597,7.837642,2.502461,1.341672E-11,1.341672E-11,4.733207,3.697242
'[18:15:03.696 20/01/2026]',-2.810961,4.285388,-0.6118918,1.021687,1.341672E-11,1.341672E-11,1.655628,-2.153452
'[18:15:03.700 20/01/2026]',16.72505,-1.664346,-4.340514,2.738033,1.341672E-11,1.341672E-11,-1.543026,-0.9361554
'[18:15:03.704 20/01/2026]',16.72505,-1.664346,-4.340514,2.738033,1.341672E-11,1.341672E-11,-1.543026,-0.9361554
'[18:15:03.708 20/01/2026]',16.72505,-1.664346,-4.340514,2.738033,1.341672E-11,1.341672E-11,-1.543026,-0.9361554
'[18:15:03.712 20/01/2026]',16.72505,-1.664346,-4.340514,2.738033,1.341672E-11,1.341672E-11,-1.543026,-0.9361554
'[18:15:03.716 20/01/2026]',16.72505,-1.664346,-4.340514,2.738033,1.341672E-11,1.341672E-11,-1.543026,-0.9361554
'[18:15:03.720 20/01/2026]',-8.169086,-1.625456,7.529887,5.923094,1.341672E-11,1.341672E-11,10.93585,7.80557
'[18:15:03.724 20/01/2026]',10.02364,-3.083568,0.2030249,-7.043329,1.341672E-11,1.341672E-11,-0.4274359,0.6373852
'[18:15:03.728 20/01/2026]',0.8900251,1.866438,1.955261,-2.933641,1.341672E-11,1.341672E-11,11.12883,8.095384
'[18:15:03.732 20/01/2026]',0.8900251,1.866438,1.955261,-2.933641,1.341672E-11,1.341672E-11,11.12883,8.095384
'[18:15:03.736 20/01/2026]',0.8900251,1.866438,1.955261,-2.933641,1.341672E-11,1.341672E-11,11.12883,8.095384
'[18:15:03.740 20/01/2026]',0.8900251,1.866438,1.955261,-2.933641,1.341672E-11,1.341672E-11,11.12883,8.095384
'[18:15:03.744 20/01/2026]',-5.748707,-2.023078,1.007059,-0.7354274,1.341672E-11,1.341672E-11,-3.494545,-1.899853
'[18:15:03.748 20/01/2026]',2.479209,4.611423,7.915035,14.60123,1.341672E-11,1.341672E-11,6.947894,12.62336
'[18:15:03.752 20/01/2026]',-1.38852,-3.235743,-2.475691,0.9056272,1.341672E-11,1.341672E-11,-5.19903,-2.509274
'[18:15:03.756 20/01/2026]',-1.38852,-3.235743,-2.475691,0.9056272,1.341672E-11,1.341672E-11,-5.19903,-2.509274
'[18:15:03.760 20/01/2026]',-1.38852,-3.235743,-2.475691,0.9056272,1.341672E-11,1.341672E-11,-5.19903,-2.509274
'[18:15:03.764 20/01/2026]',-1.38852,-3.235743,-2.475691,0.9056272,1.341672E-11,1.341672E-11,-5.19903,-2.509274
'[18:15:03.768 20/01/2026]',10.21349,-6.604457,-6.792775,-3.010365,1.341672E-11,1.341672E-11,5.24558,2.174998
'[18:15:03.772 20/01/2026]',2.919793,1.82431,-2.563365,-0.9199865,1.341672E-11,1.341672E-11,-6.936504,-6.319299
'[18:15:03.776 20/01/2026]',-14.26816,-11.88539,-2.27171,-6.357076,1.341672E-11,1.341672E-11,-4.974669,-13.68206
'[18:15:03.780 20/01/2026]',-14.26816,-11.88539,-2.27171,-6.357076,1.341672E-11,1.341672E-11,-4.974669,-13.68206
'[18:15:03.784 20/01/2026]',-14.26816,-11.88539,-2.27171,-6.357076,1.341672E-11,1.341672E-11,-4.974669,-13.68206
'[18:15:03.788 20/01/2026]',7.664852,-6.495153,-5.310639,-5.593016,1.341672E-11,1.341672E-11,-11.2131,-14.40794
'[18:15:03.792 20/01/2026]',4.579408,-6.826986,-2.717247,-0.7842252,1.341672E-11,1.341672E-11,-2.83167,-6.99503
'[18:15:03.796 20/01/2026]',4.579408,-6.826986,-2.717247,-0.7842252,1.341672E-11,1.341672E-11,-2.83167,-6.99503
'[18:15:03.800 20/01/2026]',4.579408,-6.826986,-2.717247,-0.7842252,1.341672E-11,1.341672E-11,-2.83167,-6.99503
'[18:15:03.804 20/01/2026]',4.579408,-6.826986,-2.717247,-0.7842252,1.341672E-11,1.341672E-11,-2.83167,-6.99503
'[18:15:03.808 20/01/2026]',4.579408,-6.826986,-2.717247,-0.7842252,1.341672E-11,1.341672E-11,-2.83167,-6.99503
'[18:15:03.812 20/01/2026]',-3.185387,0.8283265,-3.092369,6.875393,1.341672E-11,1.341672E-11,1.573951,3.598266
'[18:15:03.816 20/01/2026]',7.234365,5.264762,-2.159036,7.373989,1.341672E-11,1.341672E-11,2.562516,9.929581
'[18:15:03.820 20/01/2026]',8.052502,0.0877635,1.354523,-0.09715918,1.341672E-11,1.341672E-11,-0.3833327,-0.1709606
'[18:15:03.824 20/01/2026]',8.052502,0.0877635,1.354523,-0.09715918,1.341672E-11,1.341672E-11,-0.3833327,-0.1709606
'[18:15:03.828 20/01/2026]',8.052502,0.0877635,1.354523,-0.09715918,1.341672E-11,1.341672E-11,-0.3833327,-0.1709606
'[18:15:03.832 20/01/2026]',8.052502,0.0877635,1.354523,-0.09715918,1.341672E-11,1.341672E-11,-0.3833327,-0.1709606
'[18:15:03.836 20/01/2026]',9.971319,1.313163,7.158647,8.230093,1.341672E-11,1.341672E-11,11.5316,16.43784
'[18:15:03.840 20/01/2026]',5.201771,5.277032,3.980669,11.64812,1.341672E-11,1.341672E-11,10.18094,12.26205
'[18:15:03.844 20/01/2026]',5.201771,5.277032,3.980669,11.64812,1.341672E-11,1.341672E-11,10.18094,12.26205
'[18:15:03.848 20/01/2026]',5.201771,5.277032,3.980669,11.64812,1.341672E-11,1.341672E-11,10.18094,12.26205
'[18:15:03.852 20/01/2026]',5.201771,5.277032,3.980669,11.64812,1.341672E-11,1.341672E-11,10.18094,12.26205
'[18:15:03.856 20/01/2026]',5.201771,5.277032,3.980669,11.64812,1.341672E-11,1.341672E-11,10.18094,12.26205
'[18:15:03.860 20/01/2026]',-2.788729,-1.258127,-1.674932,-6.273377,1.341672E-11,1.341672E-11,1.749403,-4.133564
'[18:15:03.864 20/01/2026]',-2.774602,-1.257699,-2.996193,-8.509081,1.341672E-11,1.341672E-11,-9.622742,-7.039627
'[18:15:03.868 20/01/2026]',6.238376,-2.462411,-2.331319,-3.074097,1.341672E-11,1.341672E-11,-9.895863,-12.38282
'[18:15:03.872 20/01/2026]',6.238376,-2.462411,-2.331319,-3.074097,1.341672E-11,1.341672E-11,-9.895863,-12.38282
'[18:15:03.876 20/01/2026]',6.238376,-2.462411,-2.331319,-3.074097,1.341672E-11,1.341672E-11,-9.895863,-12.38282
'[18:15:03.880 20/01/2026]',6.238376,-2.462411,-2.331319,-3.074097,1.341672E-11,1.341672E-11,-9.895863,-12.38282
'[18:15:03.884 20/01/2026]',2.578423,-0.03481041,-6.949672,-5.414144,1.341672E-11,1.341672E-11,-5.757771,-12.3517
'[18:15:03.888 20/01/2026]',5.093803,-3.79394,0.6298602,-5.964067,1.341672E-11,1.341672E-11,-6.102518,-4.647017
'[18:15:03.892 20/01/2026]',-7.111629,-0.2554487,7.352348,-3.432723,1.341672E-11,1.341672E-11,2.288069,1.827927
'[18:15:03.896 20/01/2026]',-7.111629,-0.2554487,7.352348,-3.432723,1.341672E-11,1.341672E-11,2.288069,1.827927
'[18:15:03.900 20/01/2026]',-7.111629,-0.2554487,7.352348,-3.432723,1.341672E-11,1.341672E-11,2.288069,1.827927
'[18:15:03.904 20/01/2026]',-7.111629,-0.2554487,7.352348,-3.432723,1.341672E-11,1.341672E-11,2.288069,1.827927
'[18:15:03.908 20/01/2026]',11.37049,2.284476,-3.993664,-1.01487,1.341672E-11,1.341672E-11,-9.251462,-1.767523
'[18:15:03.912 20/01/2026]',5.776565,7.913978,1.605316,4.69977,1.341672E-11,1.341672E-11,1.102752,8.235113
'[18:15:03.916 20/01/2026]',5.588312,0.6803958,2.331256,6.056444,1.341672E-11,1.341672E-11,11.20204,3.253736
'[18:15:03.920 20/01/2026]',5.588312,0.6803958,2.331256,6.056444,1.341672E-11,1.341672E-11,11.20204,3.253736
'[18:15:03.924 20/01/2026]',5.588312,0.6803958,2.331256,6.056444,1.341672E-11,1.341672E-11,11.20204,3.253736
'[18:15:03.928 20/01/2026]',5.588312,0.6803958,2.331256,6.056444,1.341672E-11,1.341672E-11,11.20204,3.253736
'[18:15:03.932 20/01/2026]',-2.791202,2.242681,-4.213165,-3.244426,1.341672E-11,1.341672E-11,-12.11482,-13.89687
'[18:15:03.936 20/01/2026]',1.407936,-9.547651,-1.864153,-3.92586,1.341672E-11,1.341672E-11,-7.188639,-6.460859
'[18:15:03.940 20/01/2026]',1.407936,-9.547651,-1.864153,-3.92586,1.341672E-11,1.341672E-11,-7.188639,-6.460859
'[18:15:03.944 20/01/2026]',1.407936,-9.547651,-1.864153,-3.92586,1.341672E-11,1.341672E-11,-7.188639,-6.460859
'[18:15:03.948 20/01/2026]',1.407936,-9.547651,-1.864153,-3.92586,1.341672E-11,1.341672E-11,-7.188639,-6.460859
'[18:15:03.952 20/01/2026]',6.30338,-2.625278,4.086534,-1.612263,1.341672E-11,1.341672E-11,0.1094927,-5.313479
'[18:15:03.956 20/01/2026]',-13.65553,-4.052821,-6.66828,-6.657651,1.341672E-11,1.341672E-11,-12.12589,-0.7588264
'[18:15:03.960 20/01/2026]',0.5371138,5.886239,10.82336,1.188382,1.341672E-11,1.341672E-11,5.677167,2.816052
'[18:15:03.964 20/01/2026]',0.5371138,5.886239,10.82336,1.188382,1.341672E-11,1.341672E-11,5.677167,2.816052
'[18:15:03.968 20/01/2026]',0.5371138,5.886239,10.82336,1.188382,1.341672E-11,1.341672E-11,5.677167,2.816052
'[18:15:03.972 20/01/2026]',0.5371138,5.886239,10.82336,1.188382,1.341672E-11,1.341672E-11,5.677167,2.816052
'[18:15:03.976 20/01/2026]',1.803555,2.320148,2.180209,2.407841,1.341672E-11,1.341672E-11,6.64005,7.899801
'[18:15:03.980 20/01/2026]',1.362388,6.042404,3.069877,10.66197,1.341672E-11,1.341672E-11,3.080886,14.62811
'[18:15:03.984 20/01/2026]',12.43375,4.554996,3.997903,11.7996,1.341672E-11,1.341672E-11,3.908283,12.6855
'[18:15:03.988 20/01/2026]',12.43375,4.554996,3.997903,11.7996,1.341672E-11,1.341672E-11,3.908283,12.6855
'[18:15:03.992 20/01/2026]',12.43375,4.554996,3.997903,11.7996,1.341672E-11,1.341672E-11,3.908283,12.6855
'[18:15:03.996 20/01/2026]',12.43375,4.554996,3.997903,11.7996,1.341672E-11,1.341672E-11,3.908283,12.6855
'[18:15:04.000 20/01/2026]',2.380533,0.1748617,-1.185084,-1.045147,1.341672E-11,1.341672E-11,-1.389102,-5.201756
'[18:15:04.004 20/01/2026]',16.36859,17.56416,4.892775,9.629225,1.341672E-11,1.341672E-11,8.45715,5.145751
'[18:15:04.008 20/01/2026]',16.36859,17.56416,4.892775,9.629225,1.341672E-11,1.341672E-11,8.45715,5.145751
'[18:15:04.012 20/01/2026]',16.36859,17.56416,4.892775,9.629225,1.341672E-11,1.341672E-11,8.45715,5.145751
'[18:15:04.016 20/01/2026]',16.36859,17.56416,4.892775,9.629225,1.341672E-11,1.341672E-11,8.45715,5.145751
'[18:15:04.020 20/01/2026]',16.36859,17.56416,4.892775,9.629225,1.341672E-11,1.341672E-11,8.45715,5.145751
'[18:15:04.024 20/01/2026]',-0.4533626,-0.298124,-0.07848085,-3.356054,1.341672E-11,1.341672E-11,-0.7530198,-3.363963
'[18:15:04.028 20/01/2026]',-11.13747,0.3172376,4.554689,2.635729,1.341672E-11,1.341672E-11,3.02226,-1.807913
'[18:15:04.032 20/01/2026]',1.23087,3.225618,2.167918,-7.637214,1.341672E-11,1.341672E-11,-9.076097,-10.81149
'[18:15:04.036 20/01/2026]',1.23087,3.225618,2.167918,-7.637214,1.341672E-11,1.341672E-11,-9.076097,-10.81149
'[18:15:04.040 20/01/2026]',1.23087,3.225618,2.167918,-7.637214,1.341672E-11,1.341672E-11,-9.076097,-10.81149
'[18:15:04.044 20/01/2026]',1.23087,3.225618,2.167918,-7.637214,1.341672E-11,1.341672E-11,-9.076097,-10.81149
'[18:15:04.048 20/01/2026]',0.7273735,-6.33052,0.650552,-1.802899,1.341672E-11,1.341672E-11,1.034884,-0.2899537
'[18:15:04.052 20/01/2026]',-14.53005,-3.89583,-7.043824,2.543166,1.341672E-11,1.341672E-11,-8.291252,-5.176222
'[18:15:04.056 20/01/2026]',9.662809,4.571075,-4.587478,-3.549351,1.341672E-11,1.341672E-11,-2.689683,-9.019302
'[18:15:04.060 20/01/2026]',9.662809,4.571075,-4.587478,-3.549351,1.341672E-11,1.341672E-11,-2.689683,-9.019302
'[18:15:04.064 20/01/2026]',9.662809,4.571075,-4.587478,-3.549351,1.341672E-11,1.341672E-11,-2.689683,-9.019302
'[18:15:04.068 20/01/2026]',9.662809,4.571075,-4.587478,-3.549351,1.341672E-11,1.341672E-11,-2.689683,-9.019302
'[18:15:04.072 20/01/2026]',-7.425628,2.877932,-1.270175,-4.562406,1.341672E-11,1.341672E-11,0.2579565,-6.186059
'[18:15:04.076 20/01/2026]',2.366231,6.687088,-1.856304,-4.531748,1.341672E-11,1.341672E-11,-0.02609177,-6.292475
'[18:15:04.080 20/01/2026]',2.366231,6.687088,-1.856304,-4.531748,1.341672E-11,1.341672E-11,-0.02609177,-6.292475
'[18:15:04.084 20/01/2026]',2.366231,6.687088,-1.856304,-4.531748,1.341672E-11,1.341672E-11,-0.02609177,-6.292475
'[18:15:04.088 20/01/2026]',2.366231,6.687088,-1.856304,-4.531748,1.341672E-11,1.341672E-11,-0.02609177,-6.292475
'[18:15:04.092 20/01/2026]',-27.20461,2.912179,4.026523,8.924079,1.341672E-11,1.341672E-11,13.80675,13.96184
'[18:15:04.096 20/01/2026]',11.73688,7.632552,2.799666,2.397853,1.341672E-11,1.341672E-11,2.785393,5.432256
'[18:15:04.100 20/01/2026]',-7.830382,-17.61262,-9.507833,-8.607551,1.341672E-11,1.341672E-11,-13.90575,-6.475354
'[18:15:04.104 20/01/2026]',-7.830382,-17.61262,-9.507833,-8.607551,1.341672E-11,1.341672E-11,-13.90575,-6.475354
'[18:15:04.108 20/01/2026]',-7.830382,-17.61262,-9.507833,-8.607551,1.341672E-11,1.341672E-11,-13.90575,-6.475354
'[18:15:04.112 20/01/2026]',-7.830382,-17.61262,-9.507833,-8.607551,1.341672E-11,1.341672E-11,-13.90575,-6.475354
'[18:15:04.116 20/01/2026]',-16.86711,-9.401997,-3.632643,-6.082026,1.341672E-11,1.341672E-11,-6.184041,-6.233113
'[18:15:04.120 20/01/2026]',-8.419341,-4.820491,6.836372,9.686044,1.341672E-11,1.341672E-11,10.06294,13.25582
'[18:15:04.124 20/01/2026]',-0.7984756,3.798752,-6.795218,-1.094318,1.341672E-11,1.341672E-11,-2.788448,-1.526565
'[18:15:04.128 20/01/2026]',-0.7984756,3.798752,-6.795218,-1.094318,1.341672E-11,1.341672E-11,-2.788448,-1.526565
'[18:15:04.132 20/01/2026]',-0.7984756,3.798752,-6.795218,-1.094318,1.341672E-11,1.341672E-11,-2.788448,-1.526565
'[18:15:04.136 20/01/2026]',-0.7984756,3.798752,-6.795218,-1.094318,1.341672E-11,1.341672E-11,-2.788448,-1.526565
'[18:15:04.140 20/01/2026]',10.70918,-0.7723525,-1.061334,0.447563,1.341672E-11,1.341672E-11,3.150157,3.985889
'[18:15:04.144 20/01/2026]',-1.621589,-2.092261,-1.322723,2.225279,1.341672E-11,1.341672E-11,-1.011462,2.866019
'[18:15:04.148 20/01/2026]',10.99337,-1.880754,-7.892311,-6.110168,1.341672E-11,1.341672E-11,-3.514958,-6.075086
'[18:15:04.152 20/01/2026]',10.99337,-1.880754,-7.892311,-6.110168,1.341672E-11,1.341672E-11,-3.514958,-6.075086
'[18:15:04.156 20/01/2026]',10.99337,-1.880754,-7.892311,-6.110168,1.341672E-11,1.341672E-11,-3.514958,-6.075086
'[18:15:04.160 20/01/2026]',10.99337,-1.880754,-7.892311,-6.110168,1.341672E-11,1.341672E-11,-3.514958,-6.075086
'[18:15:04.164 20/01/2026]',-0.6878064,2.502225,9.74031,-1.089505,1.341672E-11,1.341672E-11,9.39165,8.54319
'[18:15:04.168 20/01/2026]',6.573842,4.644428,4.786187,2.696032,1.341672E-11,1.341672E-11,3.527593,5.917881
'[18:15:04.172 20/01/2026]',6.573842,4.644428,4.786187,2.696032,1.341672E-11,1.341672E-11,3.527593,5.917881
'[18:15:04.176 20/01/2026]',6.573842,4.644428,4.786187,2.696032,1.341672E-11,1.341672E-11,3.527593,5.917881
'[18:15:04.180 20/01/2026]',6.573842,4.644428,4.786187,2.696032,1.341672E-11,1.341672E-11,3.527593,5.917881
'[18:15:04.184 20/01/2026]',6.573842,4.644428,4.786187,2.696032,1.341672E-11,1.341672E-11,3.527593,5.917881
'[18:15:04.188 20/01/2026]',4.965704,1.194584,2.762131,5.657054,1.341672E-11,1.341672E-11,10.04079,10.75145
'[18:15:04.192 20/01/2026]',2.348271,2.02005,3.109405,5.251113,1.341672E-11,1.341672E-11,3.272149,5.921434
'[18:15:04.196 20/01/2026]',3.882809,3.773772,0.1055476,-4.676843,1.341672E-11,1.341672E-11,-4.265991,-9.004932
'[18:15:04.200 20/01/2026]',3.882809,3.773772,0.1055476,-4.676843,1.341672E-11,1.341672E-11,-4.265991,-9.004932
'[18:15:04.204 20/01/2026]',3.882809,3.773772,0.1055476,-4.676843,1.341672E-11,1.341672E-11,-4.265991,-9.004932
'[18:15:04.208 20/01/2026]',4.858175,0.5479377,1.70669,-3.535876,1.341672E-11,1.341672E-11,-3.844953,-3.938938
'[18:15:04.212 20/01/2026]',1.497649,2.09631,-1.867341,3.873931,1.341672E-11,1.341672E-11,4.679116,6.526524
'[18:15:04.216 20/01/2026]',-4.745396,2.585377,-3.074497,-2.232047,1.341672E-11,1.341672E-11,1.711934,-1.143921
'[18:15:04.220 20/01/2026]',-4.745396,2.585377,-3.074497,-2.232047,1.341672E-11,1.341672E-11,1.711934,-1.143921
'[18:15:04.224 20/01/2026]',-4.745396,2.585377,-3.074497,-2.232047,1.341672E-11,1.341672E-11,1.711934,-1.143921
'[18:15:04.228 20/01/2026]',-4.745396,2.585377,-3.074497,-2.232047,1.341672E-11,1.341672E-11,1.711934,-1.143921
'[18:15:04.232 20/01/2026]',-4.745396,2.585377,-3.074497,-2.232047,1.341672E-11,1.341672E-11,1.711934,-1.143921
'[18:15:04.236 20/01/2026]',-5.411466,-2.687141,-2.67391,-5.416678,1.341672E-11,1.341672E-11,-2.274612,-7.205631
'[18:15:04.240 20/01/2026]',4.240408,6.207002,2.973232,3.449783,1.341672E-11,1.341672E-11,11.09003,5.137669
'[18:15:04.244 20/01/2026]',-2.597629,-7.623467,-5.587,-7.211251,1.341672E-11,1.341672E-11,-9.718128,-15.56931
'[18:15:04.248 20/01/2026]',-2.597629,-7.623467,-5.587,-7.211251,1.341672E-11,1.341672E-11,-9.718128,-15.56931
'[18:15:04.252 20/01/2026]',-2.597629,-7.623467,-5.587,-7.211251,1.341672E-11,1.341672E-11,-9.718128,-15.56931
'[18:15:04.256 20/01/2026]',-2.424008,9.938125,1.206402,3.821056,1.341672E-11,1.341672E-11,0.2009728,-1.440949
'[18:15:04.260 20/01/2026]',-15.5905,3.649554,-2.715182,-6.505578,1.341672E-11,1.341672E-11,-17.28896,-13.80241
'[18:15:04.264 20/01/2026]',-15.5905,3.649554,-2.715182,-6.505578,1.341672E-11,1.341672E-11,-17.28896,-13.80241
'[18:15:04.268 20/01/2026]',-15.5905,3.649554,-2.715182,-6.505578,1.341672E-11,1.341672E-11,-17.28896,-13.80241
'[18:15:04.272 20/01/2026]',-15.5905,3.649554,-2.715182,-6.505578,1.341672E-11,1.341672E-11,-17.28896,-13.80241
'[18:15:04.276 20/01/2026]',-15.5905,3.649554,-2.715182,-6.505578,1.341672E-11,1.341672E-11,-17.28896,-13.80241
'[18:15:04.280 20/01/2026]',10.99302,-2.283372,4.77912,-0.4124627,1.341672E-11,1.341672E-11,3.753989,1.800562
'[18:15:04.284 20/01/2026]',0.4612544,7.162407,1.413784,3.924775,1.341672E-11,1.341672E-11,7.212911,10.26563
'[18:15:04.288 20/01/2026]',2.894393,-0.8319965,-2.784713,-2.927157,1.341672E-11,1.341672E-11,-2.06189,-9.154766
'[18:15:04.292 20/01/2026]',2.894393,-0.8319965,-2.784713,-2.927157,1.341672E-11,1.341672E-11,-2.06189,-9.154766
'[18:15:04.296 20/01/2026]',2.894393,-0.8319965,-2.784713,-2.927157,1.341672E-11,1.341672E-11,-2.06189,-9.154766
'[18:15:04.300 20/01/2026]',2.894393,-0.8319965,-2.784713,-2.927157,1.341672E-11,1.341672E-11,-2.06189,-9.154766
'[18:15:04.304 20/01/2026]',14.89583,4.438722,3.90128,9.673794,1.341672E-11,1.341672E-11,9.627528,14.43543
'[18:15:04.308 20/01/2026]',-4.580419,5.552375,-1.27745,6.00369,1.341672E-11,1.341672E-11,6.33578,9.009388
'[18:15:04.312 20/01/2026]',-4.580419,5.552375,-1.27745,6.00369,1.341672E-11,1.341672E-11,6.33578,9.009388
