'Time and date','Fp1','Fp2','F3','Fz','F4','P3','Pz','P4','AccX','AccY','AccZ','GyroX','GyroY','GyroZ','Battery','Event'
'[hh:mm:ss.mmm dd/mm/yyyy]','uV','uV','uV','uV','uV','uV','uV','uV','G','G','G','Deg/s','Deg/s','Deg/s','%','Button'
'[13:15:00.000 21/01/2026]',-122466.3,-198348.5,-85789.48,630.4533,-375000,-375000,-149824.2,-227298.1,0.05,0.02,0.88,-4,0,-2,12,0
'[13:15:00.004 21/01/2026]',-122464.6,-198319.2,-85770.52,641.9868,-375000,-375000,-149799.4,-227577,0.05,0.02,0.88,-4,0,-2,12,0
'[13:15:00.008 21/01/2026]',-122513,-198375.1,-85791.09,628.4863,-375000,-375000,-149803.7,-227701.8,0.05,0.02,0.88,-4,0,-2,12,0
'[13:15:00.012 21/01/2026]',-122575.8,-198458.5,-85832.13,592.2318,-375000,-375000,-149835.2,-227405.4,0.05,0.02,0.88,-4,0,-2,12,0
'[13:15:00.016 21/01/2026]',-122582.9,-198437.3,-85832.57,590.5778,-375000,-375000,-149835.4,-227342.7,0.05,0.02,0.88,-4,0,-2,12,0
'[13:15:00.020 21/01/2026]',-122580.6,-198392.3,-85819.61,607.3416,-375000,-375000,-149812.7,-227574.1,0.05,0.02,0.88,-4,0,-2,12,0
'[13:15:00.024 21/01/2026]',-122627.9,-198451.4,-85832.88,603.9888,-375000,-375000,-149797.5,-227558.4,0.05,0.02,0.88,-4,0,-2,12,0
'[13:15:00.028 21/01/2026]',-122656,-198508.3,-85850.45,573.4564,-375000,-375000,-149816.5,-227421,0.05,0.02,0.88,-4,0,-2,12,0
'[13:15:00.032 21/01/2026]',-122647.3,-198483.5,-85852.2,574.1269,-375000,-375000,-149819.1,-227458.1,0.05,0.02,0.88,-4,0,-2,12,0
'[13:15:00.036 21/01/2026]',-122641.4,-198423.9,-85844.15,593.5282,-375000,-375000,-149803.3,-227666.5,0.03,0.00,0.88,-4,0,-2,12,0
'[13:15:00.040 21/01/2026]',-122618,-198416.7,-85823.68,610.5602,-375000,-375000,-149790.1,-227761.2,0.03,0.00,0.88,-4,0,-2,12,0
'[13:15:00.044 21/01/2026]',-122651.4,-198490.3,-85853.98,581.4583,-375000,-375000,-149822.4,-227518.9,0.03,0.00,0.88,-4,0,-2,12,0
'[13:15:00.048 21/01/2026]',-122635.3,-198469.2,-85848.53,585.4369,-375000,-375000,-149813.3,-227332.7,0.03,0.00,0.88,-4,0,-2,12,0
'[13:15:00.052 21/01/2026]',-122592.7,-198378.2,-85826.41,608.9956,-375000,-375000,-149799.4,-227493.4,0.03,0.00,0.88,-4,0,-2,12,0
'[13:15:00.056 21/01/2026]',-122581.7,-198362.8,-85819.88,621.0656,-375000,-375000,-149804.9,-227561.3,0.03,0.00,0.88,-4,0,-2,12,0
'[13:15:00.060 21/01/2026]',-122585.7,-198409.7,-85823.23,596.7021,-375000,-375000,-149807.5,-227490.4,0.03,0.00,0.88,-4,0,-2,12,0
'[13:15:00.064 21/01/2026]',-122562.7,-198395,-85818.8,603.9888,-375000,-375000,-149807.1,-227338.2,0.03,0.00,0.88,-4,0,-2,12,0
'[13:15:00.068 21/01/2026]',-122529.8,-198313,-85802.45,625.6253,-375000,-375000,-149800.7,-227503.6,0.03,0.00,0.88,-4,0,-2,12,0
'[13:15:00.072 21/01/2026]',-122493.4,-198275.9,-85772.89,651.3298,-375000,-375000,-149770.9,-227741.6,0.02,0.00,0.88,-4,0,-2,12,0
'[13:15:00.076 21/01/2026]',-122507.3,-198321,-85790.1,636.4883,-375000,-375000,-149802.2,-227571.6,0.02,0.00,0.88,-4,0,-2,12,0
'[13:15:00.080 21/01/2026]',-122508.8,-198344.3,-85799.72,624.1054,-375000,-375000,-149824.4,-227322.2,0.02,0.00,0.88,-4,0,-2,12,0
'[13:15:00.084 21/01/2026]',-122478.2,-198269.3,-85785.68,642.5232,-375000,-375000,-149814.5,-227396.8,0.02,0.00,0.88,-4,0,-2,12,0
'[13:15:00.088 21/01/2026]',-122443.4,-198223.7,-85760.02,666.2608,-375000,-375000,-149792.3,-227649.6,0.02,0.00,0.88,-4,0,-2,12,0
'[13:15:00.092 21/01/2026]',-122450.1,-198263.2,-85767.53,651.2851,-375000,-375000,-149813.4,-227558,0.02,0.00,0.88,-4,0,-2,12,0
'[13:15:00.096 21/01/2026]',-122461.7,-198305.7,-85779.6,631.2133,-375000,-375000,-149838.2,-227410.3,0.02,0.00,0.88,-4,0,-2,12,0
'[13:15:00.100 21/01/2026]',-122441.2,-198250,-85769.63,652.4921,-375000,-375000,-149812.9,-227438.6,0.02,0.00,0.88,-4,0,-2,12,0
'[13:15:00.104 21/01/2026]',-122408.6,-198192.2,-85747.86,671.6252,-375000,-375000,-149797.1,-227696.8,0.02,0.00,0.88,-4,0,-2,12,0
'[13:15:00.108 21/01/2026]',-122411.3,-198215.9,-85747.01,673.9945,-375000,-375000,-149801.2,-227668.1,0.02,0.00,0.89,-4,0,-2,12,0
'[13:15:00.112 21/01/2026]',-122436.2,-198281.7,-85768.42,649.0052,-375000,-375000,-149823.3,-227442.8,0.02,0.00,0.89,-4,0,-2,12,0
'[13:15:00.116 21/01/2026]',-122423.1,-198249.1,-85772.18,651.8215,-375000,-375000,-149834.4,-227384,0.02,0.00,0.89,-4,0,-2,12,0
'[13:15:00.120 21/01/2026]',-122396.5,-198184.5,-85750.72,672.4745,-375000,-375000,-149818.5,-227620.7,0.02,0.00,0.89,-4,0,-2,12,0
'[13:15:00.124 21/01/2026]',-122387.5,-198191.2,-85739.63,683.114,-375000,-375000,-149807.2,-227598.9,0.02,0.00,0.89,-4,0,-2,12,0
'[13:15:00.128 21/01/2026]',-122411.7,-198262.2,-85759.48,649.5864,-375000,-375000,-149828,-227531.9,0.02,0.00,0.89,-4,0,-2,12,0
'[13:15:00.132 21/01/2026]',-122401.7,-198237.2,-85762.84,659.6894,-375000,-375000,-149829.6,-227386.6,0.02,0.00,0.89,-4,0,-2,12,0
'[13:15:00.136 21/01/2026]',-122375.7,-198177.8,-85747.81,672.564,-375000,-375000,-149812.9,-227630.8,0.02,0.00,0.89,-4,0,-2,12,0
'[13:15:00.140 21/01/2026]',-122363.3,-198179.8,-85734.49,681.5941,-375000,-375000,-149800,-227876.9,0.02,0.00,0.89,-4,0,-2,12,0
'[13:15:00.144 21/01/2026]',-122389.1,-198232.9,-85755.55,666.529,-375000,-375000,-149825.5,-227601.6,0.03,0.02,0.88,-4,0,-2,12,0
'[13:15:00.148 21/01/2026]',-122394.2,-198235.5,-85763.15,659.8682,-375000,-375000,-149836.8,-227438.6,0.03,0.02,0.88,-4,0,-2,12,0
'[13:15:00.152 21/01/2026]',-122377.2,-198173.5,-85755.95,672.1169,-375000,-375000,-149837,-227608,0.03,0.02,0.88,-4,0,-2,12,0
'[13:15:00.156 21/01/2026]',-122362.4,-198164.7,-85744.06,686.4221,-375000,-375000,-149831.2,-227701.5,0.03,0.02,0.88,-4,0,-2,12,0
'[13:15:00.160 21/01/2026]',-122376.2,-198222.3,-85751.13,661.5669,-375000,-375000,-149840.8,-227631.7,0.03,0.02,0.88,-4,0,-2,12,0
'[13:15:00.164 21/01/2026]',-122374,-198230.7,-85749.38,663.6233,-375000,-375000,-149841.9,-227443.1,0.03,0.02,0.88,-4,0,-2,12,0
'[13:15:00.168 21/01/2026]',-122355.9,-198165.7,-85744.28,681.2365,-375000,-375000,-149835.2,-227499.3,0.03,0.02,0.88,-4,0,-2,12,0
'[13:15:00.172 21/01/2026]',-122337.1,-198138.8,-85724.57,699.6096,-375000,-375000,-149809,-227732.6,0.03,0.02,0.88,-4,0,-2,12,0
'[13:15:00.176 21/01/2026]',-122352,-198190,-85738.02,689.4619,-375000,-375000,-149829.7,-227629.9,0.03,0.02,0.88,-4,0,-2,12,0
'[13:15:00.180 21/01/2026]',-122363.2,-198226.3,-85749.42,676.4084,-375000,-375000,-149846.1,-227364,0.03,0.00,0.88,-4,0,-2,12,0
'[13:15:00.184 21/01/2026]',-122350,-198167.5,-85741.6,691.6523,-375000,-375000,-149837.3,-227383.3,0.03,0.00,0.88,-4,0,-2,12,0
'[13:15:00.188 21/01/2026]',-122325.4,-198127.9,-85721.44,710.9196,-375000,-375000,-149815.2,-227637,0.03,0.00,0.88,-4,0,-2,12,0
'[13:15:00.192 21/01/2026]',-122345.6,-198180.5,-85737,687.3608,-375000,-375000,-149839.4,-227543.2,0.03,0.00,0.88,-4,0,-2,12,0
'[13:15:00.196 21/01/2026]',-122355.2,-198223,-85741.83,674.0392,-375000,-375000,-149839.1,-227385.2,0.03,0.00,0.88,-4,0,-2,12,0
'[13:15:00.200 21/01/2026]',-122340.6,-198170.4,-85737.35,690.8477,-375000,-375000,-149825.9,-227380.4,0.03,0.00,0.88,-4,0,-2,12,0
'[13:15:00.204 21/01/2026]',-122315,-198118.7,-85714.73,707.0751,-375000,-375000,-149810.1,-227661.8,0.03,0.00,0.88,-4,0,-2,12,0
'[13:15:00.208 21/01/2026]',-122322.4,-198151.2,-85716.75,702.8282,-375000,-375000,-149819.8,-227685.7,0.03,0.00,0.88,-4,0,-2,12,0
'[13:15:00.212 21/01/2026]',-122345.5,-198203.4,-85733.51,693.5299,-375000,-375000,-149839.7,-227367.5,0.03,0.00,0.88,-4,0,-2,12,0
'[13:15:00.216 21/01/2026]',-122340.8,-198177.4,-85736.28,716.4181,-375000,-375000,-149838.3,-227350.8,0.03,0.00,0.88,-4,0,-2,12,0
'[13:15:00.220 21/01/2026]',-122324.5,-198130.2,-85731.77,726.0294,-375000,-375000,-149832.7,-227620.1,0.03,0.00,0.88,-4,0,-2,12,0
'[13:15:00.224 21/01/2026]',-122326.4,-198143.4,-85730.74,728.9798,-375000,-375000,-149839.7,-227563.4,0.03,0.00,0.88,-4,0,-2,12,0
'[13:15:00.228 21/01/2026]',-122349.8,-198210.1,-85746.61,696.3909,-375000,-375000,-149860.5,-227458.8,0.03,0.00,0.88,-4,0,-2,12,0
'[13:15:00.232 21/01/2026]',-122339.9,-198192.5,-85739.63,702.7388,-375000,-375000,-149855.4,-227394.6,0.03,0.00,0.88,-4,0,-2,12,0
'[13:15:00.236 21/01/2026]',-122319.9,-198128.6,-85725.82,716.284,-375000,-375000,-149839.1,-227601.7,0.03,0.00,0.88,-4,0,-2,12,0
'[13:15:00.240 21/01/2026]',-122312.5,-198133.8,-85714.6,722.0955,-375000,-375000,-149828.8,-227772.7,0.03,0.00,0.88,-4,0,-2,12,0
'[13:15:00.244 21/01/2026]',-122338.8,-198197,-85733.47,704.3928,-375000,-375000,-149854.5,-227568.5,0.03,0.00,0.88,-4,0,-2,12,0
'[13:15:00.248 21/01/2026]',-122342,-198202.8,-85746.02,701.4871,-375000,-375000,-149861.8,-227374.5,0.03,0.00,0.88,-4,0,-2,12,0
'[13:15:00.252 21/01/2026]',-122324.9,-198141.3,-85736.64,716.6416,-375000,-375000,-149844.1,-227511.2,0.03,0.00,0.86,-4,0,-2,12,0
'[13:15:00.256 21/01/2026]',-122313.6,-198129.8,-85724.8,732.3773,-375000,-375000,-149832.9,-227635.5,0.03,0.00,0.86,-4,0,-2,12,0
'[13:15:00.260 21/01/2026]',-122333.6,-198189.8,-85738.2,708.1926,-375000,-375000,-149849.1,-227521,0.03,0.00,0.86,-4,0,-2,12,0
'[13:15:00.264 21/01/2026]',-122341.9,-198209.3,-85744.24,702.4706,-375000,-375000,-149858.9,-227363.4,0.03,0.00,0.86,-4,0,-2,12,0
'[13:15:00.268 21/01/2026]',-122319.6,-198141.1,-85732.21,719.0109,-375000,-375000,-149850.7,-227460.9,0.03,0.00,0.86,-4,0,-2,12,0
'[13:15:00.272 21/01/2026]',-122288,-198102.8,-85705.8,744.313,-375000,-375000,-149825.8,-227690.1,0.03,0.00,0.86,-4,0,-2,12,0
'[13:15:00.276 21/01/2026]',-122307.8,-198154.3,-85718,736.4006,-375000,-375000,-149832.2,-227534.6,0.03,0.00,0.86,-4,0,-2,12,0
'[13:15:00.280 21/01/2026]',-122330.8,-198202.8,-85740.3,710.3384,-375000,-375000,-149858.9,-227311.3,0.03,0.00,0.86,-4,0,-2,12,0
'[13:15:00.284 21/01/2026]',-122319.2,-198149.8,-85737.89,715.8817,-375000,-375000,-149860.5,-227396.5,0.03,0.00,0.86,-4,0,-2,12,0
'[13:15:00.288 21/01/2026]',-122290.5,-198103.3,-85708.74,742.6591,-375000,-375000,-149824,-227588.3,0.03,0.00,0.88,-4,0,-2,12,0
'[13:15:00.292 21/01/2026]',-122302.4,-198145.6,-85712.81,733.9866,-375000,-375000,-149832.5,-227470,0.03,0.00,0.88,-4,0,-2,12,0
'[13:15:00.296 21/01/2026]',-122329.7,-198206.1,-85734.98,707.0303,-375000,-375000,-149853,-227374.8,0.03,0.00,0.88,-4,0,-2,12,0
'[13:15:00.300 21/01/2026]',-122319,-198151.8,-85733.11,722.2296,-375000,-375000,-149850.8,-227341.8,0.03,0.00,0.88,-4,0,-2,12,0
'[13:15:00.304 21/01/2026]',-122291.4,-198095.7,-85710.71,741.8097,-375000,-375000,-149826.7,-227595,0.03,0.00,0.88,-4,0,-2,12,0
'[13:15:00.308 21/01/2026]',-122297.1,-198125,-85711.74,741.0944,-375000,-375000,-149826,-227596,0.03,0.00,0.88,-4,0,-2,12,0
'[13:15:00.312 21/01/2026]',-122323.3,-198190.2,-85732.52,715.7476,-375000,-375000,-149851,-227336.4,0.03,0.00,0.88,-4,0,-2,12,0
'[13:15:00.316 21/01/2026]',-122313.8,-198154.7,-85729.94,724.7776,-375000,-375000,-149849.8,-227229.6,0.03,0.00,0.88,-4,0,-2,12,0
'[13:15:00.320 21/01/2026]',-122294.7,-198108.9,-85715.54,733.9866,-375000,-375000,-149835.8,-227475.6,0.03,0.00,0.88,-4,0,-2,12,0
'[13:15:00.324 21/01/2026]',-122297.5,-198131.3,-85716.34,732.9584,-375000,-375000,-149836.7,-227544.8,0.03,0.00,0.86,-4,0,-2,12,0
'[13:15:00.328 21/01/2026]',-122323.7,-198192,-85731.77,703.9011,-375000,-375000,-149860.9,-227391.2,0.03,0.00,0.86,-4,0,-2,12,0
'[13:15:00.332 21/01/2026]',-122323.8,-198176.4,-85735.34,713.1995,-375000,-375000,-149860.3,-227277.3,0.03,0.00,0.86,-4,0,-2,12,0
'[13:15:00.336 21/01/2026]',-122294.2,-198103.8,-85715.31,742.212,-375000,-375000,-149836.5,-227475.3,0.03,0.00,0.86,-4,0,-2,12,0
'[13:15:00.340 21/01/2026]',-122277,-198097.4,-85698.33,756.7853,-375000,-375000,-149817.8,-227614.3,0.03,0.00,0.86,-4,0,-2,12,0
'[13:15:00.344 21/01/2026]',-122308.3,-198162.3,-85723.59,732.869,-375000,-375000,-149842.9,-227341.7,0.03,0.00,0.86,-4,0,-2,12,0
'[13:15:00.348 21/01/2026]',-122318.1,-198180,-85735.97,716.6863,-375000,-375000,-149856.2,-227180.9,0.03,0.00,0.86,-4,0,-2,12,0
'[13:15:00.352 21/01/2026]',-122299.4,-198121,-85721.44,732.1984,-375000,-375000,-149841.9,-227361,0.03,0.00,0.86,-4,0,-2,12,0
'[13:15:00.356 21/01/2026]',-122282.9,-198095.7,-85703.11,757.0089,-375000,-375000,-149826.8,-227388.9,0.03,0.00,0.86,-4,0,-2,12,0
'[13:15:00.360 21/01/2026]',-122320.5,-198167.8,-85731.05,716.5522,-375000,-375000,-149856,-227274.1,0.02,0.02,0.88,-4,0,-2,12,0
'[13:15:00.364 21/01/2026]',-122325.8,-198192.6,-85740.8,711.5007,-375000,-375000,-149862.1,-227153.5,0.02,0.02,0.88,-4,0,-2,12,0
'[13:15:00.368 21/01/2026]',-122302.9,-198125,-85728.59,730.1868,-375000,-375000,-149854.7,-227270.5,0.02,0.02,0.88,-4,0,-2,12,0
'[13:15:00.372 21/01/2026]',-122281.5,-198095.5,-85699.05,752.2256,-375000,-375000,-149822.6,-227504.6,0.02,0.02,0.88,-4,0,-2,12,0
'[13:15:00.376 21/01/2026]',-122301.5,-198152.3,-85716.3,737.9651,-375000,-375000,-149839.4,-227440.9,0.02,0.02,0.88,-4,0,-2,12,0
'[13:15:00.380 21/01/2026]',-122321.3,-198193.4,-85740.22,715.9711,-375000,-375000,-149857.9,-227210.5,0.02,0.02,0.88,-4,0,-2,12,0
'[13:15:00.384 21/01/2026]',-122309.8,-198139.7,-85735.97,731.1702,-375000,-375000,-149846,-227238.4,0.02,0.02,0.88,-4,0,-2,12,0
'[13:15:00.388 21/01/2026]',-122282.3,-198094.1,-85710.94,759.1099,-375000,-375000,-149819.7,-227439.2,0.02,0.02,0.88,-4,0,-2,12,0
'[13:15:00.392 21/01/2026]',-122298.4,-198133.6,-85720.68,747.934,-375000,-375000,-149833.8,-227371.8,0.02,0.02,0.88,-4,0,-2,12,0
'[13:15:00.396 21/01/2026]',-122327.7,-198190.4,-85744.82,718.4297,-375000,-375000,-149859.7,-227240,0.03,0.00,0.86,-4,0,-2,12,0
'[13:15:00.400 21/01/2026]',-122303.7,-198145.8,-85738.92,725.18,-375000,-375000,-149866.3,-227283.5,0.03,0.00,0.86,-4,0,-2,12,0
'[13:15:00.404 21/01/2026]',-122270.5,-198089.3,-85709.37,752.5832,-375000,-375000,-149835.4,-227538.6,0.03,0.00,0.86,-4,0,-2,12,0
'[13:15:00.408 21/01/2026]',-122321.8,-198154.3,-85732.62,741.9885,-375000,-375000,-149831.7,-227515.7,0.03,0.00,0.86,-4,0,-2,12,0
'[13:15:00.412 21/01/2026]',-122367.3,-198225.3,-85764.04,710.3831,-375000,-375000,-149858,-227253.7,0.03,0.00,0.86,-4,0,-2,12,0
'[13:15:00.416 21/01/2026]',-122371.1,-198201.5,-85774.37,705.3763,-375000,-375000,-149866.6,-227206.1,0.03,0.00,0.86,-4,0,-2,12,0
'[13:15:00.420 21/01/2026]',-122378.9,-198178,-85772.23,709.5338,-375000,-375000,-149854.5,-227425.4,0.03,0.00,0.86,-4,0,-2,12,0
'[13:15:00.424 21/01/2026]',-122392.4,-198211.7,-85773.74,705.2869,-375000,-375000,-149862,-227448.5,0.03,0.00,0.86,-4,0,-2,12,0
'[13:15:00.428 21/01/2026]',-122429.3,-198292.4,-85790.06,668.8089,-375000,-375000,-149872.3,-227386.4,0.03,0.00,0.86,-4,0,-2,12,0
'[13:15:00.432 21/01/2026]',-122452.9,-198315.2,-85799.18,664.115,-375000,-375000,-149870,-227380.1,0.02,0.00,0.89,-4,0,-2,12,0
'[13:15:00.436 21/01/2026]',-122436.1,-198254.2,-85787.69,683.7399,-375000,-375000,-149858.7,-227527.1,0.02,0.00,0.89,-4,0,-2,12,0
'[13:15:00.440 21/01/2026]',-122421.3,-198247,-85776.38,694.7816,-375000,-375000,-149847.8,-227634.3,0.02,0.00,0.89,-4,0,-2,12,0
'[13:15:00.444 21/01/2026]',-122448.7,-198306.4,-85798.51,674.7545,-375000,-375000,-149872.5,-227378.3,0.02,0.00,0.89,-4,0,-2,12,0
'[13:15:00.448 21/01/2026]',-122454.3,-198315.2,-85808.84,663.7574,-375000,-375000,-149880.3,-227196,0.02,0.00,0.89,-4,0,-2,12,0
'[13:15:00.452 21/01/2026]',-122429.6,-198251.4,-85791.67,679.6718,-375000,-375000,-149865.3,-227334.5,0.02,0.00,0.89,-4,0,-2,12,0
'[13:15:00.456 21/01/2026]',-122406.7,-198226.5,-85769.32,704.7952,-375000,-375000,-149846.8,-227407.2,0.02,0.00,0.89,-4,0,-2,12,0
'[13:15:00.460 21/01/2026]',-122422,-198283.6,-85777.9,678.5543,-375000,-375000,-149862.4,-227360.6,0.02,0.00,0.89,-4,0,-2,12,0
'[13:15:00.464 21/01/2026]',-122433.6,-198312.1,-85796.59,663.7574,-375000,-375000,-149882.7,-227254.8,0.02,0.00,0.89,-4,0,-2,12,0
'[13:15:00.468 21/01/2026]',-122410.9,-198253.9,-85787.06,677.3026,-375000,-375000,-149874,-227382,0.02,0.00,0.88,-4,0,-2,12,0
'[13:15:00.472 21/01/2026]',-122383.4,-198218.4,-85763.95,696.0333,-375000,-375000,-149854.2,-227594.6,0.02,0.00,0.88,-4,0,-2,12,0
'[13:15:00.476 21/01/2026]',-122404.7,-198259.5,-85774.28,691.8312,-375000,-375000,-149867.8,-227428.7,0.02,0.00,0.88,-4,0,-2,12,0
'[13:15:00.480 21/01/2026]',-122428.5,-198305.2,-85803.83,666.4396,-375000,-375000,-149891.2,-227221.6,0.02,0.00,0.88,-4,0,-2,12,0
'[13:15:00.484 21/01/2026]',-122408.8,-198245.7,-85796.19,682.354,-375000,-375000,-149870.2,-227273.1,0.02,0.00,0.88,-4,0,-2,12,0
'[13:15:00.488 21/01/2026]',-122374.9,-198188.9,-85763.02,717.178,-375000,-375000,-149834.7,-227450.5,0.02,0.00,0.88,-4,0,-2,12,0
'[13:15:00.492 21/01/2026]',-122388.3,-198225.5,-85773.3,703.2305,-375000,-375000,-149852,-227336.2,0.02,0.00,0.88,-4,0,-2,12,0
'[13:15:00.496 21/01/2026]',-122415.7,-198295.3,-85798.6,666.9313,-375000,-375000,-149878.5,-227269.4,0.02,0.00,0.88,-4,0,-2,12,0
'[13:15:00.500 21/01/2026]',-122415.5,-198271.5,-85804.73,662.5057,-375000,-375000,-149886.4,-227341.6,0.02,0.00,0.88,-4,0,-2,12,0
'[13:15:00.504 21/01/2026]',-122384.2,-198207.2,-85778.66,686.3326,-375000,-375000,-149865,-227572.4,0.03,0.02,0.88,-4,0,0,12,0
'[13:15:00.508 21/01/2026]',-122383.2,-198227.4,-85768.24,692.7252,-375000,-375000,-149865.2,-227561.9,0.03,0.02,0.88,-4,0,0,12,0
'[13:15:00.512 21/01/2026]',-122409.8,-198288.9,-85788.98,669.5688,-375000,-375000,-149887,-227344.7,0.03,0.02,0.88,-4,0,0,12,0
'[13:15:00.516 21/01/2026]',-122406.3,-198265.1,-85794.89,670.15,-375000,-375000,-149886.6,-227277.2,0.03,0.02,0.88,-4,0,0,12,0
'[13:15:00.520 21/01/2026]',-122382.9,-198205.7,-85777.86,686.9138,-375000,-375000,-149872.5,-227500.1,0.03,0.02,0.88,-4,0,0,12,0
'[13:15:00.524 21/01/2026]',-122375.4,-198212.4,-85766.37,702.3365,-375000,-375000,-149857.8,-227440.5,0.03,0.02,0.88,-4,0,0,12,0
'[13:15:00.528 21/01/2026]',-122403.4,-198284.6,-85787.2,665.5455,-375000,-375000,-149871.1,-227387.5,0.03,0.02,0.88,-4,0,0,12,0
'[13:15:00.532 21/01/2026]',-122412.3,-198277.9,-85798.06,663.8915,-375000,-375000,-149883.4,-227205.2,0.03,0.02,0.88,-4,0,0,12,0
'[13:15:00.536 21/01/2026]',-122379,-198222.4,-85765.07,683.2928,-375000,-375000,-149855.7,-227521.4,0.03,0.02,0.88,-4,0,0,12,0
'[13:15:00.540 21/01/2026]',-122357.4,-198204,-85743.66,709.3549,-375000,-375000,-149838.4,-227647.7,0.02,0.00,0.89,-4,0,-2,12,0
'[13:15:00.544 21/01/2026]',-122389.5,-198263.7,-85775.53,690.5795,-375000,-375000,-149868.9,-227386.8,0.02,0.00,0.89,-4,0,-2,12,0
'[13:15:00.548 21/01/2026]',-122406.5,-198285,-85798.02,673.3239,-375000,-375000,-149888.9,-227232.6,0.02,0.00,0.89,-4,0,-2,12,0
'[13:15:00.552 21/01/2026]',-122379.2,-198212.5,-85775.3,698.8049,-375000,-375000,-149862.8,-227346.9,0.02,0.00,0.89,-4,0,-2,12,0
'[13:15:00.556 21/01/2026]',-122358.6,-198192.8,-85754.56,719.9944,-375000,-375000,-149846.6,-227429.4,0.02,0.00,0.89,-4,0,-2,12,0
'[13:15:00.560 21/01/2026]',-122388.5,-198256.9,-85775.58,687.2714,-375000,-375000,-149876.6,-227350.9,0.02,0.00,0.89,-4,0,-2,12,0
'[13:15:00.564 21/01/2026]',-122404.5,-198282.3,-85791.98,673.5027,-375000,-375000,-149895.7,-227194.8,0.02,0.00,0.89,-4,0,-2,12,0
'[13:15:00.568 21/01/2026]',-122383.2,-198222.4,-85776.34,689.6854,-375000,-375000,-149875.1,-227223.5,0.02,0.00,0.89,-4,0,-2,12,0
'[13:15:00.572 21/01/2026]',-122354.2,-198195.7,-85750.77,704.0352,-375000,-375000,-149842,-227604.1,0.02,0.00,0.89,-4,0,-2,12,0
'[13:15:00.576 21/01/2026]',-122383.4,-198240.9,-85774.55,690.8477,-375000,-375000,-149869.8,-227447.4,0.03,-0.02,0.88,-4,0,-2,12,0
'[13:15:00.580 21/01/2026]',-122417.4,-198304.1,-85804.41,662.3268,-375000,-375000,-149901.6,-227250.9,0.03,-0.02,0.88,-4,0,-2,12,0
'[13:15:00.584 21/01/2026]',-122396.9,-198241.1,-85787.06,680.6106,-375000,-375000,-149887.6,-227258.7,0.03,-0.02,0.88,-4,0,-2,12,0
'[13:15:00.588 21/01/2026]',-122359.1,-198180.9,-85753.09,715.8817,-375000,-375000,-149846.4,-227466.5,0.03,-0.02,0.88,-4,0,-2,12,0
'[13:15:00.592 21/01/2026]',-122372.5,-198218.4,-85769.27,707.388,-375000,-375000,-149856.6,-227349,0.03,-0.02,0.88,-4,0,-2,12,0
'[13:15:00.596 21/01/2026]',-122389.1,-198265.5,-85784.92,684.7233,-375000,-375000,-149875.6,-227231.7,0.03,-0.02,0.88,-4,0,-2,12,0
'[13:15:00.600 21/01/2026]',-122374.1,-198223.1,-85775.04,696.3015,-375000,-375000,-149869.2,-227206.9,0.03,-0.02,0.88,-4,0,-2,12,0
'[13:15:00.604 21/01/2026]',-122345.5,-198171.6,-85747.19,715.0323,-375000,-375000,-149843.5,-227484.8,0.03,-0.02,0.88,-4,0,-2,12,0
'[13:15:00.608 21/01/2026]',-122353.8,-198190.1,-85749.65,717.4463,-375000,-375000,-149851.3,-227418.8,0.03,-0.02,0.88,-4,0,-2,12,0
'[13:15:00.612 21/01/2026]',-122374.8,-198245,-85763.82,699.1179,-375000,-375000,-149868.7,-227166.6,0.02,0.00,0.88,-4,0,-2,12,0
'[13:15:00.616 21/01/2026]',-122367.6,-198222.8,-85764.58,698.3578,-375000,-375000,-149862.9,-227198.8,0.02,0.00,0.88,-4,0,-2,12,0
'[13:15:00.620 21/01/2026]',-122336.8,-198155.4,-85739.73,721.3354,-375000,-375000,-149840,-227398.5,0.02,0.00,0.88,-4,0,-2,12,0
'[13:15:00.624 21/01/2026]',-122340.6,-198173.2,-85738.7,724.6882,-375000,-375000,-149843.5,-227344.8,0.02,0.00,0.88,-4,0,-2,12,0
'[13:15:00.628 21/01/2026]',-122381.2,-198251,-85773.03,676.9449,-375000,-375000,-149873.6,-227239.4,0.02,0.00,0.88,-4,0,-2,12,0
'[13:15:00.632 21/01/2026]',-122384.6,-198247,-85779.33,672.8769,-375000,-375000,-149884.8,-227128.4,0.02,0.00,0.88,-4,0,-2,12,0
'[13:15:00.636 21/01/2026]',-122361.4,-198189,-85760.51,687.629,-375000,-375000,-149869.5,-227304.3,0.02,0.00,0.88,-4,0,-2,12,0
'[13:15:00.640 21/01/2026]',-122349.1,-198185.3,-85752.2,694.8263,-375000,-375000,-149857.9,-227427.3,0.02,0.00,0.88,-4,0,-2,12,0
'[13:15:00.644 21/01/2026]',-122382.4,-198254.6,-85780.94,669.3453,-375000,-375000,-149880.6,-227312.4,0.02,0.00,0.88,-4,0,-2,12,0
'[13:15:00.648 21/01/2026]',-122390.7,-198268.3,-85792.2,664.3385,-375000,-375000,-149890.9,-227142.3,0.03,0.02,0.88,-4,0,-2,12,0
'[13:15:00.652 21/01/2026]',-122371,-198208.3,-85775.22,676.4084,-375000,-375000,-149879.2,-227262.2,0.03,0.02,0.88,-4,0,-2,12,0
'[13:15:00.656 21/01/2026]',-122349.9,-198173.6,-85751.98,707.1198,-375000,-375000,-149851.1,-227325.4,0.03,0.02,0.88,-4,0,-2,12,0
'[13:15:00.660 21/01/2026]',-122374.2,-198231.8,-85769.41,679.5377,-375000,-375000,-149867.2,-227209.6,0.03,0.02,0.88,-4,0,-2,12,0
'[13:15:00.664 21/01/2026]',-122395.9,-198267.5,-85791.45,656.4707,-375000,-375000,-149888.6,-227089.4,0.03,0.02,0.88,-4,0,-2,12,0
'[13:15:00.668 21/01/2026]',-122374.6,-198207,-85777.23,676.5873,-375000,-375000,-149865.2,-227167.5,0.03,0.02,0.88,-4,0,-2,12,0
'[13:15:00.672 21/01/2026]',-122347.9,-198180.2,-85751.7,696.1674,-375000,-375000,-149838.3,-227404.3,0.03,0.02,0.88,-4,0,-2,12,0
'[13:15:00.676 21/01/2026]',-122373.3,-198233.6,-85770.16,683.6951,-375000,-375000,-149857,-227364.6,0.03,0.02,0.88,-4,0,-2,12,0
'[13:15:00.680 21/01/2026]',-122399.4,-198271,-85792.43,664.4279,-375000,-375000,-149880.6,-227119.6,0.03,0.02,0.88,-4,0,-2,12,0
'[13:15:00.684 21/01/2026]',-122384.7,-198222.9,-85783.94,672.1169,-375000,-375000,-149874.8,-227133.6,0.02,0.00,0.88,-4,0,-2,12,0
'[13:15:00.688 21/01/2026]',-122356.8,-198179.5,-85754.12,695.7204,-375000,-375000,-149848.1,-227367,0.02,0.00,0.88,-4,0,-2,12,0
'[13:15:00.692 21/01/2026]',-122375.1,-198219.2,-85763.69,687.1373,-375000,-375000,-149863.2,-227311.5,0.02,0.00,0.88,-4,0,-2,12,0
'[13:15:00.696 21/01/2026]',-122400.4,-198278.7,-85787.29,656.2472,-375000,-375000,-149884.5,-227194.7,0.02,0.00,0.88,-4,0,-2,12,0
'[13:15:00.700 21/01/2026]',-122392.6,-198241.6,-85786.26,664.8749,-375000,-375000,-149883.1,-227173.9,0.02,0.00,0.88,-4,0,-2,12,0
'[13:15:00.704 21/01/2026]',-122362,-198191.3,-85758.23,686.6456,-375000,-375000,-149858.5,-227460,0.02,0.00,0.88,-4,0,-2,12,0
'[13:15:00.708 21/01/2026]',-122352.4,-198203.8,-85750.81,698.9837,-375000,-375000,-149852.2,-227506.5,0.02,0.00,0.88,-4,0,-2,12,0
'[13:15:00.712 21/01/2026]',-122386.4,-198255,-85785.5,676.7214,-375000,-375000,-149885.4,-227147.2,0.02,0.00,0.88,-4,0,-2,12,0
'[13:15:00.716 21/01/2026]',-122399.1,-198251.6,-85793.77,666.9313,-375000,-375000,-149887.3,-227117.7,0.02,0.00,0.88,-4,0,-2,12,0
'[13:15:00.720 21/01/2026]',-122372.3,-198199.4,-85771.77,686.6009,-375000,-375000,-149858.4,-227420,0.03,0.00,0.88,-4,0,-2,12,0
'[13:15:00.724 21/01/2026]',-122365.3,-198196,-85762.3,701.8895,-375000,-375000,-149845.8,-227332.2,0.03,0.00,0.88,-4,0,-2,12,0
'[13:15:00.728 21/01/2026]',-122404.1,-198272.6,-85782.55,658.8847,-375000,-375000,-149877.3,-227234.6,0.03,0.00,0.88,-4,0,-2,12,0
'[13:15:00.732 21/01/2026]',-122411.1,-198268.8,-85790.73,654.3696,-375000,-375000,-149889.3,-227137.9,0.03,0.00,0.88,-4,0,-2,12,0
'[13:15:00.736 21/01/2026]',-122371.8,-198196.6,-85768.38,684.1422,-375000,-375000,-149855.8,-227310,0.03,0.00,0.88,-4,0,-2,12,0
'[13:15:00.740 21/01/2026]',-122352.8,-198182.6,-85747.95,704.3481,-375000,-375000,-149830.3,-227402.9,0.03,0.00,0.88,-4,0,-2,12,0
'[13:15:00.744 21/01/2026]',-122393.1,-198250.3,-85777.41,678.286,-375000,-375000,-149866.7,-227186.3,0.03,0.00,0.88,-4,0,-2,12,0
'[13:15:00.748 21/01/2026]',-122403.4,-198268,-85789.21,666.5737,-375000,-375000,-149877.8,-226987.2,0.03,0.00,0.88,-4,0,-2,12,0
'[13:15:00.752 21/01/2026]',-122373.7,-198199.9,-85766.81,688.4784,-375000,-375000,-149852.7,-227120.7,0.03,0.00,0.88,-4,0,-2,12,0
'[13:15:00.756 21/01/2026]',-122348.7,-198174.2,-85745.8,712.1265,-375000,-375000,-149832.6,-227226,0.02,0.00,0.88,-4,0,-2,12,0
'[13:15:00.760 21/01/2026]',-122390.2,-198248.4,-85775.89,668.3618,-375000,-375000,-149866.2,-227145.5,0.02,0.00,0.88,-4,0,-2,12,0
'[13:15:00.764 21/01/2026]',-122407.7,-198282.9,-85798.95,643.9537,-375000,-375000,-149890.1,-227028.1,0.02,0.00,0.88,-4,0,-2,12,0
'[13:15:00.768 21/01/2026]',-122392.4,-198239.8,-85799.45,647.2618,-375000,-375000,-149880.3,-227230.2,0.02,0.00,0.88,-4,0,-2,12,0
'[13:15:00.772 21/01/2026]',-122366.2,-198203.8,-85771.73,670.9099,-375000,-375000,-149847.9,-227517.6,0.02,0.00,0.88,-4,0,-2,12,0
'[13:15:00.776 21/01/2026]',-122387,-198242.3,-85782.95,666.8866,-375000,-375000,-149865.6,-227374.7,0.02,0.00,0.88,-4,0,-2,12,0
'[13:15:00.780 21/01/2026]',-122421.7,-198292.4,-85808.61,643.5961,-375000,-375000,-149894.2,-227103.5,0.02,0.00,0.88,-4,0,-2,12,0
'[13:15:00.784 21/01/2026]',-122408.5,-198248.2,-85803.83,652.9391,-375000,-375000,-149885.1,-227098.2,0.02,0.00,0.88,-4,0,-2,12,0
'[13:15:00.788 21/01/2026]',-122378.2,-198198,-85776.88,680.5212,-375000,-375000,-149851.3,-227346.6,0.02,0.00,0.88,-4,0,-2,12,0
'[13:15:00.792 21/01/2026]',-122398.3,-198239.1,-85788.36,669.1665,-375000,-375000,-149865.7,-227314.4,0.03,0.00,0.88,-4,0,-2,12,0
'[13:15:00.796 21/01/2026]',-122424.2,-198292.4,-85803.6,642.6126,-375000,-375000,-149883.3,-227197.5,0.03,0.00,0.88,-4,0,-2,12,0
'[13:15:00.800 21/01/2026]',-122412.6,-198255,-85792.07,654.8614,-375000,-375000,-149875.7,-227223.6,0.03,0.00,0.88,-4,0,-2,12,0
'[13:15:00.804 21/01/2026]',-122373.7,-198185.8,-85749.6,686.5562,-375000,-375000,-149836.8,-227431.8,0.03,0.00,0.88,-4,0,-2,12,0
'[13:15:00.808 21/01/2026]',-122376.2,-198204.2,-85754.39,686.2432,-375000,-375000,-149839.7,-227424.2,0.03,0.00,0.88,-4,0,-2,12,0
'[13:15:00.812 21/01/2026]',-122424.2,-198283.7,-85804.9,644.669,-375000,-375000,-149885.1,-227159.2,0.03,0.00,0.88,-4,0,-2,12,0
'[13:15:00.816 21/01/2026]',-122426.2,-198270.7,-85817.11,639.8857,-375000,-375000,-149892,-227068.1,0.03,0.00,0.88,-4,0,-2,12,0
'[13:15:00.820 21/01/2026]',-122385.3,-198193.4,-85783.58,673.5922,-375000,-375000,-149853.8,-227238.4,0.03,0.00,0.88,-4,0,-2,12,0
'[13:15:00.824 21/01/2026]',-122356.9,-198172.6,-85762.52,691.0265,-375000,-375000,-149854.1,-227288.3,0.03,0.00,0.88,-4,0,-2,12,0
'[13:15:00.828 21/01/2026]',-122366.8,-198211.3,-85775.76,659.287,-375000,-375000,-149892.5,-227215.4,0.03,0.00,0.88,-4,0,-2,12,0
'[13:15:00.832 21/01/2026]',-122386.6,-198234.5,-85781.25,659.2423,-375000,-375000,-149889.3,-227096.6,0.03,0.00,0.88,-4,0,-2,12,0
'[13:15:00.836 21/01/2026]',-122366.9,-198201.5,-85755.37,688.7466,-375000,-375000,-149839.9,-227301.5,0.03,0.00,0.88,-4,0,-2,12,0
'[13:15:00.840 21/01/2026]',-122319.3,-198157.6,-85729.4,720.7096,-375000,-375000,-149818.4,-227425.8,0.03,0.00,0.88,-4,0,-2,12,0
'[13:15:00.844 21/01/2026]',-122332,-198196.7,-85750.05,703.8117,-375000,-375000,-149847.5,-227198.7,0.03,0.00,0.88,-4,0,-2,12,0
'[13:15:00.848 21/01/2026]',-122337.6,-198221.5,-85765.79,679.7166,-375000,-375000,-149871.2,-227085.6,0.03,0.00,0.88,-4,0,-2,12,0
'[13:15:00.852 21/01/2026]',-122310.4,-198161,-85749.2,695.8992,-375000,-375000,-149858.5,-227249.2,0.03,0.00,0.88,-4,0,-2,12,0
'[13:15:00.856 21/01/2026]',-122282.1,-198117.5,-85720.95,732.5114,-375000,-375000,-149823.2,-227325.3,0.03,0.00,0.88,-4,0,-2,12,0
'[13:15:00.860 21/01/2026]',-122304.5,-198168,-85738.43,705.5104,-375000,-375000,-149846.8,-227214.6,0.03,0.00,0.88,-4,0,-2,12,0
'[13:15:00.864 21/01/2026]',-122314.2,-198186.3,-85749.38,692.6358,-375000,-375000,-149861.6,-227060.8,0.03,0.00,0.88,-4,0,-2,12,0
'[13:15:00.868 21/01/2026]',-122282.6,-198118.8,-85726.72,712.9759,-375000,-375000,-149848.3,-227080.5,0.03,0.00,0.88,-4,0,-2,12,0
'[13:15:00.872 21/01/2026]',-122258.2,-198096.2,-85700.3,727.0128,-375000,-375000,-149819.7,-227369.1,0.03,0.00,0.88,-4,0,-2,12,0
'[13:15:00.876 21/01/2026]',-122293.3,-198157.9,-85730.34,701.4424,-375000,-375000,-149846,-227346.6,0.03,0.00,0.88,-4,0,-2,12,0
'[13:15:00.880 21/01/2026]',-122325.5,-198205.9,-85761.23,668.2725,-375000,-375000,-149876.1,-227087.8,0.03,0.00,0.88,-4,0,-2,12,0
'[13:15:00.884 21/01/2026]',-122319.7,-198168.4,-85759.48,671.9828,-375000,-375000,-149869.4,-227123.4,0.03,0.00,0.88,-4,0,-2,12,0
'[13:15:00.888 21/01/2026]',-122283.5,-198113.9,-85724.03,707.7009,-375000,-375000,-149833.1,-227329.4,0.03,0.00,0.88,-4,0,-2,12,0
'[13:15:00.892 21/01/2026]',-122281.3,-198127.5,-85719.83,715.4346,-375000,-375000,-149834,-227217.4,0.03,0.00,0.88,-4,0,-2,12,0
'[13:15:00.896 21/01/2026]',-122315.4,-198188.1,-85752.38,678.286,-375000,-375000,-149868.8,-227071,0.03,0.00,0.88,-4,0,-2,12,0
'[13:15:00.900 21/01/2026]',-122307.5,-198165.2,-85755.23,680.3423,-375000,-375000,-149871.1,-227051.6,0.03,0.00,0.88,-4,0,-2,12,0
'[13:15:00.904 21/01/2026]',-122276.2,-198121.7,-85732.08,698.6261,-375000,-375000,-149848.3,-227449.1,0.03,0.00,0.88,-4,0,-2,12,0
'[13:15:00.908 21/01/2026]',-122269.4,-198122.2,-85719.48,717.8486,-375000,-375000,-149839.1,-227430.2,0.03,0.00,0.88,-4,0,-2,12,0
'[13:15:00.912 21/01/2026]',-122300.7,-198177,-85743.08,695.7651,-375000,-375000,-149873.8,-227116.2,0.03,0.00,0.88,-4,0,-2,12,0
'[13:15:00.916 21/01/2026]',-122305.8,-198161.1,-85746.79,690.9371,-375000,-375000,-149872.3,-227018.7,0.03,0.00,0.88,-4,0,-2,12,0
'[13:15:00.920 21/01/2026]',-122275.3,-198103.7,-85722.02,713.1547,-375000,-375000,-149841.8,-227195.5,0.03,0.00,0.88,-4,0,-2,12,0
'[13:15:00.924 21/01/2026]',-122274.3,-198124.3,-85720.59,716.1052,-375000,-375000,-149841.5,-227240.3,0.03,0.00,0.88,-4,0,-2,12,0
'[13:15:00.928 21/01/2026]',-122305.5,-198185.9,-85745.89,681.3259,-375000,-375000,-149868.8,-227178.7,0.03,0.00,0.88,-4,0,-2,12,0
'[13:15:00.932 21/01/2026]',-122307.8,-198176.9,-85748.4,684.9021,-375000,-375000,-149871.8,-227036.9,0.03,0.00,0.88,-4,0,-2,12,0
'[13:15:00.936 21/01/2026]',-122272.2,-198105.9,-85710.22,710.8301,-375000,-375000,-149843.9,-227287,0.03,0.00,0.88,-4,0,-2,12,0
'[13:15:00.940 21/01/2026]',-122254,-198084,-85689.3,735.1935,-375000,-375000,-149822.9,-227431.2,0.03,0.00,0.88,-4,0,-2,12,0
'[13:15:00.944 21/01/2026]',-122291.7,-198152.9,-85725.46,711.2325,-375000,-375000,-149853.7,-227166.8,0.03,0.00,0.88,-4,0,-2,12,0
'[13:15:00.948 21/01/2026]',-122310.1,-198178,-85745.63,688.8361,-375000,-375000,-149874.9,-226972.3,0.03,0.00,0.88,-4,0,-2,12,0
'[13:15:00.952 21/01/2026]',-122284.8,-198121,-85732.98,701.2189,-375000,-375000,-149859.8,-227137.8,0.03,0.00,0.88,-4,0,-2,12,0
'[13:15:00.956 21/01/2026]',-122257.1,-198074.5,-85702.58,743.4637,-375000,-375000,-149822.9,-227245.1,0.03,0.00,0.88,-4,0,-2,12,0
'[13:15:00.960 21/01/2026]',-122291.6,-198131.7,-85726.45,714.0041,-375000,-375000,-149847.9,-227142.9,0.03,0.00,0.88,-4,0,-2,12,0
'[13:15:00.964 21/01/2026]',-122315.2,-198173.1,-85749.65,687.8973,-375000,-375000,-149874.9,-227071.4,0.03,0.00,0.88,-4,0,-2,12,0
'[13:15:00.968 21/01/2026]',-122293.3,-198123.7,-85731.59,701.7554,-375000,-375000,-149850.9,-227188.8,0.03,0.00,0.88,-4,0,-2,12,0
'[13:15:00.972 21/01/2026]',-122271.2,-198092.2,-85704.99,720.0838,-375000,-375000,-149820.8,-227493.3,0.03,0.00,0.88,-4,0,-2,12,0
'[13:15:00.976 21/01/2026]',-122309.7,-198149.3,-85733.06,699.9672,-375000,-375000,-149851.3,-227387.9,0.03,0.00,0.88,-4,0,-2,12,0
'[13:15:00.980 21/01/2026]',-122345.3,-198202.2,-85762.79,670.4629,-375000,-375000,-149883.2,-227156.1,0.03,0.00,0.88,-4,0,-2,12,0
'[13:15:00.984 21/01/2026]',-122337.1,-198164.5,-85757.92,678.1966,-375000,-375000,-149872.2,-227194,0.03,0.00,0.88,-4,0,-2,12,0
'[13:15:00.988 21/01/2026]',-122310.8,-198120.3,-85732.84,703.9011,-375000,-375000,-149842.8,-227442.3,0.03,0.00,0.88,-4,0,-2,12,0
'[13:15:00.992 21/01/2026]',-122344.1,-198167,-85752.33,688.3443,-375000,-375000,-149865.7,-227303.5,0.03,0.00,0.88,-4,0,-2,12,0
'[13:15:00.996 21/01/2026]',-122375.4,-198231.5,-85773.88,656.9625,-375000,-375000,-149887.3,-227241.4,0.03,0.00,0.88,-4,0,-2,12,0
'[13:15:01.000 21/01/2026]',-122387.4,-198217.4,-85778.88,657.9459,-375000,-375000,-149882.9,-227221.3,0.03,0.00,0.88,-4,0,-2,12,0
'[13:15:01.004 21/01/2026]',-122374.1,-198190.9,-85755.37,670.5523,-375000,-375000,-149859.5,-227556,0.03,0.00,0.88,-4,0,-2,12,0
'[13:15:01.008 21/01/2026]',-122399.1,-198238.1,-85768.02,664.8303,-375000,-375000,-149872.6,-227649.9,0.03,0.00,0.88,-4,0,-2,12,0
'[13:15:01.012 21/01/2026]',-122468.2,-198333.9,-85819.79,622.7196,-375000,-375000,-149919.8,-227309,0.03,0.00,0.88,-4,0,-2,12,0
'[13:15:01.016 21/01/2026]',-122494.3,-198346,-85832.22,614.4495,-375000,-375000,-149916.5,-227178.5,0.03,0.00,0.88,-4,0,-2,12,0
'[13:15:01.020 21/01/2026]',-122466.1,-198293.4,-85798.11,642.6573,-375000,-375000,-149881.9,-227390.6,0.03,0.00,0.88,-4,0,-2,12,0
'[13:15:01.024 21/01/2026]',-122479,-198313.3,-85793.01,655.6213,-375000,-375000,-149864.7,-227370,0.03,0.00,0.88,-4,0,-2,12,0
'[13:15:01.028 21/01/2026]',-122552.9,-198409,-85834.45,608.4592,-375000,-375000,-149890.4,-227223.4,0.03,0.00,0.88,-4,0,-2,12,0
'[13:15:01.032 21/01/2026]',-122601.3,-198455.6,-85860.47,587.7167,-375000,-375000,-149897.2,-227147.8,0.03,0.00,0.88,-4,0,-2,12,0
'[13:15:01.036 21/01/2026]',-122619.1,-198441.6,-85851.08,591.4719,-375000,-375000,-149874.8,-227392.4,0.03,0.00,0.88,-4,0,-2,12,0
'[13:15:01.040 21/01/2026]',-122621.2,-198455.1,-85841.02,597.5515,-375000,-375000,-149865,-227588,0.03,0.00,0.88,-4,0,-2,12,0
'[13:15:01.044 21/01/2026]',-122681.1,-198546.6,-85883.49,561.2523,-375000,-375000,-149914.8,-227341.6,0.03,0.00,0.88,-4,0,-2,12,0
'[13:15:01.048 21/01/2026]',-122716.1,-198590.1,-85907.41,537.3806,-375000,-375000,-149937.7,-227137.1,0.03,0.00,0.88,-4,0,-2,12,0
'[13:15:01.052 21/01/2026]',-122704.8,-198531.7,-85895.78,551.8198,-375000,-375000,-149911.4,-227269.9,0.03,0.00,0.88,-4,0,-2,12,0
'[13:15:01.056 21/01/2026]',-122689.6,-198491.3,-85875.04,580.5642,-375000,-375000,-149884.4,-227384.5,0.03,0.00,0.88,-4,0,-2,12,0
'[13:15:01.060 21/01/2026]',-122702.3,-198535.4,-85892.16,559.4194,-375000,-375000,-149910.7,-227273.5,0.03,0.00,0.88,-4,0,-2,12,0
'[13:15:01.064 21/01/2026]',-122709.5,-198553,-85912.19,550.4788,-375000,-375000,-149924.5,-227063.9,0.03,0.00,0.88,-4,0,-2,12,0
'[13:15:01.068 21/01/2026]',-122663.7,-198495.2,-85879.24,573.501,-375000,-375000,-149884.7,-227213.3,0.03,0.00,0.88,-4,0,-2,12,0
'[13:15:01.072 21/01/2026]',-122606.3,-198431.6,-85833.83,606.3581,-375000,-375000,-149850.9,-227518.1,0.03,0.00,0.88,-4,0,-2,12,0
'[13:15:01.076 21/01/2026]',-122610.4,-198451.7,-85855.15,596.9257,-375000,-375000,-149890.2,-227386.4,0.03,0.00,0.88,-4,0,-2,12,0
'[13:15:01.080 21/01/2026]',-122626.6,-198479.6,-85887.07,575.1998,-375000,-375000,-149920.8,-227118.6,0.03,0.00,0.88,-4,0,-2,12,0
'[13:15:01.084 21/01/2026]',-122581.7,-198393.1,-85855.87,603.5865,-375000,-375000,-149886,-227130.8,0.03,0.00,0.88,-4,0,-2,12,0
'[13:15:01.088 21/01/2026]',-122510.8,-198307.5,-85796.9,643.149,-375000,-375000,-149852.7,-227324.9,0.03,0.00,0.88,-4,0,-2,12,0
'[13:15:01.092 21/01/2026]',-122521.3,-198345.6,-85802.71,637.3823,-375000,-375000,-149865.8,-227193.4,0.03,0.00,0.88,-4,0,-2,12,0
'[13:15:01.096 21/01/2026]',-122548.1,-198396,-85841.6,601.8878,-375000,-375000,-149892.3,-227105.7,0.03,0.00,0.88,-4,0,-2,12,0
'[13:15:01.100 21/01/2026]',-122512.3,-198327.5,-85835.13,616.1482,-375000,-375000,-149895.1,-227093.2,0.03,0.00,0.88,-4,0,-2,12,0
'[13:15:01.104 21/01/2026]',-122459.2,-198248.7,-85799.58,646.5465,-375000,-375000,-149863,-227335.7,0.03,0.00,0.88,-4,0,-2,12,0
'[13:15:01.108 21/01/2026]',-122454.7,-198266.1,-85798.6,648.5582,-375000,-375000,-149861.7,-227379.3,0.03,0.00,0.88,-4,0,-2,12,0
'[13:15:01.112 21/01/2026]',-122475.1,-198317.2,-85824.52,621.2444,-375000,-375000,-149900.6,-227143.6,0.03,0.00,0.88,-4,0,-2,12,0
'[13:15:01.116 21/01/2026]',-122455.2,-198271.5,-85811.07,633.6273,-375000,-375000,-149891.8,-227029.6,0.03,0.00,0.88,-4,0,-2,12,0
'[13:15:01.120 21/01/2026]',-122421.4,-198205.3,-85786.93,660.3599,-375000,-375000,-149870.4,-227246.1,0.03,0.00,0.88,-4,0,-2,12,0
'[13:15:01.124 21/01/2026]',-122398.9,-198198.5,-85770.75,680.7894,-375000,-375000,-149867.7,-227236.3,0.03,0.00,0.88,-4,0,-2,12,0
'[13:15:01.128 21/01/2026]',-122421,-198268.1,-85791,643.5514,-375000,-375000,-149894.9,-227133.5,0.03,0.00,0.88,-4,0,-2,12,0
'[13:15:01.132 21/01/2026]',-122421.4,-198265.5,-85800.66,639.7069,-375000,-375000,-149908,-226988.4,0.03,0.00,0.88,-4,0,-2,12,0
'[13:15:01.136 21/01/2026]',-122393.9,-198210.3,-85782.86,651.0169,-375000,-375000,-149885.7,-227231.4,0.03,0.00,0.88,-4,0,-2,12,0
'[13:15:01.140 21/01/2026]',-122365.3,-198186.9,-85759.62,676.6767,-375000,-375000,-149857.2,-227474.7,0.03,0.00,0.88,-4,0,-2,12,0
'[13:15:01.144 21/01/2026]',-122386.1,-198235.6,-85777.55,667.6019,-375000,-375000,-149887.3,-227216.1,0.03,0.00,0.88,-4,0,-2,12,0
'[13:15:01.148 21/01/2026]',-122396.5,-198252.8,-85784.96,653.6544,-375000,-375000,-149905.6,-227019.8,0.03,0.00,0.88,-4,0,-2,12,0
'[13:15:01.152 21/01/2026]',-122375,-198193.1,-85766.1,669.6583,-375000,-375000,-149884.2,-227142.1,0.02,0.00,0.88,-4,0,-2,12,0
'[13:15:01.156 21/01/2026]',-122344.4,-198152.6,-85746.74,703.4094,-375000,-375000,-149853.5,-227222.2,0.02,0.00,0.88,-4,0,-2,12,0
'[13:15:01.160 21/01/2026]',-122363.2,-198207,-85764.36,673.1898,-375000,-375000,-149882.2,-227083.1,0.02,0.00,0.88,-4,0,-2,12,0
'[13:15:01.164 21/01/2026]',-122380,-198248.4,-85783.18,649.0052,-375000,-375000,-149899.4,-226984.6,0.02,0.00,0.88,-4,0,-2,12,0
'[13:15:01.168 21/01/2026]',-122362.8,-198195.3,-85773.79,661.7904,-375000,-375000,-149882.3,-227042.7,0.02,0.00,0.88,-4,0,-2,12,0
'[13:15:01.172 21/01/2026]',-122328.1,-198148.2,-85743.39,687.7184,-375000,-375000,-149852.1,-227358.2,0.02,0.00,0.88,-4,0,-2,12,0
'[13:15:01.176 21/01/2026]',-122354.6,-198199.4,-85765.02,670.2841,-375000,-375000,-149882.4,-227324.2,0.02,0.00,0.88,-4,0,-2,12,0
'[13:15:01.180 21/01/2026]',-122378.8,-198242.8,-85787.06,650.7934,-375000,-375000,-149908.2,-227062.6,0.02,0.00,0.88,-4,0,-2,12,0
'[13:15:01.184 21/01/2026]',-122355.9,-198192.3,-85773.88,664.2491,-375000,-375000,-149898,-227074.2,0.02,0.00,0.88,-4,0,-2,12,0
'[13:15:01.188 21/01/2026]',-122326.5,-198140.1,-85748.48,685.0809,-375000,-375000,-149873.2,-227297.4,0.02,0.00,0.88,-4,0,-2,12,0
'[13:15:01.192 21/01/2026]',-122342.3,-198169.2,-85758.81,675.7826,-375000,-375000,-149890,-227139.3,0.02,0.00,0.88,-4,0,-2,12,0
'[13:15:01.196 21/01/2026]',-122369.7,-198231.3,-85777.37,636.6224,-375000,-375000,-149923.2,-227032.9,0.02,0.00,0.88,-4,0,-2,12,0
'[13:15:01.200 21/01/2026]',-122354.1,-198202.9,-85768.65,647.7088,-375000,-375000,-149915,-227000.7,0.02,0.00,0.88,-4,0,-2,12,0
'[13:15:01.204 21/01/2026]',-122318.9,-198148.5,-85740.8,674.9332,-375000,-375000,-149869.8,-227318.2,0.02,0.00,0.88,-4,0,-2,12,0
'[13:15:01.208 21/01/2026]',-122324.9,-198157.5,-85743.34,686.2432,-375000,-375000,-149865.6,-227354.5,0.02,0.00,0.88,-4,0,-2,12,0
'[13:15:01.212 21/01/2026]',-122363.5,-198225.6,-85776.25,653.9673,-375000,-375000,-149907.3,-227046,0.02,0.00,0.88,-4,0,-2,12,0
'[13:15:01.216 21/01/2026]',-122364,-198213.3,-85778.39,651.5086,-375000,-375000,-149914.1,-226949.4,0.02,0.00,0.88,-4,0,-2,12,0
'[13:15:01.220 21/01/2026]',-122335.9,-198156.1,-85757.12,674.1286,-375000,-375000,-149884,-227209.8,0.02,0.00,0.88,-4,0,-2,12,0
'[13:15:01.224 21/01/2026]',-122320.9,-198153.1,-85746.38,689.6407,-375000,-375000,-149871.3,-227259.1,0.02,0.00,0.88,-4,0,-2,12,0
'[13:15:01.228 21/01/2026]',-122355.3,-198214.2,-85771.33,654.1909,-375000,-375000,-149900.4,-227085.4,0.02,0.00,0.88,-4,0,-2,12,0
'[13:15:01.232 21/01/2026]',-122363.4,-198214.4,-85776.16,651.8215,-375000,-375000,-149905.5,-227021.4,0.02,0.00,0.88,-4,0,-2,12,0
'[13:15:01.236 21/01/2026]',-122338.3,-198152.9,-85759.21,671.7146,-375000,-375000,-149878.6,-227261.9,0.02,0.00,0.88,-4,0,-2,12,0
'[13:15:01.240 21/01/2026]',-122312.6,-198135.3,-85736.91,693.5299,-375000,-375000,-149850.7,-227430.6,0.02,0.00,0.88,-4,0,-2,12,0
'[13:15:01.244 21/01/2026]',-122336.5,-198186.7,-85759.08,678.3754,-375000,-375000,-149878.8,-227175.7,0.02,0.00,0.88,-4,0,-2,12,0
'[13:15:01.248 21/01/2026]',-122359,-198217.6,-85777.55,654.5038,-375000,-375000,-149901.9,-226940.3,0.02,0.00,0.88,-4,0,-2,12,0
'[13:15:01.252 21/01/2026]',-122347.6,-198180.4,-85768.96,654.1909,-375000,-375000,-149889.9,-227248.3,0.02,0.00,0.88,-4,0,-2,12,0
'[13:15:01.256 21/01/2026]',-122321.5,-198139,-85748.71,688.1208,-375000,-375000,-149869.4,-227411.3,0.02,0.00,0.88,-4,0,-2,12,0
'[13:15:01.260 21/01/2026]',-122351.7,-198192,-85767.71,663.8468,-375000,-375000,-149897,-227259.8,0.02,0.00,0.88,-4,0,-2,12,0
'[13:15:01.264 21/01/2026]',-122367.3,-198223.7,-85779.47,649.3182,-375000,-375000,-149913.9,-227200.7,0.02,0.00,0.88,-4,0,-2,12,0
'[13:15:01.268 21/01/2026]',-122345.7,-198169.8,-85765.7,668.2725,-375000,-375000,-149900.5,-227269.2,0.02,0.00,0.88,-4,0,-2,12,0
'[13:15:01.272 21/01/2026]',-122304.6,-198118.5,-85729.94,702.8282,-375000,-375000,-149852.6,-227514.4,0.02,0.00,0.88,-4,0,-2,12,0
'[13:15:01.276 21/01/2026]',-122317.9,-198146.5,-85745.09,699.2073,-375000,-375000,-149869.2,-227392.8,0.02,0.00,0.88,-4,0,-2,12,0
'[13:15:01.280 21/01/2026]',-122345.3,-198190.9,-85766.81,677.4366,-375000,-375000,-149898.1,-227075.3,0.02,0.00,0.88,-4,0,-2,12,0
'[13:15:01.284 21/01/2026]',-122332.6,-198147.3,-85755.41,687.5844,-375000,-375000,-149889.9,-227012.9,0.02,0.00,0.88,-4,0,-2,12,0
'[13:15:01.288 21/01/2026]',-122291,-198095.3,-85719.7,716.5075,-375000,-375000,-149856.9,-227262.3,0.02,0.00,0.88,-4,0,-2,12,0
'[13:15:01.292 21/01/2026]',-122314.4,-198143.3,-85739.91,696.1227,-375000,-375000,-149883.6,-227298.4,0.02,0.00,0.88,-4,0,-2,12,0
'[13:15:01.296 21/01/2026]',-122357.2,-198212,-85772.63,655.9789,-375000,-375000,-149913.4,-227194.3,0.03,0.00,0.88,-4,0,-2,12,0
'[13:15:01.300 21/01/2026]',-122356.9,-198186.3,-85775.66,660.7623,-375000,-375000,-149918.6,-227137.1,0.03,0.00,0.88,-4,0,-2,12,0
'[13:15:01.304 21/01/2026]',-122324.8,-198135,-85744.15,679.9847,-375000,-375000,-149886.4,-227444.7,0.03,0.00,0.88,-4,0,-2,12,0
'[13:15:01.308 21/01/2026]',-122320.9,-198149.1,-85734,692.8146,-375000,-375000,-149875.1,-227501.1,0.03,0.00,0.88,-4,0,-2,12,0
'[13:15:01.312 21/01/2026]',-122356.2,-198207.7,-85766.28,670.0605,-375000,-375000,-149913.5,-227170.2,0.03,0.00,0.88,-4,0,-2,12,0
'[13:15:01.316 21/01/2026]',-122360.6,-198203.2,-85779.6,659.6447,-375000,-375000,-149927.2,-227039.8,0.03,0.00,0.88,-4,0,-2,12,0
'[13:15:01.320 21/01/2026]',-122320.7,-198143.8,-85746.97,683.874,-375000,-375000,-149893.5,-227333.8,0.03,0.00,0.88,-4,0,-2,12,0
'[13:15:01.324 21/01/2026]',-122299.6,-198126.2,-85726.05,715.524,-375000,-375000,-149873.2,-227329.4,0.03,0.00,0.88,-4,0,-2,12,0
'[13:15:01.328 21/01/2026]',-122330.1,-198196.6,-85751.34,677.7496,-375000,-375000,-149901.2,-227185.5,0.03,0.00,0.88,-4,0,-2,12,0
'[13:15:01.332 21/01/2026]',-122332.2,-198206.7,-85758.77,671.5805,-375000,-375000,-149912.1,-227142.7,0.03,0.02,0.88,-4,0,-2,12,0
'[13:15:01.336 21/01/2026]',-122298.9,-198133.3,-85731.27,699.2966,-375000,-375000,-149889.6,-227342,0.03,0.02,0.88,-4,0,-2,12,0
'[13:15:01.340 21/01/2026]',-122274,-198109.7,-85706.78,721.7825,-375000,-375000,-149871.5,-227492.9,0.03,0.02,0.88,-4,0,-2,12,0
'[13:15:01.344 21/01/2026]',-122309.1,-198175.8,-85737.98,696.1674,-375000,-375000,-149896,-227286,0.03,0.02,0.88,-4,0,-2,12,0
'[13:15:01.348 21/01/2026]',-122335,-198194.1,-85756.17,682.3093,-375000,-375000,-149912.2,-227002.5,0.03,0.02,0.88,-4,0,-2,12,0
'[13:15:01.352 21/01/2026]',-122302.2,-198132.2,-85733.11,703.1412,-375000,-375000,-149885.6,-227138.1,0.03,0.02,0.88,-4,0,-2,12,0
'[13:15:01.356 21/01/2026]',-122277.8,-198104.6,-85713.84,730.5444,-375000,-375000,-149861.3,-227329.8,0.03,0.02,0.88,-4,0,-2,12,0
'[13:15:01.360 21/01/2026]',-122316.9,-198173.8,-85743.03,695.631,-375000,-375000,-149899.1,-227204,0.03,0.02,0.88,-4,0,-2,12,0
'[13:15:01.364 21/01/2026]',-122332.5,-198208.2,-85755.77,681.3259,-375000,-375000,-149914.8,-227070.3,0.03,0.02,0.88,-4,0,-2,12,0
'[13:15:01.368 21/01/2026]',-122318.7,-198166.8,-85752.46,689.4619,-375000,-375000,-149903.8,-227172.3,0.02,0.00,0.88,-4,0,-2,12,0
'[13:15:01.372 21/01/2026]',-122287.9,-198124.7,-85725.69,713.0653,-375000,-375000,-149879.9,-227491.9,0.02,0.00,0.88,-4,0,-2,12,0
'[13:15:01.376 21/01/2026]',-122313.7,-198168.7,-85746.3,704.2141,-375000,-375000,-149894.6,-227371.5,0.02,0.00,0.88,-4,0,-2,12,0
'[13:15:01.380 21/01/2026]',-122349.5,-198220.8,-85779.24,675.8273,-375000,-375000,-149917,-227080.8,0.02,0.00,0.88,-4,0,-2,12,0
'[13:15:01.384 21/01/2026]',-122337.8,-198180.2,-85770.39,683.4269,-375000,-375000,-149905.5,-227148.5,0.02,0.00,0.88,-4,0,-2,12,0
'[13:15:01.388 21/01/2026]',-122303.1,-198129.1,-85736.91,712.7077,-375000,-375000,-149864.2,-227443.9,0.02,0.00,0.88,-4,0,-2,12,0
'[13:15:01.392 21/01/2026]',-122314.2,-198154.6,-85750.85,710.0255,-375000,-375000,-149879.3,-227327.3,0.02,0.00,0.88,-4,0,-2,12,0
'[13:15:01.396 21/01/2026]',-122352.8,-198220.8,-85783.18,672.2064,-375000,-375000,-149915.6,-227168.5,0.02,0.00,0.88,-4,0,-2,12,0
'[13:15:01.400 21/01/2026]',-122346.2,-198198,-85778.21,680.2083,-375000,-375000,-149903.1,-227220.7,0.02,0.00,0.88,-4,0,-2,12,0
'[13:15:01.404 21/01/2026]',-122301.1,-198127,-85735.43,719.9944,-375000,-375000,-149858.4,-227484.3,0.03,0.00,0.88,-4,0,-2,12,0
'[13:15:01.408 21/01/2026]',-122296.5,-198135.2,-85729.66,730.8126,-375000,-375000,-149860.2,-227502.8,0.03,0.00,0.88,-4,0,-2,12,0
'[13:15:01.412 21/01/2026]',-122340.3,-198205.7,-85769.32,694.6028,-375000,-375000,-149905.9,-227223.7,0.03,0.00,0.88,-4,0,-2,12,0
'[13:15:01.416 21/01/2026]',-122347,-198205,-85770.3,684.8127,-375000,-375000,-149912.1,-227099.1,0.03,0.00,0.88,-4,0,-2,12,0
'[13:15:01.420 21/01/2026]',-122316.4,-198156.1,-85740.93,699.9672,-375000,-375000,-149877.6,-227430.1,0.03,0.00,0.88,-4,0,-2,12,0
'[13:15:01.424 21/01/2026]',-122304.1,-198143.3,-85728.77,723.973,-375000,-375000,-149865.5,-227377.8,0.03,0.00,0.88,-4,0,-2,12,0
'[13:15:01.428 21/01/2026]',-122345.5,-198194.8,-85768.29,694.9604,-375000,-375000,-149895.8,-227122.4,0.03,0.00,0.88,-4,0,-2,12,0
'[13:15:01.432 21/01/2026]',-122351.1,-198199.6,-85780.05,693.3064,-375000,-375000,-149895.2,-226937.4,0.03,0.00,0.88,-4,0,-2,12,0
'[13:15:01.436 21/01/2026]',-122318.6,-198147,-85750.54,714.8535,-375000,-375000,-149859.4,-227206.8,0.03,0.00,0.88,-4,0,-2,12,0
'[13:15:01.440 21/01/2026]',-122303.1,-198132.3,-85735.3,736.4453,-375000,-375000,-149846.6,-227363.7,0.03,0.00,0.86,-4,0,-2,12,0
'[13:15:01.444 21/01/2026]',-122341.9,-198199.7,-85765.92,699.8778,-375000,-375000,-149889.8,-227163.5,0.03,0.00,0.86,-4,0,-2,12,0
'[13:15:01.448 21/01/2026]',-122358.1,-198221.4,-85782.15,687.8079,-375000,-375000,-149908.1,-227016.4,0.03,0.00,0.86,-4,0,-2,12,0
'[13:15:01.452 21/01/2026]',-122335.7,-198165.2,-85765.92,707.3433,-375000,-375000,-149885,-227213.1,0.03,0.00,0.86,-4,0,-2,12,0
'[13:15:01.456 21/01/2026]',-122296.7,-198123.1,-85729.09,745.2072,-375000,-375000,-149845.5,-227415.7,0.03,0.00,0.86,-4,0,-2,12,0
'[13:15:01.460 21/01/2026]',-122323.9,-198169.8,-85752.06,723.1683,-375000,-375000,-149872,-227260.8,0.03,0.00,0.86,-4,0,-2,12,0
'[13:15:01.464 21/01/2026]',-122347.5,-198214.9,-85775.98,695.184,-375000,-375000,-149899.7,-227079.4,0.03,0.00,0.86,-4,0,-2,12,0
'[13:15:01.468 21/01/2026]',-122321.7,-198166.5,-85757.92,710.7407,-375000,-375000,-149884.1,-227183.8,0.03,0.00,0.86,-4,0,-2,12,0
'[13:15:01.472 21/01/2026]',-122286.7,-198113.6,-85723.14,749.3198,-375000,-375000,-149845.2,-227422.3,0.03,0.00,0.86,-4,0,-2,12,0
'[13:15:01.476 21/01/2026]',-122309.2,-198152.2,-85738.92,735.4171,-375000,-375000,-149859.1,-227256.7,0.03,-0.02,0.88,-4,0,-2,12,0
'[13:15:01.480 21/01/2026]',-122346.9,-198221.4,-85774.95,692.457,-375000,-375000,-149897.2,-227168.1,0.03,-0.02,0.88,-4,0,-2,12,0
'[13:15:01.484 21/01/2026]',-122331.6,-198178.7,-85767.04,708.0139,-375000,-375000,-149885.2,-227156.6,0.03,-0.02,0.88,-4,0,-2,12,0
'[13:15:01.488 21/01/2026]',-122289,-198123,-85730.2,737.697,-375000,-375000,-149849.1,-227428.7,0.03,-0.02,0.88,-4,0,-2,12,0
'[13:15:01.492 21/01/2026]',-122301.2,-198142.3,-85732.44,741.452,-375000,-375000,-149854.4,-227258,0.03,-0.02,0.88,-4,0,-2,12,0
'[13:15:01.496 21/01/2026]',-122338.3,-198204.9,-85758.55,702.0236,-375000,-375000,-149884.8,-227055.5,0.03,-0.02,0.88,-4,0,-2,12,0
'[13:15:01.500 21/01/2026]',-122336.2,-198183.7,-85765.79,701.9789,-375000,-375000,-149888.1,-226980.7,0.03,-0.02,0.88,-4,0,-2,12,0
'[13:15:01.504 21/01/2026]',-122302.5,-198125.6,-85733.96,726.9234,-375000,-375000,-149852.4,-227281.2,0.03,-0.02,0.88,-4,0,-2,12,0
'[13:15:01.508 21/01/2026]',-122302.6,-198132.1,-85732.08,737.9205,-375000,-375000,-149856.7,-227228.2,0.03,-0.02,0.88,-4,0,-2,12,0
'[13:15:01.512 21/01/2026]',-122343,-198202.3,-85766.19,694.9604,-375000,-375000,-149895.8,-227071.7,0.03,0.00,0.88,-4,0,-2,12,0
'[13:15:01.516 21/01/2026]',-122347.5,-198199.5,-85773.07,692.01,-375000,-375000,-149902.1,-226948.3,0.03,0.00,0.88,-4,0,-2,12,0
'[13:15:01.520 21/01/2026]',-122315,-198146.4,-85742.59,715.7476,-375000,-375000,-149871.4,-227233.7,0.03,0.00,0.88,-4,0,-2,12,0
'[13:15:01.524 21/01/2026]',-122302.6,-198136.2,-85735.43,738.6357,-375000,-375000,-149858.2,-227256,0.03,0.00,0.88,-4,0,-2,12,0
'[13:15:01.528 21/01/2026]',-122344.6,-198195.9,-85772.4,698.2685,-375000,-375000,-149896.4,-227013.7,0.03,0.00,0.88,-4,0,-2,12,0
'[13:15:01.532 21/01/2026]',-122355.6,-198213.3,-85787.87,684.9915,-375000,-375000,-149903.2,-226950.5,0.03,0.00,0.88,-4,0,-2,12,0
'[13:15:01.536 21/01/2026]',-122315.9,-198140.2,-85755.95,715.7476,-375000,-375000,-149874.6,-227113.1,0.03,0.00,0.88,-4,0,-2,12,0
'[13:15:01.540 21/01/2026]',-122296,-198125.7,-85729.27,738.2334,-375000,-375000,-149854.4,-227257.4,0.03,0.00,0.88,-4,0,-2,12,0
'[13:15:01.544 21/01/2026]',-122334.4,-198186.5,-85761.23,700.5931,-375000,-375000,-149895.3,-227088,0.03,0.00,0.88,-4,0,-2,12,0
'[13:15:01.548 21/01/2026]',-122351.7,-198218.7,-85779.02,680.9235,-375000,-375000,-149907.8,-226895,0.03,-0.02,0.89,-4,0,-2,12,0
'[13:15:01.552 21/01/2026]',-122332.1,-198187.8,-85762.16,684.5892,-375000,-375000,-149902.2,-227247.9,0.03,-0.02,0.89,-4,0,-2,12,0
'[13:15:01.556 21/01/2026]',-122300.5,-198134.4,-85725.33,726.5211,-375000,-375000,-149866.3,-227443.8,0.03,-0.02,0.89,-4,0,-2,12,0
'[13:15:01.560 21/01/2026]',-122325.4,-198177,-85746.79,710.6066,-375000,-375000,-149876.4,-227196,0.03,-0.02,0.89,-4,0,-2,12,0
'[13:15:01.564 21/01/2026]',-122353.2,-198220.7,-85780.94,681.2365,-375000,-375000,-149901.8,-226998.3,0.03,-0.02,0.89,-4,0,-2,12,0
'[13:15:01.568 21/01/2026]',-122332.5,-198174.2,-85769.36,693.9769,-375000,-375000,-149887.9,-227081.3,0.03,-0.02,0.89,-4,0,-2,12,0
'[13:15:01.572 21/01/2026]',-122301.5,-198131.3,-85739.27,726.1635,-375000,-375000,-149855.2,-227328.1,0.03,-0.02,0.89,-4,0,-2,12,0
'[13:15:01.576 21/01/2026]',-122325.5,-198171.9,-85755.64,716.3287,-375000,-375000,-149880.8,-227139.8,0.03,-0.02,0.89,-4,0,-2,12,0
'[13:15:01.580 21/01/2026]',-122350.4,-198225.7,-85777.01,687.3161,-375000,-375000,-149906.7,-226950.7,0.03,-0.02,0.89,-4,0,-2,12,0
'[13:15:01.584 21/01/2026]',-122336.5,-198194.4,-85764.4,699.6543,-375000,-375000,-149884.2,-226956.2,0.03,0.00,0.88,-4,0,-2,12,0
'[13:15:01.588 21/01/2026]',-122298.6,-198143.9,-85729.45,726.5211,-375000,-375000,-149849.9,-227303.8,0.03,0.00,0.88,-4,0,-2,12,0
'[13:15:01.592 21/01/2026]',-122305.6,-198150.7,-85734.09,735.9982,-375000,-375000,-149855.4,-227246.6,0.03,0.00,0.88,-4,0,-2,12,0
'[13:15:01.596 21/01/2026]',-122352.8,-198214.5,-85771.06,702.56,-375000,-375000,-149897.2,-226837.3,0.03,0.00,0.88,-4,0,-2,12,0
'[13:15:01.600 21/01/2026]',-122341.9,-198214.1,-85767.13,685.3492,-375000,-375000,-149905.1,-226988.4,0.03,0.00,0.88,-4,0,-2,12,0
'[13:15:01.604 21/01/2026]',-122290.8,-198139,-85731.05,715.7476,-375000,-375000,-149873.9,-227302.5,0.03,0.00,0.88,-4,0,-2,12,0
'[13:15:01.608 21/01/2026]',-122323.4,-198161.4,-85748.09,723.8389,-375000,-375000,-149870.3,-227205.2,0.03,0.00,0.88,-4,0,-2,12,0
'[13:15:01.612 21/01/2026]',-122401.2,-198256.2,-85801.51,670.0605,-375000,-375000,-149909.4,-227019.1,0.03,0.00,0.88,-4,0,-2,12,0
'[13:15:01.616 21/01/2026]',-122387.3,-198233.7,-85794.44,675.7826,-375000,-375000,-149911,-226892.1,0.03,0.00,0.88,-4,0,-2,12,0
'[13:15:01.620 21/01/2026]',-122348.4,-198164.6,-85754.16,708.6844,-375000,-375000,-149867.6,-227173.6,0.03,0.02,0.89,-4,0,-2,12,0
'[13:15:01.624 21/01/2026]',-122350.1,-198169,-85741.83,724.5988,-375000,-375000,-149848.7,-227265.1,0.03,0.02,0.89,-4,0,-2,12,0
'[13:15:01.628 21/01/2026]',-122399.1,-198244.1,-85787.02,687.2267,-375000,-375000,-149898.4,-227025.5,0.03,0.02,0.89,-4,0,-2,12,0
'[13:15:01.632 21/01/2026]',-122420.8,-198265.1,-85810.76,670.0605,-375000,-375000,-149916.9,-226798,0.03,0.02,0.89,-4,0,-2,12,0
'[13:15:01.636 21/01/2026]',-122387.3,-198213,-85781.03,684.3657,-375000,-375000,-149888.4,-227053.3,0.03,0.02,0.89,-4,0,-2,12,0
'[13:15:01.640 21/01/2026]',-122359.3,-198182.7,-85760.47,712.3948,-375000,-375000,-149865.9,-227263.8,0.03,0.02,0.89,-4,0,-2,12,0
'[13:15:01.644 21/01/2026]',-122394.4,-198241.7,-85796.37,675.7826,-375000,-375000,-149906.8,-227058.7,0.03,0.02,0.89,-4,0,-2,12,0
'[13:15:01.648 21/01/2026]',-122410.4,-198269.9,-85812.41,657.7224,-375000,-375000,-149926.4,-226865.1,0.03,0.02,0.89,-4,0,-2,12,0
'[13:15:01.652 21/01/2026]',-122372.8,-198207.8,-85779.73,683.9186,-375000,-375000,-149880.7,-227068,0.03,0.02,0.89,-4,0,-2,12,0
'[13:15:01.656 21/01/2026]',-122325,-198162.9,-85741.83,717.7592,-375000,-375000,-149843.5,-227327.5,0.03,0.00,0.89,-4,0,-2,12,0
'[13:15:01.660 21/01/2026]',-122358.2,-198223.2,-85777.32,693.0829,-375000,-375000,-149888.1,-227177.8,0.03,0.00,0.89,-4,0,-2,12,0
'[13:15:01.664 21/01/2026]',-122408.8,-198278.3,-85813.89,658.3929,-375000,-375000,-149926.3,-226946.2,0.03,0.00,0.89,-4,0,-2,12,0
'[13:15:01.668 21/01/2026]',-122389.3,-198222.9,-85792.48,672.0722,-375000,-375000,-149908.8,-227042.3,0.03,0.00,0.89,-4,0,-2,12,0
'[13:15:01.672 21/01/2026]',-122341,-198161.5,-85748.62,711.6348,-375000,-375000,-149868.6,-227328.7,0.03,0.00,0.89,-4,0,-2,12,0
'[13:15:01.676 21/01/2026]',-122351.9,-198192.5,-85760.55,702.6941,-375000,-375000,-149888.3,-227155,0.03,0.00,0.89,-4,0,-2,12,0
'[13:15:01.680 21/01/2026]',-122374.4,-198237.7,-85779.11,674.7097,-375000,-375000,-149913.5,-226949.5,0.03,0.00,0.89,-4,0,-2,12,0
'[13:15:01.684 21/01/2026]',-122361.4,-198207.2,-85772.23,680.7894,-375000,-375000,-149901.1,-226975.4,0.03,0.00,0.89,-4,0,-2,12,0
'[13:15:01.688 21/01/2026]',-122326.7,-198164.2,-85751.17,700.1907,-375000,-375000,-149873.4,-227382.8,0.03,0.00,0.89,-4,0,-2,12,0
'[13:15:01.692 21/01/2026]',-122325.8,-198171,-85751.26,715.077,-375000,-375000,-149879.7,-227365.2,0.03,0.00,0.88,-4,0,-2,12,0
'[13:15:01.696 21/01/2026]',-122369.3,-198227.9,-85794.84,684.9021,-375000,-375000,-149932.5,-226978.8,0.03,0.00,0.88,-4,0,-2,12,0
'[13:15:01.700 21/01/2026]',-122369.6,-198220.9,-85788.05,676.9896,-375000,-375000,-149932.8,-226910.7,0.03,0.00,0.88,-4,0,-2,12,0
'[13:15:01.704 21/01/2026]',-122324.7,-198158,-85737.8,710.8301,-375000,-375000,-149880.3,-227211,0.03,0.00,0.88,-4,0,-2,12,0
'[13:15:01.708 21/01/2026]',-122322.8,-198163.5,-85746.07,722.9448,-375000,-375000,-149875.5,-227157.9,0.03,0.00,0.88,-4,0,-2,12,0
'[13:15:01.712 21/01/2026]',-122362,-198223,-85783.27,682.0411,-375000,-375000,-149912,-226990.8,0.03,0.00,0.88,-4,0,-2,12,0
'[13:15:01.716 21/01/2026]',-122380.8,-198230.1,-85796.41,671.2228,-375000,-375000,-149918.5,-226841,0.03,0.00,0.88,-4,0,-2,12,0
'[13:15:01.720 21/01/2026]',-122337.1,-198170.7,-85753.41,701.4424,-375000,-375000,-149865.6,-227217.3,0.03,0.00,0.88,-4,0,-2,12,0
'[13:15:01.724 21/01/2026]',-122324.3,-198152.9,-85745,726.6552,-375000,-375000,-149852,-227358.2,0.03,0.00,0.88,-4,0,-2,12,0
'[13:15:01.728 21/01/2026]',-122387.1,-198232.2,-85798.02,686.1985,-375000,-375000,-149900.9,-227031.9,0.03,0.00,0.89,-4,0,-2,12,0
'[13:15:01.732 21/01/2026]',-122417.2,-198273.9,-85818.13,659.7787,-375000,-375000,-149918.5,-226882.5,0.03,0.00,0.89,-4,0,-2,12,0
'[13:15:01.736 21/01/2026]',-122395.9,-198230.9,-85795.52,675.0226,-375000,-375000,-149893,-227086.9,0.03,0.00,0.89,-4,0,-2,12,0
'[13:15:01.740 21/01/2026]',-122380.7,-198210.8,-85772.72,711.1431,-375000,-375000,-149861.7,-227200.3,0.03,0.00,0.89,-4,0,-2,12,0
'[13:15:01.744 21/01/2026]',-122437.1,-198299.2,-85813.66,667.5572,-375000,-375000,-149908.5,-227013,0.03,0.00,0.89,-4,0,-2,12,0
'[13:15:01.748 21/01/2026]',-122469.4,-198356.6,-85835.13,642.4338,-375000,-375000,-149926.6,-226845.1,0.03,0.00,0.89,-4,0,-2,12,0
'[13:15:01.752 21/01/2026]',-122466.6,-198320.9,-85822.29,650.4805,-375000,-375000,-149909.3,-227000.1,0.03,0.00,0.89,-4,0,-2,12,0
'[13:15:01.756 21/01/2026]',-122454.4,-198293.5,-85792.52,669.0324,-375000,-375000,-149874.3,-227313,0.03,0.00,0.89,-4,0,-2,12,0
'[13:15:01.760 21/01/2026]',-122502.6,-198365.1,-85826.27,644.5796,-375000,-375000,-149907.7,-227193.2,0.03,0.00,0.89,-4,0,-2,12,0
'[13:15:01.764 21/01/2026]',-122578,-198453.8,-85876.38,599.1608,-375000,-375000,-149950.1,-226824.8,0.03,0.00,0.88,-4,0,-2,12,0
'[13:15:01.768 21/01/2026]',-122598.8,-198453.4,-85879.06,598.7138,-375000,-375000,-149926.7,-226958,0.03,0.00,0.88,-4,0,-2,12,0
'[13:15:01.772 21/01/2026]',-122596.5,-198442,-85851.57,625.0889,-375000,-375000,-149880.1,-227261,0.03,0.00,0.88,-4,0,-2,12,0
'[13:15:01.776 21/01/2026]',-122656.5,-198513.8,-85881.75,597.7303,-375000,-375000,-149908.2,-227113.8,0.03,0.00,0.88,-4,0,-2,12,0
'[13:15:01.780 21/01/2026]',-122722.2,-198604,-85934.99,538.4088,-375000,-375000,-149957.3,-226956,0.03,0.00,0.88,-4,0,-2,12,0
'[13:15:01.784 21/01/2026]',-122714.3,-198589.1,-85924.35,547.4389,-375000,-375000,-149939.4,-226970.4,0.03,0.00,0.88,-4,0,-2,12,0
'[13:15:01.788 21/01/2026]',-122680.3,-198542.4,-85885.55,579.2231,-375000,-375000,-149892.5,-227354.6,0.03,0.00,0.88,-4,0,-2,12,0
'[13:15:01.792 21/01/2026]',-122704,-198567.4,-85907.63,576.7644,-375000,-375000,-149914.3,-227282.5,0.03,0.00,0.88,-4,0,-2,12,0
'[13:15:01.796 21/01/2026]',-122752.8,-198658.5,-85944.2,537.5147,-375000,-375000,-149945.9,-226978.2,0.03,0.00,0.88,-4,0,-2,12,0
'[13:15:01.800 21/01/2026]',-122759.4,-198658.1,-85949.56,526.5177,-375000,-375000,-149951.5,-226947.5,0.03,-0.02,0.89,-4,0,-2,12,0
'[13:15:01.804 21/01/2026]',-122712.1,-198576.3,-85913.62,557.5866,-375000,-375000,-149913.6,-227270.3,0.03,-0.02,0.89,-4,0,-2,12,0
'[13:15:01.808 21/01/2026]',-122690.7,-198540.5,-85891.13,592.5,-375000,-375000,-149894.6,-227184.3,0.03,-0.02,0.89,-4,0,-2,12,0
'[13:15:01.812 21/01/2026]',-122718.7,-198604.5,-85917.33,554.9938,-375000,-375000,-149928.1,-227035.1,0.03,-0.02,0.89,-4,0,-2,12,0
'[13:15:01.816 21/01/2026]',-122711.3,-198602.4,-85923.63,552.8928,-375000,-375000,-149928.8,-226948.7,0.03,-0.02,0.89,-4,0,-2,12,0
'[13:15:01.820 21/01/2026]',-122658.9,-198529.1,-85891.54,582.8888,-375000,-375000,-149898.3,-227155.5,0.03,-0.02,0.89,-4,0,-2,12,0
'[13:15:01.824 21/01/2026]',-122638.4,-198497.1,-85879.06,604.3464,-375000,-375000,-149892.5,-227272,0.03,-0.02,0.89,-4,0,-2,12,0
'[13:15:01.828 21/01/2026]',-122658.3,-198522.6,-85895.88,597.5068,-375000,-375000,-149906,-226928.3,0.03,-0.02,0.89,-4,0,-2,12,0
'[13:15:01.832 21/01/2026]',-122655.1,-198517.9,-85902.31,585.7498,-375000,-375000,-149927.4,-226708.7,0.03,-0.02,0.89,-4,0,-2,12,0
'[13:15:01.836 21/01/2026]',-122613.4,-198447.4,-85869.68,611.5884,-375000,-375000,-149899.1,-226935.4,0.03,0.00,0.89,-4,0,-2,12,0
'[13:15:01.840 21/01/2026]',-122578.5,-198419.3,-85847.19,638.8575,-375000,-375000,-149881.7,-227156.7,0.03,0.00,0.89,-4,0,-2,12,0
'[13:15:01.844 21/01/2026]',-122600.1,-198461.7,-85871.91,612.706,-375000,-375000,-149901.3,-226988.8,0.03,0.00,0.89,-4,0,-2,12,0
'[13:15:01.848 21/01/2026]',-122601.2,-198469.3,-85876.07,606.3134,-375000,-375000,-149907.3,-226793.7,0.03,0.00,0.89,-4,0,-2,12,0
'[13:15:01.852 21/01/2026]',-122564.2,-198407,-85858.19,622.0938,-375000,-375000,-149897.4,-226974.8,0.03,0.00,0.89,-4,0,-2,12,0
'[13:15:01.856 21/01/2026]',-122521.3,-198360.2,-85831.45,644.8925,-375000,-375000,-149885.4,-227293.5,0.03,0.00,0.89,-4,0,-2,12,0
'[13:15:01.860 21/01/2026]',-122517.4,-198364.1,-85829.76,655.2637,-375000,-375000,-149889.4,-227067.6,0.03,0.00,0.89,-4,0,-2,12,0
'[13:15:01.864 21/01/2026]',-122542.1,-198398.1,-85856.35,629.3357,-375000,-375000,-149921.2,-226734.5,0.03,0.00,0.89,-4,0,-2,12,0
'[13:15:01.868 21/01/2026]',-122519.4,-198363.3,-85844.11,631.7497,-375000,-375000,-149906,-226838.5,0.03,0.00,0.89,-4,0,-2,12,0
'[13:15:01.872 21/01/2026]',-122469.5,-198305.2,-85805.98,666.6631,-375000,-375000,-149872.1,-227102.8,0.03,0.00,0.88,-4,0,-2,12,0
'[13:15:01.876 21/01/2026]',-122483.8,-198337.8,-85825.06,653.2968,-375000,-375000,-149900.7,-226930.4,0.03,0.00,0.88,-4,0,-2,12,0
'[13:15:01.880 21/01/2026]',-122515.8,-198392,-85857.88,612.3036,-375000,-375000,-149940.7,-226760.6,0.03,0.00,0.88,-4,0,-2,12,0
'[13:15:01.884 21/01/2026]',-122480.7,-198345,-85834.95,633.5825,-375000,-375000,-149920.7,-226762.5,0.03,0.00,0.88,-4,0,-2,12,0
'[13:15:01.888 21/01/2026]',-122425.7,-198273,-85781.84,670.597,-375000,-375000,-149874.1,-227067.2,0.03,0.00,0.88,-4,0,-2,12,0
'[13:15:01.892 21/01/2026]',-122426.6,-198284.2,-85780.8,673.458,-375000,-375000,-149881.5,-227080.2,0.03,0.00,0.88,-4,0,-2,12,0
'[13:15:01.896 21/01/2026]',-122474.1,-198346.5,-85827.43,631.1238,-375000,-375000,-149938.7,-226758.3,0.03,0.00,0.88,-4,0,-2,12,0
'[13:15:01.900 21/01/2026]',-122465.7,-198331.1,-85831.23,624.3289,-375000,-375000,-149940,-226742.5,0.03,0.00,0.88,-4,0,-2,12,0
'[13:15:01.904 21/01/2026]',-122423.9,-198276.1,-85809.46,650.6146,-375000,-375000,-149900.9,-227110.1,0.03,0.00,0.88,-4,0,-2,12,0
'[13:15:01.908 21/01/2026]',-122408,-198261.6,-85797.57,675.4697,-375000,-375000,-149888.9,-227081.1,0.02,0.00,0.88,-4,0,-2,12,0
'[13:15:01.912 21/01/2026]',-122450.2,-198323.1,-85836.15,630.3192,-375000,-375000,-149930.7,-226948.7,0.02,0.00,0.88,-4,0,-2,12,0
'[13:15:01.916 21/01/2026]',-122456.8,-198312.6,-85846.07,628.4417,-375000,-375000,-149940.3,-226742.4,0.02,0.00,0.88,-4,0,-2,12,0
'[13:15:01.920 21/01/2026]',-122408.8,-198250.3,-85806.06,654.5038,-375000,-375000,-149903.6,-227014.8,0.02,0.00,0.88,-4,0,-2,12,0
'[13:15:01.924 21/01/2026]',-122388.2,-198237.7,-85786.62,672.4745,-375000,-375000,-149886.9,-227243.4,0.02,0.00,0.88,-4,0,-2,12,0
'[13:15:01.928 21/01/2026]',-122424.8,-198286.2,-85821.84,650.9722,-375000,-375000,-149927.4,-226895.3,0.02,0.00,0.88,-4,0,-2,12,0
'[13:15:01.932 21/01/2026]',-122444.5,-198305.8,-85837.49,629.2463,-375000,-375000,-149948.2,-226670,0.02,0.00,0.88,-4,0,-2,12,0
'[13:15:01.936 21/01/2026]',-122417.7,-198261.9,-85811.3,637.7847,-375000,-375000,-149931.1,-226948.7,0.02,0.00,0.88,-4,0,-2,12,0
'[13:15:01.940 21/01/2026]',-122379.6,-198217.5,-85779.2,679.046,-375000,-375000,-149898.7,-227083,0.02,0.00,0.88,-4,0,-2,12,0
'[13:15:01.944 21/01/2026]',-122399.9,-198253.9,-85797.88,664.2491,-375000,-375000,-149915.9,-226811.2,0.03,0.00,0.88,-4,0,-2,12,0
'[13:15:01.948 21/01/2026]',-122418.5,-198285.8,-85817.82,643.5067,-375000,-375000,-149933.6,-226693.6,0.03,0.00,0.88,-4,0,-2,12,0
'[13:15:01.952 21/01/2026]',-122392.8,-198238.1,-85798.64,660.047,-375000,-375000,-149916.8,-226880.6,0.03,0.00,0.88,-4,0,-2,12,0
'[13:15:01.956 21/01/2026]',-122343.8,-198186.5,-85753.18,697.4191,-375000,-375000,-149871.2,-227230.6,0.03,0.00,0.88,-4,0,-2,12,0
'[13:15:01.960 21/01/2026]',-122369,-198225.8,-85776.2,681.2365,-375000,-375000,-149901.3,-227063.7,0.03,0.00,0.88,-4,0,-2,12,0
'[13:15:01.964 21/01/2026]',-122409.1,-198282.9,-85813.93,644.5796,-375000,-375000,-149931.7,-226773.8,0.03,0.00,0.88,-4,0,-2,12,0
'[13:15:01.968 21/01/2026]',-122392.9,-198238.3,-85802.76,657.1412,-375000,-375000,-149917.8,-226831.8,0.03,0.00,0.88,-4,0,-2,12,0
'[13:15:01.972 21/01/2026]',-122362.1,-198200.8,-85772.31,681.7282,-375000,-375000,-149892.1,-227163.4,0.03,0.00,0.88,-4,0,-2,12,0
'[13:15:01.976 21/01/2026]',-122385.1,-198238.4,-85794.27,669.9712,-375000,-375000,-149919.8,-227019.8,0.03,0.00,0.88,-4,0,-2,12,0
'[13:15:01.980 21/01/2026]',-122426.3,-198301.1,-85821.76,629.2463,-375000,-375000,-149957.5,-226803,0.02,0.00,0.88,-4,0,-2,12,0
'[13:15:01.984 21/01/2026]',-122414.6,-198280,-85810.67,635.1472,-375000,-375000,-149940.8,-226893.3,0.02,0.00,0.88,-4,0,-2,12,0
'[13:15:01.988 21/01/2026]',-122369.5,-198217.8,-85780.85,672.0722,-375000,-375000,-149899.8,-227277.8,0.02,0.00,0.88,-4,0,-2,12,0
'[13:15:01.992 21/01/2026]',-122371.8,-198229.4,-85795.47,673.9945,-375000,-375000,-149912.7,-227280.3,0.02,0.00,0.88,-4,0,-2,12,0
'[13:15:01.996 21/01/2026]',-122418.4,-198288.4,-85836.55,639.2599,-375000,-375000,-149957.3,-226933.6,0.02,0.00,0.88,-4,0,-2,12,0
'[13:15:02.000 21/01/2026]',-122411.6,-198265,-85823.81,646.7701,-375000,-375000,-149943.4,-226864.7,0.02,0.00,0.88,-4,0,-2,12,0
'[13:15:02.004 21/01/2026]',-122363.8,-198195.9,-85782.64,679.1801,-375000,-375000,-149906.4,-227149.1,0.02,0.00,0.88,-4,0,-2,12,0
'[13:15:02.008 21/01/2026]',-122358.8,-198201.5,-85777.37,692.5017,-375000,-375000,-149914.6,-227140.8,0.02,0.00,0.88,-4,0,-2,12,0
'[13:15:02.012 21/01/2026]',-122408.7,-198288.5,-85820.23,635.6389,-375000,-375000,-149963.3,-227092.4,0.02,0.00,0.88,-4,0,-2,12,0
'[13:15:02.016 21/01/2026]',-122412.7,-198279.9,-85829.31,634.119,-375000,-375000,-149955.1,-226966.1,0.03,0.00,0.88,-4,0,-2,12,0
'[13:15:02.020 21/01/2026]',-122376.6,-198217.8,-85798.51,660.3599,-375000,-375000,-149911.7,-227208.2,0.03,0.00,0.88,-4,0,-2,12,0
'[13:15:02.024 21/01/2026]',-122353.4,-198201.3,-85776.91,681.3259,-375000,-375000,-149891.3,-227412.9,0.03,0.00,0.88,-4,0,-2,12,0
'[13:15:02.028 21/01/2026]',-122397.9,-198258.7,-85813.35,655.1743,-375000,-375000,-149934.8,-227102.6,0.03,0.00,0.88,-4,0,-2,12,0
'[13:15:02.032 21/01/2026]',-122421,-198282,-85833.83,632.7779,-375000,-375000,-149956.8,-226862.7,0.03,0.00,0.88,-4,0,-2,12,0
'[13:15:02.036 21/01/2026]',-122387,-198232,-85809.41,649.6758,-375000,-375000,-149932,-227123.4,0.03,0.00,0.88,-4,0,-2,12,0
'[13:15:02.040 21/01/2026]',-122360.1,-198201.3,-85784.38,680.3423,-375000,-375000,-149908.1,-227309.3,0.03,0.00,0.88,-4,0,-2,12,0
'[13:15:02.044 21/01/2026]',-122401,-198260.2,-85812.32,647.3065,-375000,-375000,-149941.4,-227145.2,0.03,0.00,0.88,-4,0,-2,12,0
'[13:15:02.048 21/01/2026]',-122421.1,-198285,-85830.88,627.9052,-375000,-375000,-149964.1,-226936.6,0.03,0.00,0.88,-4,0,-2,12,0
'[13:15:02.052 21/01/2026]',-122391.8,-198230.9,-85806.29,648.6476,-375000,-375000,-149935.1,-227028.2,0.03,0.00,0.89,-4,0,-2,12,0
'[13:15:02.056 21/01/2026]',-122355.8,-198202.3,-85772.89,671.8934,-375000,-375000,-149897.9,-227479.2,0.03,0.00,0.89,-4,0,-2,12,0
'[13:15:02.060 21/01/2026]',-122385,-198245.1,-85801.95,660.7623,-375000,-375000,-149940.2,-227313.6,0.03,0.00,0.89,-4,0,-2,12,0
'[13:15:02.064 21/01/2026]',-122423.9,-198297.9,-85834.85,630.498,-375000,-375000,-149970.1,-226977.7,0.03,0.00,0.89,-4,0,-2,12,0
'[13:15:02.068 21/01/2026]',-122395.6,-198242,-85809.41,653.565,-375000,-375000,-149934.6,-227035.8,0.03,0.00,0.89,-4,0,-2,12,0
'[13:15:02.072 21/01/2026]',-122350.9,-198185.3,-85769.41,691.5629,-375000,-375000,-149890.2,-227331.8,0.03,0.00,0.89,-4,0,-2,12,0
'[13:15:02.076 21/01/2026]',-122376.3,-198224.6,-85789.93,676.2744,-375000,-375000,-149915.6,-227155,0.03,0.00,0.89,-4,0,-2,12,0
'[13:15:02.080 21/01/2026]',-122409.1,-198282,-85814.34,639.394,-375000,-375000,-149947.5,-226961.3,0.03,0.00,0.89,-4,0,-2,12,0
'[13:15:02.084 21/01/2026]',-122395.9,-198243.4,-85806.06,657.633,-375000,-375000,-149935.3,-226915.7,0.03,0.00,0.89,-4,0,-2,12,0
'[13:15:02.088 21/01/2026]',-122366.6,-198205.5,-85779.55,670.8206,-375000,-375000,-149913.6,-227316.2,0.03,0.00,0.88,-4,0,-2,12,0
'[13:15:02.092 21/01/2026]',-122365.1,-198228.9,-85782.15,669.6135,-375000,-375000,-149919.6,-227443,0.03,0.00,0.88,-4,0,-2,12,0
'[13:15:02.096 21/01/2026]',-122399.5,-198285.9,-85811.16,643.015,-375000,-375000,-149948.2,-227091.6,0.03,0.00,0.88,-4,0,-2,12,0
'[13:15:02.100 21/01/2026]',-122391.4,-198255.7,-85797.17,650.0334,-375000,-375000,-149926.7,-227007.5,0.03,0.00,0.88,-4,0,-2,12,0
'[13:15:02.104 21/01/2026]',-122354.8,-198193.6,-85765.2,681.3259,-375000,-375000,-149882.3,-227361.1,0.03,0.00,0.88,-4,0,-2,12,0
'[13:15:02.108 21/01/2026]',-122355.4,-198191.2,-85771.06,696.6144,-375000,-375000,-149887.9,-227325.4,0.03,0.00,0.88,-4,0,-2,12,0
'[13:15:02.112 21/01/2026]',-122392.1,-198259.8,-85805.39,650.3463,-375000,-375000,-149935.1,-227108.2,0.03,0.00,0.88,-4,0,-2,12,0
'[13:15:02.116 21/01/2026]',-122396.1,-198259.7,-85806.73,651.2404,-375000,-375000,-149934.9,-226903.6,0.03,0.00,0.88,-4,0,-2,12,0
'[13:15:02.120 21/01/2026]',-122361.7,-198209.6,-85774.28,672.4745,-375000,-375000,-149897.9,-227282,0.03,0.00,0.88,-4,0,-2,12,0
'[13:15:02.124 21/01/2026]',-122336.1,-198180.7,-85753.49,696.4356,-375000,-375000,-149879.1,-227470,0.03,0.00,0.88,-4,0,-2,12,0
'[13:15:02.128 21/01/2026]',-122379.6,-198242.1,-85792.88,665.9926,-375000,-375000,-149920.5,-227128.2,0.03,0.00,0.88,-4,0,-2,12,0
'[13:15:02.132 21/01/2026]',-122402.4,-198268.5,-85811.52,641.6738,-375000,-375000,-149940.6,-226823.6,0.03,0.00,0.88,-4,0,-2,12,0
'[13:15:02.136 21/01/2026]',-122368,-198216.4,-85783.4,661.7457,-375000,-375000,-149902,-227020.4,0.03,0.00,0.88,-4,0,-2,12,0
'[13:15:02.140 21/01/2026]',-122342.8,-198199.1,-85765.38,684.0081,-375000,-375000,-149875,-227244,0.03,0.00,0.88,-4,0,-2,12,0
'[13:15:02.144 21/01/2026]',-122371.4,-198254.6,-85784.61,654.5931,-375000,-375000,-149898.6,-226975,0.03,0.00,0.88,-4,0,-2,12,0
'[13:15:02.148 21/01/2026]',-122380.8,-198266.3,-85791.8,644.8925,-375000,-375000,-149901.7,-226705.4,0.03,0.00,0.88,-4,0,-2,12,0
'[13:15:02.152 21/01/2026]',-122354,-198212.9,-85766.41,671.6699,-375000,-375000,-149874.8,-226825.4,0.03,0.00,0.88,-4,0,-2,12,0
'[13:15:02.156 21/01/2026]',-122324.2,-198181.9,-85743.61,693.2617,-375000,-375000,-149849.4,-227335.8,0.03,0.00,0.88,-4,0,-2,12,0
'[13:15:02.160 21/01/2026]',-122363.4,-198223.8,-85783.84,676.9449,-375000,-375000,-149897,-227172.7,0.03,0.00,0.89,-4,0,-2,12,0
'[13:15:02.164 21/01/2026]',-122402.9,-198273.1,-85821.04,650.1675,-375000,-375000,-149942.4,-226825.4,0.03,0.00,0.89,-4,0,-2,12,0
'[13:15:02.168 21/01/2026]',-122381.4,-198233.1,-85801.99,661.7904,-375000,-375000,-149922.8,-226868.5,0.03,0.00,0.89,-4,0,-2,12,0
'[13:15:02.172 21/01/2026]',-122342.5,-198188.6,-85762.61,691.3842,-375000,-375000,-149883,-227231.5,0.03,0.00,0.89,-4,0,-2,12,0
'[13:15:02.176 21/01/2026]',-122361.9,-198218.7,-85778.08,684.1869,-375000,-375000,-149906.8,-227083.3,0.03,0.00,0.89,-4,0,-2,12,0
'[13:15:02.180 21/01/2026]',-122395.1,-198268,-85805.75,650.3911,-375000,-375000,-149930.5,-226856.5,0.03,0.00,0.89,-4,0,-2,12,0
'[13:15:02.184 21/01/2026]',-122374.2,-198214.1,-85797.21,663.5786,-375000,-375000,-149924.2,-226808.4,0.03,0.00,0.89,-4,0,-2,12,0
'[13:15:02.188 21/01/2026]',-122323.4,-198137.7,-85759.17,693.5299,-375000,-375000,-149886.2,-227143,0.03,0.00,0.89,-4,0,-2,12,0
'[13:15:02.192 21/01/2026]',-122355.7,-198182.6,-85770.08,693.7534,-375000,-375000,-149881.3,-227095.7,0.03,0.00,0.89,-4,0,-2,12,0
'[13:15:02.196 21/01/2026]',-122439.9,-198319.7,-85827.88,632.3308,-375000,-375000,-149930.5,-226835.1,0.03,0.00,0.88,-4,0,-2,12,0
'[13:15:02.200 21/01/2026]',-122433,-198319.7,-85836.46,615.6564,-375000,-375000,-149951.8,-226819.4,0.03,0.00,0.88,-4,0,-2,12,0
'[13:15:02.204 21/01/2026]',-122413.8,-198273.6,-85813.44,636.0859,-375000,-375000,-149924.7,-227135.4,0.03,0.00,0.88,-4,0,-2,12,0
'[13:15:02.208 21/01/2026]',-122418.5,-198277.7,-85805.75,655.9789,-375000,-375000,-149913,-227096.1,0.03,0.00,0.88,-4,0,-2,12,0
'[13:15:02.212 21/01/2026]',-122448.1,-198338.6,-85833.6,614.9859,-375000,-375000,-149951.5,-226876.9,0.03,0.00,0.88,-4,0,-2,12,0
'[13:15:02.216 21/01/2026]',-122464.4,-198340.3,-85851.21,604.3018,-375000,-375000,-149966.8,-226767.5,0.03,0.00,0.88,-4,0,-2,12,0
'[13:15:02.220 21/01/2026]',-122431.9,-198286.1,-85819.84,626.1617,-375000,-375000,-149928.7,-227062.7,0.03,0.00,0.88,-4,0,-2,12,0
'[13:15:02.224 21/01/2026]',-122400.3,-198267.7,-85789.75,655.4425,-375000,-375000,-149897.7,-227258.1,0.03,0.00,0.88,-4,0,-2,12,0
'[13:15:02.228 21/01/2026]',-122437,-198320.9,-85828.05,633.4037,-375000,-375000,-149943.4,-226931.2,0.03,0.00,0.88,-4,0,-2,12,0
'[13:15:02.232 21/01/2026]',-122456,-198332.6,-85848.45,620.395,-375000,-375000,-149959.8,-226690.3,0.02,0.00,0.88,-4,0,-2,12,0
'[13:15:02.236 21/01/2026]',-122428.8,-198283.6,-85824.03,639.6175,-375000,-375000,-149922.4,-226940.3,0.02,0.00,0.88,-4,0,-2,12,0
'[13:15:02.240 21/01/2026]',-122403.1,-198253.2,-85796.54,669.2559,-375000,-375000,-149899.3,-227148.3,0.02,0.00,0.88,-4,0,-2,12,0
'[13:15:02.244 21/01/2026]',-122437.8,-198303.4,-85826.18,636.98,-375000,-375000,-149938.6,-226932.7,0.02,0.00,0.88,-4,0,-2,12,0
'[13:15:02.248 21/01/2026]',-122456.2,-198333.5,-85843.62,611.1861,-375000,-375000,-149960.4,-226749.1,0.02,0.00,0.88,-4,0,-2,12,0
'[13:15:02.252 21/01/2026]',-122427.7,-198285,-85817.82,627.5923,-375000,-375000,-149937.7,-226899.4,0.02,0.00,0.88,-4,0,-2,12,0
'[13:15:02.256 21/01/2026]',-122381.9,-198243,-85779.55,664.6514,-375000,-375000,-149890.4,-227237.2,0.02,0.00,0.88,-4,0,-2,12,0
'[13:15:02.260 21/01/2026]',-122412.3,-198278.6,-85807.72,658.1694,-375000,-375000,-149915.2,-227083.8,0.02,0.00,0.88,-4,0,-2,12,0
'[13:15:02.264 21/01/2026]',-122452.6,-198332.3,-85841.6,623.8372,-375000,-375000,-149957.9,-226762.9,0.02,0.00,0.88,-4,0,-2,12,0
'[13:15:02.268 21/01/2026]',-122430.6,-198287.5,-85821.71,640.8692,-375000,-375000,-149943.3,-226814.5,0.03,0.00,0.89,-4,0,-2,12,0
'[13:15:02.272 21/01/2026]',-122390.7,-198237.6,-85785.86,678.4648,-375000,-375000,-149896.7,-227101.2,0.03,0.00,0.89,-4,0,-2,12,0
'[13:15:02.276 21/01/2026]',-122408.1,-198274.9,-85804.01,668.183,-375000,-375000,-149923,-227019.3,0.03,0.00,0.89,-4,0,-2,12,0
'[13:15:02.280 21/01/2026]',-122451.5,-198335.4,-85843.26,622.8984,-375000,-375000,-149967.6,-226812.8,0.03,0.00,0.89,-4,0,-2,12,0
'[13:15:02.284 21/01/2026]',-122433.5,-198303,-85829.53,637.1141,-375000,-375000,-149950.9,-226773,0.03,0.00,0.89,-4,0,-2,12,0
'[13:15:02.288 21/01/2026]',-122390.4,-198243.2,-85789.44,670.6864,-375000,-375000,-149906.6,-227128.3,0.03,0.00,0.89,-4,0,-2,12,0
'[13:15:02.292 21/01/2026]',-122393.8,-198257.5,-85793.55,673.3687,-375000,-375000,-149911,-227151.2,0.03,0.00,0.89,-4,0,-2,12,0
'[13:15:02.296 21/01/2026]',-122444,-198321.5,-85839.37,632.9567,-375000,-375000,-149962.6,-226782.9,0.03,0.00,0.89,-4,0,-2,12,0
'[13:15:02.300 21/01/2026]',-122436.5,-198311,-85833.78,627.4581,-375000,-375000,-149959.1,-226723.4,0.03,0.00,0.89,-4,0,-2,12,0
'[13:15:02.304 21/01/2026]',-122396.9,-198249.1,-85793.99,656.3813,-375000,-375000,-149912.8,-227086.7,0.03,0.00,0.88,-4,0,-2,12,0
'[13:15:02.308 21/01/2026]',-122393.7,-198245.2,-85787.83,675.2015,-375000,-375000,-149907.1,-227054.6,0.03,0.00,0.88,-4,0,-2,12,0
'[13:15:02.312 21/01/2026]',-122435.7,-198323.7,-85822.2,629.4698,-375000,-375000,-149945.6,-226916.2,0.03,0.00,0.88,-4,0,-2,12,0
'[13:15:02.316 21/01/2026]',-122454.5,-198341.4,-85841.73,611.0073,-375000,-375000,-149967.1,-226878.2,0.03,0.00,0.88,-4,0,-2,12,0
'[13:15:02.320 21/01/2026]',-122418.8,-198279.8,-85812.99,633.7166,-375000,-375000,-149932.9,-227166.3,0.03,0.00,0.88,-4,0,-2,12,0
'[13:15:02.324 21/01/2026]',-122391,-198266.2,-85788.27,654.459,-375000,-375000,-149914.2,-227421,0.03,0.00,0.88,-4,0,-2,12,0
'[13:15:02.328 21/01/2026]',-122431.7,-198316.4,-85823.9,634.0295,-375000,-375000,-149956.5,-227084.1,0.03,0.00,0.88,-4,0,-2,12,0
'[13:15:02.332 21/01/2026]',-122447.6,-198335.9,-85833.24,618.0704,-375000,-375000,-149957.8,-226814.9,0.03,0.00,0.88,-4,0,-2,12,0
'[13:15:02.336 21/01/2026]',-122413.8,-198281.6,-85805.26,637.5612,-375000,-375000,-149926.5,-227057.7,0.03,0.00,0.88,-4,0,-2,12,0
'[13:15:02.340 21/01/2026]',-122389.3,-198257.6,-85783.76,666.2608,-375000,-375000,-149905.4,-227268,0.03,0.00,0.89,-4,0,-2,12,0
'[13:15:02.344 21/01/2026]',-122427.6,-198313.8,-85814.02,638.6787,-375000,-375000,-149936.8,-227080.7,0.03,0.00,0.89,-4,0,-2,12,0
'[13:15:02.348 21/01/2026]',-122451.6,-198345.2,-85834.14,617.8469,-375000,-375000,-149961,-226861,0.03,0.00,0.89,-4,0,-2,12,0
'[13:15:02.352 21/01/2026]',-122434.4,-198299.4,-85821.94,630.8109,-375000,-375000,-149946.9,-226968.3,0.03,0.00,0.89,-4,0,-2,12,0
'[13:15:02.356 21/01/2026]',-122394.7,-198256.9,-85787.52,657.2754,-375000,-375000,-149907.6,-227296.3,0.03,0.00,0.89,-4,0,-2,12,0
'[13:15:02.360 21/01/2026]',-122414.1,-198286.8,-85808.61,649.2734,-375000,-375000,-149930.8,-227134.2,0.03,0.00,0.89,-4,0,-2,12,0
'[13:15:02.364 21/01/2026]',-122457,-198335.4,-85848.58,614.9859,-375000,-375000,-149975.7,-226751.2,0.03,0.00,0.89,-4,0,-2,12,0
'[13:15:02.368 21/01/2026]',-122434.4,-198303.5,-85823.05,625.1335,-375000,-375000,-149954.5,-226847.2,0.03,0.00,0.89,-4,0,-2,12,0
'[13:15:02.372 21/01/2026]',-122390.5,-198254.6,-85785.14,661.9246,-375000,-375000,-149907.5,-227210.8,0.03,0.00,0.89,-4,0,-2,12,0
'[13:15:02.376 21/01/2026]',-122410.5,-198274.8,-85803.6,664.6068,-375000,-375000,-149921.1,-226975.9,0.02,0.00,0.89,-4,0,-2,12,0
'[13:15:02.380 21/01/2026]',-122448.4,-198344.1,-85838.92,621.6914,-375000,-375000,-149955.2,-226846.5,0.02,0.00,0.89,-4,0,-2,12,0
'[13:15:02.384 21/01/2026]',-122445.4,-198322.3,-85842.5,618.3386,-375000,-375000,-149963.2,-226875.7,0.02,0.00,0.89,-4,0,-2,12,0
'[13:15:02.388 21/01/2026]',-122395.9,-198256.5,-85792.61,655.2637,-375000,-375000,-149911.5,-227203.5,0.02,0.00,0.89,-4,0,-2,12,0
'[13:15:02.392 21/01/2026]',-122391,-198258.5,-85783.58,669.1665,-375000,-375000,-149906.2,-227214.6,0.02,0.00,0.89,-4,0,-2,12,0
'[13:15:02.396 21/01/2026]',-122441.7,-198324.6,-85829.13,629.0228,-375000,-375000,-149960,-226837.1,0.02,0.00,0.89,-4,0,-2,12,0
'[13:15:02.400 21/01/2026]',-122446.3,-198320.4,-85838.38,616.3717,-375000,-375000,-149976.4,-226777.7,0.02,0.00,0.89,-4,0,-2,12,0
'[13:15:02.404 21/01/2026]',-122405.1,-198251.1,-85797.44,651.0616,-375000,-375000,-149929.6,-227059.5,0.02,0.00,0.89,-4,0,-2,12,0
'[13:15:02.408 21/01/2026]',-122397.3,-198257.4,-85786.98,665.9031,-375000,-375000,-149917.9,-227099.8,0.02,0.00,0.89,-4,0,-2,12,0
'[13:15:02.412 21/01/2026]',-122434.7,-198319.8,-85816.79,624.3289,-375000,-375000,-149954.9,-226959.4,0.03,0.00,0.88,-4,0,-2,12,0
'[13:15:02.416 21/01/2026]',-122448,-198335.2,-85827.43,612.4825,-375000,-375000,-149968.4,-226860.3,0.03,0.00,0.88,-4,0,-2,12,0
'[13:15:02.420 21/01/2026]',-122411.6,-198276.6,-85798.69,640.7351,-375000,-375000,-149934.9,-227126.4,0.03,0.00,0.88,-4,0,-2,12,0
'[13:15:02.424 21/01/2026]',-122385.6,-198244,-85771.95,670.7758,-375000,-375000,-149910.6,-227308.8,0.03,0.00,0.88,-4,0,-2,12,0
'[13:15:02.428 21/01/2026]',-122430.5,-198306.2,-85809.02,641.8527,-375000,-375000,-149962.4,-226982.9,0.03,0.00,0.88,-4,0,-2,12,0
'[13:15:02.432 21/01/2026]',-122452.7,-198343.7,-85829.58,617.8022,-375000,-375000,-149979.4,-226692.6,0.03,0.00,0.88,-4,0,-2,12,0
'[13:15:02.436 21/01/2026]',-122415.6,-198278.7,-85804.23,642.6126,-375000,-375000,-149938.7,-226863.3,0.03,0.00,0.88,-4,0,-2,12,0
'[13:15:02.440 21/01/2026]',-122373.7,-198231.1,-85771.51,683.0246,-375000,-375000,-149903.9,-227011.8,0.03,0.00,0.88,-4,0,-2,12,0
'[13:15:02.444 21/01/2026]',-122413.8,-198298.9,-85804.81,645.116,-375000,-375000,-149940.9,-226902.7,0.03,0.00,0.88,-4,0,-2,12,0
'[13:15:02.448 21/01/2026]',-122451.4,-198340,-85836.59,613.6895,-375000,-375000,-149975.2,-226785.8,0.03,0.00,0.88,-4,0,-2,12,0
'[13:15:02.452 21/01/2026]',-122427.7,-198287.3,-85813.8,633.0461,-375000,-375000,-149948.5,-226887.9,0.03,0.00,0.88,-4,0,-2,12,0
'[13:15:02.456 21/01/2026]',-122386.1,-198245,-85773.12,663.3104,-375000,-375000,-149911.4,-227228.4,0.03,0.00,0.88,-4,0,-2,12,0
'[13:15:02.460 21/01/2026]',-122411.3,-198275,-85794.09,654.6379,-375000,-375000,-149936.9,-227068.1,0.03,0.00,0.88,-4,0,-2,12,0
'[13:15:02.464 21/01/2026]',-122451.8,-198328.9,-85833.65,616.5505,-375000,-375000,-149979.1,-226725.4,0.03,0.00,0.88,-4,0,-2,12,0
'[13:15:02.468 21/01/2026]',-122430.8,-198297.2,-85824.03,622.5408,-375000,-375000,-149961.4,-226804.3,0.03,0.00,0.88,-4,0,-2,12,0
'[13:15:02.472 21/01/2026]',-122388,-198242.5,-85781.92,658.7506,-375000,-375000,-149910.5,-227141.1,0.03,0.00,0.88,-4,0,-2,12,0
'[13:15:02.476 21/01/2026]',-122401.6,-198259.9,-85786.98,662.6398,-375000,-375000,-149918.8,-227019,0.03,0.00,0.88,-4,0,-2,12,0
'[13:15:02.480 21/01/2026]',-122444.5,-198320.2,-85823.37,619.4115,-375000,-375000,-149962.6,-226830.3,0.03,0.00,0.88,-4,0,-2,12,0
'[13:15:02.484 21/01/2026]',-122438,-198298.2,-85823.95,624.7313,-375000,-375000,-149960.3,-226794.3,0.02,0.02,0.88,-4,0,-2,12,0
'[13:15:02.488 21/01/2026]',-122394.2,-198240,-85783.18,658.6165,-375000,-375000,-149920.1,-227137.6,0.02,0.02,0.88,-4,0,-2,12,0
'[13:15:02.492 21/01/2026]',-122390.6,-198238.6,-85778.03,674.0392,-375000,-375000,-149921.8,-227083.8,0.02,0.02,0.88,-4,0,-2,12,0
'[13:15:02.496 21/01/2026]',-122436.6,-198317.8,-85824.88,626.6982,-375000,-375000,-149978.4,-226805.3,0.02,0.02,0.88,-4,0,-2,12,0
'[13:15:02.500 21/01/2026]',-122442.8,-198321.6,-85833.42,612.5719,-375000,-375000,-149979.7,-226775.7,0.02,0.02,0.88,-4,0,-2,12,0
'[13:15:02.504 21/01/2026]',-122399.2,-198253.8,-85789.52,649.8546,-375000,-375000,-149929.5,-227072.8,0.02,0.02,0.88,-4,0,-2,12,0
'[13:15:02.508 21/01/2026]',-122384.5,-198232.3,-85774.19,679.9847,-375000,-375000,-149917.3,-226992.5,0.02,0.02,0.88,-4,0,-2,12,0
'[13:15:02.512 21/01/2026]',-122435.2,-198310.6,-85810.89,626.0276,-375000,-375000,-149963.4,-226832.7,0.02,0.02,0.88,-4,0,-2,12,0
'[13:15:02.516 21/01/2026]',-122448.8,-198318.3,-85823.9,615.0753,-375000,-375000,-149972.4,-226768,0.02,0.02,0.88,-4,0,-2,12,0
'[13:15:02.520 21/01/2026]',-122408.3,-198250.5,-85789.52,646.6359,-375000,-375000,-149933.3,-227046.5,0.03,0.00,0.88,-4,0,-2,12,0
'[13:15:02.524 21/01/2026]',-122376.8,-198224.8,-85755.41,681.1024,-375000,-375000,-149904.6,-227267,0.03,0.00,0.88,-4,0,-2,12,0
'[13:15:02.528 21/01/2026]',-122424.8,-198287.3,-85802.04,649.0052,-375000,-375000,-149953.1,-226943.6,0.03,0.00,0.88,-4,0,-2,12,0
'[13:15:02.532 21/01/2026]',-122447.9,-198322.2,-85832.88,619.635,-375000,-375000,-149972.7,-226707.8,0.03,0.00,0.88,-4,0,-2,12,0
'[13:15:02.536 21/01/2026]',-122411,-198272.1,-85804.81,635.9518,-375000,-375000,-149946.6,-226967.1,0.03,0.00,0.88,-4,0,-2,12,0
'[13:15:02.540 21/01/2026]',-122377.8,-198232.8,-85781.57,669.2559,-375000,-375000,-149913.5,-227163.4,0.03,0.00,0.88,-4,0,-2,12,0
'[13:15:02.544 21/01/2026]',-122415.1,-198281.6,-85800.7,641.5845,-375000,-375000,-149941.7,-226957.9,0.03,0.00,0.88,-4,0,-2,12,0
'[13:15:02.548 21/01/2026]',-122452.4,-198332,-85821.8,604.3464,-375000,-375000,-149979.6,-226807.3,0.03,0.00,0.88,-4,0,-2,12,0
'[13:15:02.552 21/01/2026]',-122427.2,-198279.5,-85808.08,626.9217,-375000,-375000,-149955.5,-226925.7,0.03,0.00,0.88,-4,0,-2,12,0
'[13:15:02.556 21/01/2026]',-122386.8,-198229.5,-85778.66,660.3152,-375000,-375000,-149911.1,-227266,0.03,0.00,0.88,-4,0,-2,12,0
'[13:15:02.560 21/01/2026]',-122416.5,-198267.3,-85804.45,646.9042,-375000,-375000,-149948,-227094.8,0.03,0.00,0.88,-4,0,-2,12,0
'[13:15:02.564 21/01/2026]',-122453.4,-198321.8,-85835.44,615.7905,-375000,-375000,-149982.9,-226734.8,0.03,0.00,0.88,-4,0,-2,12,0
'[13:15:02.568 21/01/2026]',-122426.8,-198285.8,-85811.88,631.7944,-375000,-375000,-149955.3,-226783.4,0.03,0.00,0.88,-4,0,-2,12,0
'[13:15:02.572 21/01/2026]',-122388,-198236.6,-85788.59,657.4095,-375000,-375000,-149920.1,-227108.8,0.03,0.00,0.88,-4,0,-2,12,0
'[13:15:02.576 21/01/2026]',-122407.8,-198262.5,-85810.4,651.2851,-375000,-375000,-149940,-226909.6,0.03,0.00,0.88,-4,0,-2,12,0
'[13:15:02.580 21/01/2026]',-122442.5,-198332.5,-85837.67,607.7439,-375000,-375000,-149971.3,-226823.6,0.03,0.00,0.88,-4,0,-2,12,0
'[13:15:02.584 21/01/2026]',-122428.7,-198298.3,-85825.29,622.5408,-375000,-375000,-149959.7,-226789.7,0.03,0.00,0.88,-4,0,-2,12,0
'[13:15:02.588 21/01/2026]',-122387.2,-198241.8,-85784.56,649.7205,-375000,-375000,-149920.5,-227171.3,0.03,0.00,0.88,-4,0,-2,12,0
'[13:15:02.592 21/01/2026]',-122382.7,-198244.7,-85776.11,662.6398,-375000,-375000,-149920.3,-227221.1,0.03,-0.02,0.88,-4,0,-2,12,0
'[13:15:02.596 21/01/2026]',-122432.8,-198311.7,-85823.63,628.084,-375000,-375000,-149972.1,-226852.7,0.03,-0.02,0.88,-4,0,-2,12,0
'[13:15:02.600 21/01/2026]',-122440.8,-198306.9,-85829.45,623.8819,-375000,-375000,-149972.3,-226706.2,0.03,-0.02,0.88,-4,0,-2,12,0
'[13:15:02.604 21/01/2026]',-122393.5,-198246.6,-85788.63,653.2968,-375000,-375000,-149925.3,-227120,0.03,-0.02,0.88,-4,0,-2,12,0
'[13:15:02.608 21/01/2026]',-122374.5,-198221.8,-85771.64,684.8127,-375000,-375000,-149908.4,-227139.5,0.03,-0.02,0.88,-4,0,-2,12,0
'[13:15:02.612 21/01/2026]',-122409.6,-198279.2,-85799.8,651.0169,-375000,-375000,-149939.6,-226854.3,0.03,-0.02,0.88,-4,0,-2,12,0
'[13:15:02.616 21/01/2026]',-122411,-198281.2,-85803.43,646.4572,-375000,-375000,-149945.7,-226748.2,0.03,-0.02,0.88,-4,0,-2,12,0
'[13:15:02.620 21/01/2026]',-122378,-198227.6,-85774.77,663.6233,-375000,-375000,-149917.8,-227072.1,0.03,-0.02,0.88,-4,0,-2,12,0
'[13:15:02.624 21/01/2026]',-122351.1,-198211.5,-85753.76,682.354,-375000,-375000,-149892.4,-227390.4,0.03,-0.02,0.88,-4,0,-2,12,0
'[13:15:02.628 21/01/2026]',-122400.6,-198267.3,-85800.97,657.2754,-375000,-375000,-149943.1,-226985.5,0.03,0.00,0.88,-4,0,-2,12,0
'[13:15:02.632 21/01/2026]',-122432.8,-198310.1,-85830.7,623.9713,-375000,-375000,-149973.8,-226718.5,0.03,0.00,0.88,-4,0,-2,12,0
'[13:15:02.636 21/01/2026]',-122402.6,-198263,-85806.6,636.9353,-375000,-375000,-149944.9,-226932.7,0.03,0.00,0.88,-4,0,-2,12,0
'[13:15:02.640 21/01/2026]',-122381.6,-198236.9,-85784.65,664.115,-375000,-375000,-149922.2,-227162.1,0.03,0.00,0.88,-4,0,-2,12,0
'[13:15:02.644 21/01/2026]',-122415.9,-198289.1,-85811.88,641.1374,-375000,-375000,-149950.6,-226944.1,0.03,0.00,0.88,-4,0,-2,12,0
'[13:15:02.648 21/01/2026]',-122440.8,-198330,-85835.66,614.9859,-375000,-375000,-149975,-226770.5,0.03,0.00,0.88,-4,0,-2,12,0
'[13:15:02.652 21/01/2026]',-122419.5,-198275.5,-85817.59,632.5991,-375000,-375000,-149958.3,-226839.9,0.03,0.00,0.88,-4,0,-2,12,0
'[13:15:02.656 21/01/2026]',-122377.9,-198234.1,-85777.37,661.9246,-375000,-375000,-149917.5,-227212.5,0.03,0.00,0.88,-4,0,-2,12,0
'[13:15:02.660 21/01/2026]',-122400.1,-198273.8,-85800.74,653.2968,-375000,-375000,-149941.5,-227144.7,0.03,0.00,0.88,-4,0,-2,12,0
'[13:15:02.664 21/01/2026]',-122436,-198319.3,-85836.15,626.2512,-375000,-375000,-149975.9,-226738.5,0.03,0.00,0.89,-4,0,-2,12,0
'[13:15:02.668 21/01/2026]',-122426.2,-198293.6,-85828.73,630.0956,-375000,-375000,-149968.3,-226782.8,0.03,0.00,0.89,-4,0,-2,12,0
'[13:15:02.672 21/01/2026]',-122383.7,-198235,-85788.85,667.5125,-375000,-375000,-149919.6,-227135.5,0.03,0.00,0.89,-4,0,-2,12,0
'[13:15:02.676 21/01/2026]',-122393.1,-198255.1,-85794.35,672.0275,-375000,-375000,-149924.4,-226974.3,0.03,0.00,0.89,-4,0,-2,12,0
'[13:15:02.680 21/01/2026]',-122428.7,-198313.5,-85821.22,632.9567,-375000,-375000,-149958.1,-226781.9,0.03,0.00,0.89,-4,0,-2,12,0
'[13:15:02.684 21/01/2026]',-122418.3,-198286.6,-85816.16,639.4834,-375000,-375000,-149954.5,-226772.4,0.03,0.00,0.89,-4,0,-2,12,0
'[13:15:02.688 21/01/2026]',-122384.7,-198236.8,-85789.93,660.9858,-375000,-375000,-149924,-227124.4,0.03,0.00,0.89,-4,0,-2,12,0
'[13:15:02.692 21/01/2026]',-122378,-198244,-85784.96,671.5805,-375000,-375000,-149921.4,-227173.8,0.03,0.00,0.89,-4,0,-2,12,0
'[13:15:02.696 21/01/2026]',-122417,-198299.7,-85818.13,647.4406,-375000,-375000,-149949.4,-226861.2,0.03,0.00,0.89,-4,0,-2,12,0
'[13:15:02.700 21/01/2026]',-122426.2,-198303.3,-85830.43,631.6603,-375000,-375000,-149961.5,-226824.5,0.02,0.02,0.88,-4,0,-2,12,0
'[13:15:02.704 21/01/2026]',-122381.7,-198237.2,-85791.31,665.5902,-375000,-375000,-149921,-227127.5,0.02,0.02,0.88,-4,0,-2,12,0
'[13:15:02.708 21/01/2026]',-122365.2,-198220.8,-85772.45,695.9886,-375000,-375000,-149905.5,-227126,0.02,0.02,0.88,-4,0,-2,12,0
'[13:15:02.712 21/01/2026]',-122415.9,-198293.6,-85812.19,648.9158,-375000,-375000,-149949,-226903.3,0.02,0.02,0.88,-4,0,-2,12,0
'[13:15:02.716 21/01/2026]',-122427.6,-198306.5,-85828.37,633.4931,-375000,-375000,-149963.6,-226755.2,0.02,0.02,0.88,-4,0,-2,12,0
'[13:15:02.720 21/01/2026]',-122389.7,-198252.6,-85801.23,652.358,-375000,-375000,-149934.6,-227027.1,0.02,0.02,0.88,-4,0,-2,12,0
'[13:15:02.724 21/01/2026]',-122355.4,-198230.9,-85772.67,678.5095,-375000,-375000,-149904.2,-227265.7,0.02,0.02,0.88,-4,0,-2,12,0
'[13:15:02.728 21/01/2026]',-122404.7,-198279.4,-85807,656.2025,-375000,-375000,-149935.3,-226911.9,0.02,0.02,0.88,-4,0,-2,12,0
'[13:15:02.732 21/01/2026]',-122426.9,-198297.9,-85821.98,636.8459,-375000,-375000,-149954.7,-226624.4,0.02,0.02,0.88,-4,0,-2,12,0
'[13:15:02.736 21/01/2026]',-122392.8,-198250.4,-85803.02,648.2006,-375000,-375000,-149937.3,-226922.1,0.02,0.00,0.88,-4,0,-2,12,0
'[13:15:02.740 21/01/2026]',-122361.7,-198217.9,-85781.34,680.0742,-375000,-375000,-149907.5,-227192.5,0.02,0.00,0.88,-4,0,-2,12,0
'[13:15:02.744 21/01/2026]',-122400.6,-198281.1,-85822.74,647.7088,-375000,-375000,-149952.8,-226970,0.02,0.00,0.88,-4,0,-2,12,0
'[13:15:02.748 21/01/2026]',-122434.2,-198321.9,-85852.11,614.1812,-375000,-375000,-149989.2,-226758.9,0.02,0.00,0.88,-4,0,-2,12,0
'[13:15:02.752 21/01/2026]',-122403.9,-198262.1,-85822.38,637.2929,-375000,-375000,-149947.3,-226853.8,0.02,0.00,0.88,-4,0,-2,12,0
'[13:15:02.756 21/01/2026]',-122355.5,-198210.9,-85774.28,678.7778,-375000,-375000,-149888.9,-227186.8,0.02,0.00,0.88,-4,0,-2,12,0
'[13:15:02.760 21/01/2026]',-122364.6,-198230.2,-85784.3,684.3657,-375000,-375000,-149904,-226998.9,0.02,0.00,0.88,-4,0,-2,12,0
'[13:15:02.764 21/01/2026]',-122409.5,-198284.5,-85820.64,648.6029,-375000,-375000,-149950.5,-226619.8,0.02,0.00,0.88,-4,0,-2,12,0
'[13:15:02.768 21/01/2026]',-122403.5,-198264.3,-85819.25,641.2715,-375000,-375000,-149952.5,-226724.4,0.02,0.00,0.88,-4,0,-2,12,0
'[13:15:02.772 21/01/2026]',-122365,-198219.3,-85787.96,666.6631,-375000,-375000,-149923.2,-227148.1,0.03,0.00,0.88,-4,0,-2,12,0
'[13:15:02.776 21/01/2026]',-122383.9,-198248.5,-85803.7,664.8749,-375000,-375000,-149941.8,-227103.7,0.03,0.00,0.88,-4,0,-2,12,0
'[13:15:02.780 21/01/2026]',-122407.8,-198287.9,-85819.12,647.843,-375000,-375000,-149952.3,-226854,0.03,0.00,0.88,-4,0,-2,12,0
'[13:15:02.784 21/01/2026]',-122396,-198254.4,-85807.59,657.5436,-375000,-375000,-149946.8,-226775.8,0.03,0.00,0.88,-4,0,-2,12,0
'[13:15:02.788 21/01/2026]',-122361.4,-198205.1,-85776.34,673.1898,-375000,-375000,-149925.1,-227129.3,0.03,0.00,0.88,-4,0,-2,12,0
'[13:15:02.792 21/01/2026]',-122355.9,-198208.5,-85774.23,683.3375,-375000,-375000,-149909.9,-227183.8,0.03,0.00,0.88,-4,0,-2,12,0
'[13:15:02.796 21/01/2026]',-122406.3,-198278.8,-85821.27,644.4455,-375000,-375000,-149960.6,-226836.4,0.03,0.00,0.88,-4,0,-2,12,0
'[13:15:02.800 21/01/2026]',-122410.3,-198272,-85827.74,636.2647,-375000,-375000,-149967.1,-226695,0.03,0.00,0.88,-4,0,-2,12,0
'[13:15:02.804 21/01/2026]',-122377.2,-198227.1,-85799.76,651.7321,-375000,-375000,-149934.6,-227053,0.03,0.00,0.88,-4,0,-2,12,0
'[13:15:02.808 21/01/2026]',-122368.8,-198219.2,-85793.05,671.6252,-375000,-375000,-149922,-227127.2,0.03,0.00,0.89,-4,0,-2,12,0
'[13:15:02.812 21/01/2026]',-122408.2,-198287.2,-85831.63,629.1569,-375000,-375000,-149961.3,-226955.7,0.03,0.00,0.89,-4,0,-2,12,0
'[13:15:02.816 21/01/2026]',-122418.8,-198294,-85842.99,618.5175,-375000,-375000,-149977.7,-226787.5,0.03,0.00,0.89,-4,0,-2,12,0
'[13:15:02.820 21/01/2026]',-122385.5,-198237.1,-85817.15,639.9751,-375000,-375000,-149952.7,-227034.1,0.03,0.00,0.89,-4,0,-2,12,0
'[13:15:02.824 21/01/2026]',-122355.8,-198215.4,-85783.76,666.2608,-375000,-375000,-149915.2,-227269.7,0.03,0.00,0.89,-4,0,-2,12,0
'[13:15:02.828 21/01/2026]',-122389.9,-198265.5,-85809.51,650.5698,-375000,-375000,-149947.8,-226953.3,0.03,0.00,0.89,-4,0,-2,12,0
'[13:15:02.832 21/01/2026]',-122416,-198287.5,-85833.69,630.945,-375000,-375000,-149969.5,-226665.3,0.03,0.00,0.89,-4,0,-2,12,0
'[13:15:02.836 21/01/2026]',-122384.6,-198232.7,-85811.79,649.7205,-375000,-375000,-149934.7,-226917.1,0.03,0.00,0.89,-4,0,-2,12,0
'[13:15:02.840 21/01/2026]',-122353.9,-198204.1,-85779.96,680.4318,-375000,-375000,-149903.1,-227231,0.03,0.00,0.89,-4,0,-2,12,0
'[13:15:02.844 21/01/2026]',-122404,-198263.4,-85817.69,649.0499,-375000,-375000,-149947.6,-226976.8,0.03,0.02,0.89,-4,0,-2,12,0
'[13:15:02.848 21/01/2026]',-122434.5,-198308.6,-85845.18,615.2541,-375000,-375000,-149979.6,-226761.2,0.03,0.02,0.89,-4,0,-2,12,0
'[13:15:02.852 21/01/2026]',-122406.9,-198261.5,-85822.47,633.806,-375000,-375000,-149956.5,-226863.5,0.03,0.02,0.89,-4,0,-2,12,0
'[13:15:02.856 21/01/2026]',-122370.4,-198221.8,-85791.76,659.8682,-375000,-375000,-149926.2,-227263.6,0.03,0.02,0.89,-4,0,-2,12,0
'[13:15:02.860 21/01/2026]',-122393.3,-198246.7,-85816.93,650.3463,-375000,-375000,-149954.4,-227095.1,0.03,0.02,0.89,-4,0,-2,12,0
'[13:15:02.864 21/01/2026]',-122434.2,-198301.7,-85849.29,617.2657,-375000,-375000,-149977.2,-226741.5,0.03,0.02,0.89,-4,0,-2,12,0
'[13:15:02.868 21/01/2026]',-122423.1,-198270.6,-85837.4,624.463,-375000,-375000,-149959,-226776.4,0.03,0.02,0.89,-4,0,-2,12,0
'[13:15:02.872 21/01/2026]',-122375.9,-198218.1,-85794.98,656.9177,-375000,-375000,-149910.5,-227171,0.03,0.02,0.89,-4,0,-2,12,0
'[13:15:02.876 21/01/2026]',-122392.4,-198245.3,-85810.09,655.3531,-375000,-375000,-149933.2,-227019.1,0.03,0.02,0.89,-4,0,-2,12,0
'[13:15:02.880 21/01/2026]',-122436.4,-198316,-85844.11,605.1958,-375000,-375000,-149973.3,-226869.2,0.03,0.00,0.88,-4,0,-2,12,0
'[13:15:02.884 21/01/2026]',-122428.9,-198286.9,-85837.49,612.5719,-375000,-375000,-149965.5,-226813,0.03,0.00,0.88,-4,0,-2,12,0
'[13:15:02.888 21/01/2026]',-122393.1,-198236.3,-85800.25,640.288,-375000,-375000,-149924.1,-227155.7,0.03,0.00,0.88,-4,0,-2,12,0
'[13:15:02.892 21/01/2026]',-122392,-198243.2,-85802.63,655.9789,-375000,-375000,-149920.1,-227228.4,0.03,0.00,0.88,-4,0,-2,12,0
'[13:15:02.896 21/01/2026]',-122442.9,-198313.8,-85858.37,615.9246,-375000,-375000,-149979.2,-226865.1,0.03,0.00,0.88,-4,0,-2,12,0
'[13:15:02.900 21/01/2026]',-122449.4,-198314.3,-85866.1,599.742,-375000,-375000,-149994,-226747.2,0.03,0.00,0.88,-4,0,-2,12,0
'[13:15:02.904 21/01/2026]',-122402.9,-198254.3,-85816.39,634.7001,-375000,-375000,-149935.1,-227061.3,0.03,0.00,0.88,-4,0,-2,12,0
'[13:15:02.908 21/01/2026]',-122381.6,-198230.8,-85792.34,671.0441,-375000,-375000,-149913.8,-227063.8,0.03,0.00,0.88,-4,0,-2,12,0
'[13:15:02.912 21/01/2026]',-122433.2,-198302.5,-85824.21,622.0043,-375000,-375000,-149962.7,-226865,0.03,0.00,0.88,-4,0,-2,12,0
'[13:15:02.916 21/01/2026]',-122438,-198307.6,-85837.45,618.5175,-375000,-375000,-149964.2,-226787.6,0.03,0.00,0.89,-4,0,-2,12,0
'[13:15:02.920 21/01/2026]',-122397.6,-198248.7,-85819.16,646.8148,-375000,-375000,-149922.8,-227108.2,0.03,0.00,0.89,-4,0,-2,12,0
'[13:15:02.924 21/01/2026]',-122378.3,-198233.1,-85801.59,662.4163,-375000,-375000,-149906.2,-227327.8,0.03,0.00,0.89,-4,0,-2,12,0
'[13:15:02.928 21/01/2026]',-122423.4,-198285.8,-85834.09,641.1821,-375000,-375000,-149949.3,-227004.1,0.03,0.00,0.89,-4,0,-2,12,0
'[13:15:02.932 21/01/2026]',-122449.6,-198310.6,-85855.1,620.3503,-375000,-375000,-149973.3,-226756.5,0.03,0.00,0.89,-4,0,-2,12,0
'[13:15:02.936 21/01/2026]',-122421.7,-198265,-85830.92,633.4931,-375000,-375000,-149949,-226967.9,0.03,0.00,0.89,-4,0,-2,12,0
'[13:15:02.940 21/01/2026]',-122382.8,-198225.5,-85798.42,670.1947,-375000,-375000,-149903.6,-227204.8,0.03,0.00,0.89,-4,0,-2,12,0
'[13:15:02.944 21/01/2026]',-122426.2,-198282,-85838.3,638.947,-375000,-375000,-149951.7,-226953.2,0.03,0.00,0.89,-4,0,-2,12,0
'[13:15:02.948 21/01/2026]',-122457.8,-198330.2,-85857.92,606.7604,-375000,-375000,-149974.1,-226823.4,0.03,0.00,0.89,-4,0,-2,12,0
'[13:15:02.952 21/01/2026]',-122428.9,-198280.8,-85832.88,621.2891,-375000,-375000,-149952.3,-226937.7,0.03,-0.02,0.88,-4,0,-2,12,0
'[13:15:02.956 21/01/2026]',-122380,-198225.2,-85791.89,659.6894,-375000,-375000,-149908.2,-227268.9,0.03,-0.02,0.88,-4,0,-2,12,0
'[13:15:02.960 21/01/2026]',-122399.4,-198257.7,-85809.28,652.8497,-375000,-375000,-149933.5,-227131.6,0.03,-0.02,0.88,-4,0,-2,12,0
'[13:15:02.964 21/01/2026]',-122436.9,-198315.8,-85849.43,617.1763,-375000,-375000,-149980.5,-226783.5,0.03,-0.02,0.88,-4,0,-2,12,0
'[13:15:02.968 21/01/2026]',-122432.8,-198296.6,-85849.47,612.0801,-375000,-375000,-149984,-226809.8,0.03,-0.02,0.88,-4,0,-2,12,0
'[13:15:02.972 21/01/2026]',-122378.7,-198231.2,-85785.05,656.426,-375000,-375000,-149920.1,-227172.7,0.03,-0.02,0.88,-4,0,-2,12,0
'[13:15:02.976 21/01/2026]',-122391.9,-198245.9,-85785.14,667.6019,-375000,-375000,-149918.6,-227085,0.03,-0.02,0.88,-4,0,-2,12,0
'[13:15:02.980 21/01/2026]',-122434.1,-198308.6,-85828.86,625.67,-375000,-375000,-149960.7,-226829.3,0.03,-0.02,0.88,-4,0,-2,12,0
'[13:15:02.984 21/01/2026]',-122425.5,-198292,-85844.69,627.1899,-375000,-375000,-149965.5,-226776.1,0.03,-0.02,0.88,-4,0,-2,12,0
'[13:15:02.988 21/01/2026]',-122392,-198239,-85815.05,650.5698,-375000,-375000,-149928.3,-227180,0.02,0.00,0.89,-4,0,-2,12,0
'[13:15:02.992 21/01/2026]',-122388.9,-198247.6,-85807.95,662.0587,-375000,-375000,-149923.7,-227284,0.02,0.00,0.89,-4,0,-2,12,0
'[13:15:02.996 21/01/2026]',-122439.8,-198320.4,-85851.98,620.1268,-375000,-375000,-149986.9,-226997.6,0.02,0.00,0.89,-4,0,-2,12,0
'[13:15:03.000 21/01/2026]',-122443.8,-198314.2,-85852.78,616.5952,-375000,-375000,-149994.8,-226823.4,0.02,0.00,0.89,-4,0,-2,12,0
'[13:15:03.004 21/01/2026]',-122398.1,-198252.8,-85808.75,650.0781,-375000,-375000,-149944.1,-227085.8,0.02,0.00,0.89,-4,0,-2,12,0
'[13:15:03.008 21/01/2026]',-122386.4,-198235.5,-85796.68,677.7496,-375000,-375000,-149928.4,-227096.9,0.02,0.00,0.89,-4,0,-2,12,0
'[13:15:03.012 21/01/2026]',-122427.2,-198297.6,-85831.01,635.9518,-375000,-375000,-149969.8,-226866.2,0.02,0.00,0.89,-4,0,-2,12,0
'[13:15:03.016 21/01/2026]',-122435.3,-198312.9,-85840.62,624.1501,-375000,-375000,-149985,-226735.7,0.02,0.00,0.89,-4,0,-2,12,0
'[13:15:03.020 21/01/2026]',-122402.8,-198257.7,-85812.41,646.2336,-375000,-375000,-149950.2,-227079.2,0.02,0.00,0.89,-4,0,-2,12,0
'[13:15:03.024 21/01/2026]',-122373.4,-198230.1,-85780.85,673.011,-375000,-375000,-149916,-227313.3,0.03,0.00,0.88,-4,0,-2,12,0
'[13:15:03.028 21/01/2026]',-122413.2,-198286.3,-85815.59,651.151,-375000,-375000,-149958.6,-227007.3,0.03,0.00,0.88,-4,0,-2,12,0
'[13:15:03.032 21/01/2026]',-122442.5,-198323.1,-85837.45,623.569,-375000,-375000,-149986.5,-226784,0.03,0.00,0.88,-4,0,-2,12,0
'[13:15:03.036 21/01/2026]',-122411,-198273.3,-85821.13,638.5893,-375000,-375000,-149960.8,-227012.4,0.03,0.00,0.88,-4,0,-2,12,0
'[13:15:03.040 21/01/2026]',-122373.2,-198228.5,-85797.7,671.6252,-375000,-375000,-149927,-227281.7,0.03,0.00,0.88,-4,0,-2,12,0
'[13:15:03.044 21/01/2026]',-122411.6,-198277.3,-85832.08,645.0266,-375000,-375000,-149968.4,-227028.5,0.03,0.00,0.88,-4,0,-2,12,0
'[13:15:03.048 21/01/2026]',-122431.8,-198318.3,-85835.34,621.1996,-375000,-375000,-149975.5,-226881.2,0.03,0.00,0.88,-4,0,-2,12,0
'[13:15:03.052 21/01/2026]',-122415.7,-198278.8,-85829.98,630.7215,-375000,-375000,-149957,-227039.7,0.03,0.00,0.88,-4,0,-2,12,0
'[13:15:03.056 21/01/2026]',-122376,-198226.7,-85787.38,665.2326,-375000,-375000,-149913.2,-227313.3,0.03,0.00,0.88,-4,0,-2,12,0
'[13:15:03.060 21/01/2026]',-122399.6,-198273.6,-85813.93,647.6194,-375000,-375000,-149951.2,-227231.8,0.03,0.00,0.88,-4,0,-2,12,0
'[13:15:03.064 21/01/2026]',-122440.1,-198335.3,-85850.99,612.1249,-375000,-375000,-149996.4,-226957.2,0.03,0.00,0.88,-4,0,-2,12,0
'[13:15:03.068 21/01/2026]',-122419.8,-198294.8,-85835.84,626.3406,-375000,-375000,-149970.9,-226977.2,0.03,0.00,0.88,-4,0,-2,12,0
'[13:15:03.072 21/01/2026]',-122379.9,-198239,-85799.9,659.6447,-375000,-375000,-149926,-227308.6,0.03,0.00,0.88,-4,0,-2,12,0
'[13:15:03.076 21/01/2026]',-122399.4,-198263.1,-85816.66,656.6495,-375000,-375000,-149950.7,-227180.8,0.03,0.00,0.88,-4,0,-2,12,0
'[13:15:03.080 21/01/2026]',-122435.9,-198318.5,-85847.59,616.1929,-375000,-375000,-149986.2,-226984.2,0.03,0.00,0.88,-4,0,-2,12,0
'[13:15:03.084 21/01/2026]',-122425.8,-198296.3,-85837.27,623.569,-375000,-375000,-149973.5,-226904.4,0.03,0.00,0.88,-4,0,-2,12,0
'[13:15:03.088 21/01/2026]',-122387.5,-198237.3,-85795.2,655.7108,-375000,-375000,-149927.8,-227185.7,0.03,0.00,0.88,-4,0,-2,12,0
'[13:15:03.092 21/01/2026]',-122384.6,-198256.7,-85793.86,653.5203,-375000,-375000,-149942.2,-227394.8,0.03,0.00,0.88,-4,0,-2,12,0
'[13:15:03.096 21/01/2026]',-122432.6,-198319.9,-85837.89,620.6185,-375000,-375000,-149985.3,-227048.2,0.03,0.00,0.88,-4,0,-2,12,0
'[13:15:03.100 21/01/2026]',-122438.3,-198315.7,-85846.25,617.4893,-375000,-375000,-149984.8,-226838.5,0.03,0.00,0.88,-4,0,-2,12,0
'[13:15:03.104 21/01/2026]',-122397.1,-198248.9,-85812.55,648.3347,-375000,-375000,-149948.5,-227121,0.03,0.00,0.88,-4,0,-2,12,0
'[13:15:03.108 21/01/2026]',-122389.7,-198241.3,-85800.48,668.5853,-375000,-375000,-149931.9,-227233.5,0.03,0.00,0.88,-4,0,-2,12,0
'[13:15:03.112 21/01/2026]',-122435.7,-198309.5,-85836.06,626.1171,-375000,-375000,-149972.1,-227028.2,0.03,0.00,0.88,-4,0,-2,12,0
'[13:15:03.116 21/01/2026]',-122437.7,-198314.8,-85845.36,623.7925,-375000,-375000,-149975.8,-226869.8,0.03,0.00,0.88,-4,0,-2,12,0
'[13:15:03.120 21/01/2026]',-122407.3,-198260,-85817.77,644.0878,-375000,-375000,-149954.3,-227097.1,0.03,0.00,0.88,-4,0,-2,12,0
'[13:15:03.124 21/01/2026]',-122376.1,-198231,-85776.65,673.4133,-375000,-375000,-149930.2,-227316.9,0.03,0.00,0.88,-4,0,-2,12,0
'[13:15:03.128 21/01/2026]',-122413.8,-198292.8,-85806.06,650.4805,-375000,-375000,-149953.6,-227175.9,0.03,0.00,0.88,-4,0,-2,12,0
'[13:15:03.132 21/01/2026]',-122447.1,-198321.6,-85847.1,624.7759,-375000,-375000,-149982.9,-226878.5,0.02,0.00,0.89,-4,0,-2,12,0
'[13:15:03.136 21/01/2026]',-122423.7,-198275.7,-85833.11,635.4153,-375000,-375000,-149966.3,-227032.8,0.02,0.00,0.89,-4,0,-2,12,0
'[13:15:03.140 21/01/2026]',-122386.1,-198233.5,-85794.04,671.8934,-375000,-375000,-149930.4,-227299.4,0.02,0.00,0.89,-4,0,-2,12,0
'[13:15:03.144 21/01/2026]',-122410.4,-198272.8,-85813.17,660.8069,-375000,-375000,-149950.3,-227063,0.02,0.00,0.89,-4,0,-2,12,0
'[13:15:03.148 21/01/2026]',-122435.2,-198317,-85847.64,626.8323,-375000,-375000,-149977.7,-226896.9,0.02,0.00,0.89,-4,0,-2,12,0
'[13:15:03.152 21/01/2026]',-122414.1,-198272.7,-85833.65,639.6175,-375000,-375000,-149963.9,-227009.5,0.02,0.00,0.89,-4,0,-2,12,0
'[13:15:03.156 21/01/2026]',-122383.7,-198237.9,-85806.51,657.3201,-375000,-375000,-149938.5,-227416.1,0.02,0.00,0.89,-4,0,-2,12,0
'[13:15:03.160 21/01/2026]',-122402.7,-198265.6,-85822.52,650.7934,-375000,-375000,-149957.4,-227272.8,0.02,0.00,0.89,-4,0,-2,12,0
'[13:15:03.164 21/01/2026]',-122433.3,-198319.5,-85843.3,622.2278,-375000,-375000,-149978.9,-226917.2,0.02,0.00,0.89,-4,0,-2,12,0
'[13:15:03.168 21/01/2026]',-122423.6,-198307.7,-85839.05,618.0704,-375000,-375000,-149970.6,-227037.9,0.02,0.00,0.88,-4,0,-2,12,0
'[13:15:03.172 21/01/2026]',-122387.5,-198251.1,-85804.95,650.6146,-375000,-375000,-149937.4,-227412.5,0.02,0.00,0.88,-4,0,-2,12,0
'[13:15:03.176 21/01/2026]',-122397.9,-198259.5,-85816.48,660.5388,-375000,-375000,-149954.1,-227271.2,0.02,0.00,0.88,-4,0,-2,12,0
'[13:15:03.180 21/01/2026]',-122429.1,-198316.1,-85846.84,624.4183,-375000,-375000,-149984.2,-227074.8,0.02,0.00,0.88,-4,0,-2,12,0
'[13:15:03.184 21/01/2026]',-122432.9,-198300.8,-85851.21,622.1384,-375000,-375000,-149983.4,-227022.9,0.02,0.00,0.88,-4,0,-2,12,0
'[13:15:03.188 21/01/2026]',-122395.9,-198249.1,-85814.2,643.5067,-375000,-375000,-149951.1,-227399.9,0.02,0.00,0.88,-4,0,-2,12,0
'[13:15:03.192 21/01/2026]',-122378.1,-198243.3,-85791.63,669.3453,-375000,-375000,-149922,-227467.7,0.02,0.00,0.88,-4,0,-2,12,0
'[13:15:03.196 21/01/2026]',-122424,-198309.2,-85832.66,636.533,-375000,-375000,-149966.8,-227176.5,0.02,0.00,0.88,-4,0,-2,12,0
'[13:15:03.200 21/01/2026]',-122436.4,-198303.5,-85847.64,624.6418,-375000,-375000,-149984.2,-226970.5,0.02,0.00,0.88,-4,0,-2,12,0
'[13:15:03.204 21/01/2026]',-122399.7,-198258.5,-85818.85,641.7632,-375000,-375000,-149946.9,-227376.7,0.03,0.00,0.89,-4,0,-2,12,0
'[13:15:03.208 21/01/2026]',-122387.2,-198249.4,-85808.21,667.4678,-375000,-375000,-149938.5,-227461.3,0.03,0.00,0.89,-4,0,-2,12,0
'[13:15:03.212 21/01/2026]',-122429.7,-198308.2,-85837.18,631.5709,-375000,-375000,-149978,-227212.1,0.03,0.00,0.89,-4,0,-2,12,0
'[13:15:03.216 21/01/2026]',-122446.6,-198324.4,-85848.53,614.4047,-375000,-375000,-149996.6,-227093.6,0.03,0.00,0.89,-4,0,-2,12,0
'[13:15:03.220 21/01/2026]',-122415.9,-198269.1,-85825.51,636.4435,-375000,-375000,-149967.1,-227352.4,0.03,0.00,0.89,-4,0,-2,12,0
'[13:15:03.224 21/01/2026]',-122384.9,-198239.2,-85800.52,660.1811,-375000,-375000,-149935.2,-227618.7,0.03,0.00,0.89,-4,0,-2,12,0
'[13:15:03.228 21/01/2026]',-122421.6,-198287.5,-85834.36,638.9916,-375000,-375000,-149974.1,-227337.8,0.03,0.00,0.89,-4,0,-2,12,0
'[13:15:03.232 21/01/2026]',-122445.5,-198318.4,-85856.71,619.7244,-375000,-375000,-149992.9,-227024.9,0.03,0.00,0.89,-4,0,-2,12,0
'[13:15:03.236 21/01/2026]',-122407.2,-198269.4,-85827.52,637.8741,-375000,-375000,-149960.4,-227211.2,0.03,0.00,0.89,-4,0,-2,12,0
'[13:15:03.240 21/01/2026]',-122375.1,-198236.4,-85793.5,664.2491,-375000,-375000,-149925.3,-227549.4,0.02,0.00,0.88,-4,0,-2,12,0
'[13:15:03.244 21/01/2026]',-122416.4,-198284.9,-85824.03,640.7351,-375000,-375000,-149965.3,-227269.9,0.02,0.00,0.88,-4,0,-2,12,0
'[13:15:03.248 21/01/2026]',-122450.2,-198340.4,-85857.61,600.0102,-375000,-375000,-150002.2,-227111.9,0.02,0.00,0.88,-4,0,-2,12,0
'[13:15:03.252 21/01/2026]',-122434.1,-198292.8,-85846.97,613.0189,-375000,-375000,-149981,-227181,0.02,0.00,0.88,-4,0,-2,12,0
'[13:15:03.256 21/01/2026]',-122388,-198238.4,-85809.51,645.876,-375000,-375000,-149927.7,-227593.5,0.02,0.00,0.88,-4,0,-2,12,0
'[13:15:03.260 21/01/2026]',-122403.8,-198268.6,-85823.9,642.8809,-375000,-375000,-149943.9,-227488.1,0.02,0.00,0.88,-4,0,-2,12,0
'[13:15:03.264 21/01/2026]',-122449.5,-198328.5,-85863.51,605.777,-375000,-375000,-149989.9,-227122.5,0.02,0.00,0.88,-4,0,-2,12,0
'[13:15:03.268 21/01/2026]',-122439.1,-198309,-85860.47,604.5699,-375000,-375000,-149986,-227141.3,0.02,0.00,0.88,-4,0,-2,12,0
'[13:15:03.272 21/01/2026]',-122391.3,-198247,-85814.11,642.3891,-375000,-375000,-149939,-227501.7,0.02,0.00,0.88,-4,0,-2,12,0
'[13:15:03.276 21/01/2026]',-122398.6,-198255.8,-85821.17,654.1014,-375000,-375000,-149951.7,-227356.6,0.02,0.00,0.88,-4,0,-2,12,0
'[13:15:03.280 21/01/2026]',-122441.8,-198318.7,-85846.88,615.4776,-375000,-375000,-149980.3,-227154,0.02,0.00,0.88,-4,0,-2,12,0
'[13:15:03.284 21/01/2026]',-122434.2,-198299.9,-85836.2,621.9596,-375000,-375000,-149970.6,-227143.9,0.02,0.00,0.88,-4,0,-2,12,0
'[13:15:03.288 21/01/2026]',-122385.3,-198238.4,-85792.88,652.8051,-375000,-375000,-149930,-227514.2,0.02,0.00,0.88,-4,0,-2,12,0
'[13:15:03.292 21/01/2026]',-122371.3,-198232,-85774.86,670.5076,-375000,-375000,-149922,-227580.8,0.02,0.00,0.88,-4,0,-2,12,0
'[13:15:03.296 21/01/2026]',-122420.4,-198298.7,-85825.73,635.9518,-375000,-375000,-149967.5,-227193.9,0.02,0.00,0.88,-4,0,-2,12,0
'[13:15:03.300 21/01/2026]',-122439.8,-198307.2,-85849.83,615.9694,-375000,-375000,-149979.4,-227028.5,0.02,0.00,0.88,-4,0,-2,12,0
'[13:15:03.304 21/01/2026]',-122396,-198241.8,-85810.36,647.6641,-375000,-375000,-149942.7,-227318,0.02,0.00,0.88,-4,0,-2,12,0
'[13:15:03.308 21/01/2026]',-122387.4,-198241.9,-85802.76,664.3832,-375000,-375000,-149940.3,-227438.5,0.02,0.00,0.88,-4,0,-2,12,0
'[13:15:03.312 21/01/2026]',-122439.4,-198319.4,-85844.95,616.6399,-375000,-375000,-149984.3,-227177,0.02,0.00,0.86,-4,0,-2,12,0
'[13:15:03.316 21/01/2026]',-122451.8,-198338.1,-85860.16,598.4903,-375000,-375000,-150000.8,-227054,0.02,0.00,0.86,-4,0,-2,12,0
'[13:15:03.320 21/01/2026]',-122426.9,-198285.5,-85840.84,610.8284,-375000,-375000,-149987,-227346.3,0.02,0.00,0.86,-4,0,-2,12,0
'[13:15:03.324 21/01/2026]',-122400.9,-198253.3,-85818.05,641.2715,-375000,-375000,-149948.2,-227640.3,0.02,0.00,0.86,-4,0,-2,12,0
'[13:15:03.328 21/01/2026]',-122423.8,-198291.9,-85837.58,638.187,-375000,-375000,-149963.3,-227286.7,0.02,0.00,0.86,-4,0,-2,12,0
'[13:15:03.332 21/01/2026]',-122444.8,-198334.7,-85856.49,609.2639,-375000,-375000,-149987.7,-227074.3,0.02,0.00,0.86,-4,0,-2,12,0
'[13:15:03.336 21/01/2026]',-122416.7,-198282.4,-85838.48,624.1501,-375000,-375000,-149968.5,-227312,0.02,0.00,0.86,-4,0,-2,12,0
'[13:15:03.340 21/01/2026]',-122387,-198235.1,-85795.91,662.7292,-375000,-375000,-149930.7,-227572.5,0.02,0.00,0.86,-4,0,-2,12,0
'[13:15:03.344 21/01/2026]',-122416.5,-198273.6,-85809.59,655.3084,-375000,-375000,-149950.2,-227301.7,0.02,0.00,0.86,-4,0,-2,12,0
'[13:15:03.348 21/01/2026]',-122449.8,-198329.9,-85845.98,617.0422,-375000,-375000,-149980,-227121.8,0.02,0.00,0.89,-4,0,-2,12,0
'[13:15:03.352 21/01/2026]',-122433.4,-198286.3,-85826.63,629.6933,-375000,-375000,-149965.9,-227178.4,0.02,0.00,0.89,-4,0,-2,12,0
'[13:15:03.356 21/01/2026]',-122388.8,-198242.5,-85789.48,660.4493,-375000,-375000,-149915.8,-227578.2,0.02,0.00,0.89,-4,0,-2,12,0
'[13:15:03.360 21/01/2026]',-122419,-198281.3,-85833.91,643.5067,-375000,-375000,-149950,-227517.8,0.02,0.00,0.89,-4,0,-2,12,0
'[13:15:03.364 21/01/2026]',-122448.3,-198322.5,-85864.76,622.4514,-375000,-375000,-149982.2,-227065,0.02,0.00,0.89,-4,0,-2,12,0
'[13:15:03.368 21/01/2026]',-122436.1,-198301,-85856,623.1666,-375000,-375000,-149967.9,-227110.8,0.02,0.00,0.89,-4,0,-2,12,0
'[13:15:03.372 21/01/2026]',-122393.9,-198247,-85814.24,651.9109,-375000,-375000,-149926.6,-227533.7,0.02,0.00,0.89,-4,0,-2,12,0
'[13:15:03.376 21/01/2026]',-122398.1,-198250,-85815.85,666.0372,-375000,-375000,-149935,-227383.4,0.02,0.00,0.89,-4,0,-2,12,0
'[13:15:03.380 21/01/2026]',-122442.2,-198325.8,-85848.71,614.0918,-375000,-375000,-149978,-227195.6,0.02,0.00,0.89,-4,0,-2,12,0
'[13:15:03.384 21/01/2026]',-122437.3,-198308.4,-85843.62,621.8255,-375000,-375000,-149971.3,-227087.3,0.03,0.00,0.88,-4,0,-2,12,0
'[13:15:03.388 21/01/2026]',-122399.4,-198246.9,-85814.55,650.1228,-375000,-375000,-149930.8,-227429,0.03,0.00,0.88,-4,0,-2,12,0
'[13:15:03.392 21/01/2026]',-122396.5,-198250.4,-85814.42,661.0752,-375000,-375000,-149927.6,-227545.3,0.03,0.00,0.88,-4,0,-2,12,0
'[13:15:03.396 21/01/2026]',-122441.2,-198314.7,-85852.16,628.7098,-375000,-375000,-149978.2,-227147.6,0.03,0.00,0.88,-4,0,-2,12,0
'[13:15:03.400 21/01/2026]',-122442.7,-198315.8,-85852.6,618.5175,-375000,-375000,-149984.9,-226996.9,0.03,0.00,0.88,-4,0,-2,12,0
'[13:15:03.404 21/01/2026]',-122402.4,-198253.9,-85815.14,648.0217,-375000,-375000,-149945.7,-227311.8,0.03,0.00,0.88,-4,0,-2,12,0
'[13:15:03.408 21/01/2026]',-122382.5,-198228.9,-85805.75,681.46,-375000,-375000,-149924.2,-227382.4,0.03,0.00,0.88,-4,0,-2,12,0
'[13:15:03.412 21/01/2026]',-122427.1,-198288.7,-85846.74,641.5397,-375000,-375000,-149961.2,-227068.6,0.03,0.00,0.88,-4,0,-2,12,0
'[13:15:03.416 21/01/2026]',-122443.1,-198318,-85857.56,620.7526,-375000,-375000,-149972.6,-227000.2,0.03,0.00,0.88,-4,0,-2,12,0
'[13:15:03.420 21/01/2026]',-122418.1,-198280.6,-85837.13,632.2861,-375000,-375000,-149950.1,-227403.7,0.03,0.00,0.89,-4,0,-2,12,0
'[13:15:03.424 21/01/2026]',-122386.2,-198244.1,-85809.55,662.1927,-375000,-375000,-149921.4,-227640.9,0.03,0.00,0.89,-4,0,-2,12,0
'[13:15:03.428 21/01/2026]',-122418,-198282,-85826.63,655.0402,-375000,-375000,-149942.7,-227301.2,0.03,0.00,0.89,-4,0,-2,12,0
'[13:15:03.432 21/01/2026]',-122444,-198317.6,-85843.3,627.9946,-375000,-375000,-149976,-226986.8,0.03,0.00,0.89,-4,0,-2,12,0
'[13:15:03.436 21/01/2026]',-122414.1,-198274.3,-85829.17,640.1539,-375000,-375000,-149950,-227172,0.03,0.00,0.89,-4,0,-2,12,0
'[13:15:03.440 21/01/2026]',-122375.9,-198225,-85799.98,679.3142,-375000,-375000,-149910,-227426.9,0.03,0.00,0.89,-4,0,-2,12,0
'[13:15:03.444 21/01/2026]',-122403.2,-198265.1,-85822.74,665.7243,-375000,-375000,-149935.2,-227162.9,0.03,0.00,0.89,-4,0,-2,12,0
'[13:15:03.448 21/01/2026]',-122436.9,-198322,-85854.26,626.1171,-375000,-375000,-149963,-227110.6,0.03,0.00,0.89,-4,0,-2,12,0
'[13:15:03.452 21/01/2026]',-122418.6,-198273.3,-85838.97,645.4736,-375000,-375000,-149949.3,-227133.5,0.03,0.00,0.89,-4,0,-2,12,0
'[13:15:03.456 21/01/2026]',-122377.3,-198230.4,-85793.99,674.7097,-375000,-375000,-149902.6,-227544.5,0.03,0.00,0.88,-4,0,-2,12,0
'[13:15:03.460 21/01/2026]',-122398.4,-198251.9,-85813.75,674.0392,-375000,-375000,-149929.4,-227415.1,0.03,0.00,0.88,-4,0,-2,12,0
'[13:15:03.464 21/01/2026]',-122433.5,-198307.2,-85846.43,641.9868,-375000,-375000,-149975.3,-227010,0.03,0.00,0.88,-4,0,-2,12,0
'[13:15:03.468 21/01/2026]',-122423.1,-198294.7,-85844.91,633.6719,-375000,-375000,-149975.7,-227087.6,0.03,0.00,0.88,-4,0,-2,12,0
'[13:15:03.472 21/01/2026]',-122370.9,-198230.1,-85801.23,671.6252,-375000,-375000,-149925.3,-227458.4,0.03,0.00,0.88,-4,0,-2,12,0
'[13:15:03.476 21/01/2026]',-122379.6,-198235.6,-85806.82,687.4949,-375000,-375000,-149925.7,-227308.8,0.03,0.00,0.88,-4,0,-2,12,0
'[13:15:03.480 21/01/2026]',-122431.1,-198305.2,-85845.27,637.427,-375000,-375000,-149964.7,-227096.6,0.03,0.00,0.88,-4,0,-2,12,0
'[13:15:03.484 21/01/2026]',-122420.1,-198279.2,-85833.69,646.9489,-375000,-375000,-149955.7,-226998.8,0.03,0.00,0.88,-4,0,-2,12,0
'[13:15:03.488 21/01/2026]',-122382.3,-198226.7,-85803.96,667.0208,-375000,-375000,-149925.3,-227325.1,0.03,0.00,0.88,-4,0,-2,12,0
'[13:15:03.492 21/01/2026]',-122371.9,-198233.9,-85798.64,677.392,-375000,-375000,-149916.9,-227546.6,0.03,0.00,0.88,-4,0,-2,12,0
'[13:15:03.496 21/01/2026]',-122422.5,-198300.5,-85844.42,649.4075,-375000,-375000,-149958.5,-227206.2,0.03,0.00,0.88,-4,0,-2,12,0
'[13:15:03.500 21/01/2026]',-122433.3,-198308.5,-85855.73,637.6953,-375000,-375000,-149974.1,-227027.3,0.03,0.00,0.88,-4,0,-2,12,0
'[13:15:03.504 21/01/2026]',-122395.2,-198247.5,-85820.37,659.8682,-375000,-375000,-149943.4,-227344.9,0.03,0.00,0.88,-4,0,-2,12,0
'[13:15:03.508 21/01/2026]',-122365.6,-198215.1,-85791.76,697.0615,-375000,-375000,-149910,-227431.6,0.03,0.00,0.88,-4,0,-2,12,0
'[13:15:03.512 21/01/2026]',-122404.9,-198280.8,-85822.29,659.4211,-375000,-375000,-149943,-227147.5,0.03,0.00,0.88,-4,0,-2,12,0
'[13:15:03.516 21/01/2026]',-122421.7,-198294.9,-85838.16,645.6078,-375000,-375000,-149955.8,-226982,0.03,0.00,0.88,-4,0,-2,12,0
'[13:15:03.520 21/01/2026]',-122396.3,-198243.3,-85818.72,661.6116,-375000,-375000,-149931.3,-227250,0.03,0.00,0.88,-4,0,-2,12,0
'[13:15:03.524 21/01/2026]',-122371.4,-198227.6,-85798.55,680.1188,-375000,-375000,-149912.3,-227560.2,0.03,0.00,0.88,-4,0,-2,12,0
'[13:15:03.528 21/01/2026]',-122410.2,-198285.1,-85833.65,659.1082,-375000,-375000,-149956.9,-227289.2,0.02,0.00,0.88,-4,0,-2,12,0
'[13:15:03.532 21/01/2026]',-122433.3,-198309.9,-85852.87,642.7914,-375000,-375000,-149968.8,-226958.8,0.02,0.00,0.88,-4,0,-2,12,0
'[13:15:03.536 21/01/2026]',-122404.2,-198258.5,-85832.22,654.2355,-375000,-375000,-149950.1,-227134,0.02,0.00,0.88,-4,0,-2,12,0
'[13:15:03.540 21/01/2026]',-122350.6,-198208.5,-85792.48,686.2432,-375000,-375000,-149923.2,-227409.4,0.02,0.00,0.88,-4,0,-2,12,0
'[13:15:03.544 21/01/2026]',-122393.2,-198257.6,-85822.2,671.2228,-375000,-375000,-149941.3,-227144.1,0.02,0.00,0.88,-4,0,-2,12,0
'[13:15:03.548 21/01/2026]',-122464.1,-198323.9,-85863.51,631.1685,-375000,-375000,-149956.9,-226972.5,0.02,0.00,0.88,-4,0,-2,12,0
'[13:15:03.552 21/01/2026]',-122445.4,-198279.4,-85854.08,637.5164,-375000,-375000,-149951.9,-227076.1,0.02,0.00,0.88,-4,0,-2,12,0
'[13:15:03.556 21/01/2026]',-122412.1,-198245.8,-85822.52,655.0402,-375000,-375000,-149919.7,-227477.9,0.02,0.00,0.88,-4,0,-2,12,0
'[13:15:03.560 21/01/2026]',-122453.9,-198312.9,-85844.42,641.4951,-375000,-375000,-149935.8,-227351.9,0.02,0.00,0.88,-4,0,-2,12,0
'[13:15:03.564 21/01/2026]',-122517.3,-198397,-85889.88,594.6458,-375000,-375000,-149981.9,-227136.5,0.03,0.00,0.88,-4,0,-2,12,0
'[13:15:03.568 21/01/2026]',-122518.4,-198370.9,-85890.38,596.5233,-375000,-375000,-149984.3,-227107.5,0.03,0.00,0.88,-4,0,-2,12,0
'[13:15:03.572 21/01/2026]',-122475.7,-198317.3,-85852.91,629.4251,-375000,-375000,-149941.1,-227427.7,0.03,0.00,0.88,-4,0,-2,12,0
'[13:15:03.576 21/01/2026]',-122479.3,-198328.4,-85860.7,636.8459,-375000,-375000,-149956,-227279.1,0.03,0.00,0.88,-4,0,-2,12,0
'[13:15:03.580 21/01/2026]',-122522.8,-198393.8,-85890.02,590.5778,-375000,-375000,-149990.8,-227064.3,0.03,0.00,0.88,-4,0,-2,12,0
'[13:15:03.584 21/01/2026]',-122515.8,-198368.5,-85883.53,601.4407,-375000,-375000,-149979.8,-226978.1,0.03,0.00,0.88,-4,0,-2,12,0
'[13:15:03.588 21/01/2026]',-122477.9,-198327.1,-85851.84,616.8187,-375000,-375000,-149947.2,-227385.5,0.03,0.00,0.88,-4,0,-2,12,0
'[13:15:03.592 21/01/2026]',-122457.2,-198316.6,-85835.08,640.4222,-375000,-375000,-149926.8,-227549.6,0.03,0.00,0.88,-4,0,-2,12,0
'[13:15:03.596 21/01/2026]',-122493.9,-198364.2,-85875.17,622.1384,-375000,-375000,-149958.5,-227113.3,0.03,0.00,0.88,-4,0,-2,12,0
'[13:15:03.600 21/01/2026]',-122504.7,-198377.8,-85895.47,600.636,-375000,-375000,-149970,-226972.9,0.03,0.00,0.88,-4,0,0,12,0
'[13:15:03.604 21/01/2026]',-122468,-198320.2,-85861.81,623.3901,-375000,-375000,-149939.4,-227297.1,0.03,0.00,0.88,-4,0,0,12,0
'[13:15:03.608 21/01/2026]',-122445.5,-198295.5,-85835.13,657.0519,-375000,-375000,-149927.4,-227363,0.03,0.00,0.88,-4,0,0,12,0
'[13:15:03.612 21/01/2026]',-122499.5,-198376.6,-85885.1,601.7537,-375000,-375000,-149982.5,-227177.1,0.03,0.00,0.88,-4,0,0,12,0
'[13:15:03.616 21/01/2026]',-122512.5,-198385.8,-85900.92,587.8508,-375000,-375000,-149986.5,-227012.8,0.03,0.00,0.88,-4,0,0,12,0
'[13:15:03.620 21/01/2026]',-122467.5,-198315.5,-85861.81,622.9431,-375000,-375000,-149942,-227211.4,0.03,0.00,0.88,-4,0,0,12,0
'[13:15:03.624 21/01/2026]',-122440.4,-198286.3,-85834.63,644.8031,-375000,-375000,-149919.5,-227475.2,0.03,0.00,0.88,-4,0,0,12,0
'[13:15:03.628 21/01/2026]',-122472.3,-198331.6,-85861.63,629.6039,-375000,-375000,-149953,-227191.8,0.03,0.00,0.88,-4,0,0,12,0
'[13:15:03.632 21/01/2026]',-122488.5,-198359.2,-85875,615.1647,-375000,-375000,-149975.8,-226809.6,0.03,0.00,0.88,-4,0,0,12,0
'[13:15:03.636 21/01/2026]',-122456.9,-198320,-85849.74,627.9052,-375000,-375000,-149945.7,-227044.7,0.03,0.00,0.88,-4,0,-2,12,0
'[13:15:03.640 21/01/2026]',-122426.8,-198283.5,-85820.28,656.5154,-375000,-375000,-149914.1,-227452.2,0.03,0.00,0.88,-4,0,-2,12,0
'[13:15:03.644 21/01/2026]',-122466.1,-198326.1,-85857.7,638.4105,-375000,-375000,-149949,-227208.6,0.03,0.00,0.88,-4,0,-2,12,0
'[13:15:03.648 21/01/2026]',-122498.5,-198380.8,-85883.53,598.4903,-375000,-375000,-149976.7,-227023.8,0.03,0.00,0.88,-4,0,-2,12,0
'[13:15:03.652 21/01/2026]',-122465.1,-198325.6,-85854.34,625.9382,-375000,-375000,-149942.7,-227074.3,0.03,0.00,0.88,-4,0,-2,12,0
'[13:15:03.656 21/01/2026]',-122417.4,-198265.6,-85812.19,664.0703,-375000,-375000,-149894.2,-227447.7,0.03,0.00,0.88,-4,0,-2,12,0
'[13:15:03.660 21/01/2026]',-122437.6,-198293.2,-85831.91,658.9741,-375000,-375000,-149918.6,-227330.3,0.03,0.00,0.88,-4,0,-2,12,0
'[13:15:03.664 21/01/2026]',-122482.3,-198357.5,-85875,620.842,-375000,-375000,-149964.1,-226919.5,0.03,0.00,0.88,-4,0,-2,12,0
'[13:15:03.668 21/01/2026]',-122474,-198346.3,-85875,613.0636,-375000,-375000,-149961,-227077.9,0.03,0.00,0.88,-4,0,-2,12,0
'[13:15:03.672 21/01/2026]',-122434,-198282.2,-85837.05,647.1724,-375000,-375000,-149921.5,-227417,0.03,0.00,0.88,-4,0,-2,12,0
'[13:15:03.676 21/01/2026]',-122440.6,-198289,-85837.49,663.8021,-375000,-375000,-149928.2,-227271.6,0.03,0.00,0.88,-4,0,-2,12,0
'[13:15:03.680 21/01/2026]',-122488.6,-198371.1,-85878.71,608.638,-375000,-375000,-149981.3,-227071.2,0.03,0.00,0.88,-4,0,-2,12,0
