'Time and date','Fp1','Fp2','F3','Fz','F4','P3','Pz','P4','AccX','AccY','AccZ','GyroX','GyroY','GyroZ','Battery','Event'
'[hh:mm:ss.mmm dd/mm/yyyy]','uV','uV','uV','uV','uV','uV','uV','uV','G','G','G','Deg/s','Deg/s','Deg/s','%','Button'
'[13:02:00.000 21/01/2026]',-131842.7,-213615.9,-121269.1,-36768.04,-375000,-375000,-177519.4,-148221.3,0.03,0.00,0.89,-4,0,-2,28,0
'[13:02:00.004 21/01/2026]',-131761.6,-213524.6,-121170.6,-36758.87,-375000,-375000,-177930.9,-148354.8,0.03,0.00,0.89,-4,0,-2,28,0
'[13:02:00.008 21/01/2026]',-131718.8,-213485.1,-121136,-36705.14,-375000,-375000,-177902.3,-148320.6,0.03,0.00,0.89,-4,0,-2,28,0
'[13:02:00.012 21/01/2026]',-131797.8,-213583.8,-121240.3,-36717.57,-375000,-375000,-177531.8,-148202.9,0.03,0.00,0.89,-4,0,-2,28,0
'[13:02:00.016 21/01/2026]',-131851.2,-213630.3,-121288.5,-36769.38,-375000,-375000,-177471,-148199.3,0.03,0.00,0.89,-4,0,-2,28,0
'[13:02:00.020 21/01/2026]',-131772.8,-213541.9,-121183,-36761.42,-375000,-375000,-177876.7,-148334.8,0.03,0.00,0.89,-4,0,-2,28,0
'[13:02:00.024 21/01/2026]',-131704.2,-213462.3,-121107.4,-36692.93,-375000,-375000,-177935.7,-148327.5,0.03,0.00,0.89,-4,0,-2,28,0
'[13:02:00.028 21/01/2026]',-131778.3,-213549.4,-121212.3,-36703.62,-375000,-375000,-177594.7,-148219.3,0.03,0.00,0.89,-4,0,-2,28,0
'[13:02:00.032 21/01/2026]',-131850.6,-213626.8,-121293,-36765.31,-375000,-375000,-177447.2,-148192.4,0.03,0.00,0.89,-4,0,-2,28,0
'[13:02:00.036 21/01/2026]',-131799.7,-213548.7,-121218.6,-36773.85,-375000,-375000,-177820.6,-148321.4,0.02,0.00,0.88,-4,0,-2,28,0
'[13:02:00.040 21/01/2026]',-131726.8,-213468.7,-121125.3,-36722.08,-375000,-375000,-177981.4,-148355.2,0.02,0.00,0.88,-4,0,-2,28,0
'[13:02:00.044 21/01/2026]',-131772,-213536.2,-121197.9,-36711.58,-375000,-375000,-177671.8,-148254.4,0.02,0.00,0.88,-4,0,-2,28,0
'[13:02:00.048 21/01/2026]',-131851.1,-213617.5,-121287.7,-36762.45,-375000,-375000,-177438.7,-148197.3,0.02,0.00,0.88,-4,0,-2,28,0
'[13:02:00.052 21/01/2026]',-131816.7,-213577.6,-121247.5,-36784.8,-375000,-375000,-177751.2,-148307.3,0.02,0.00,0.88,-4,0,-2,28,0
'[13:02:00.056 21/01/2026]',-131727.8,-213482.1,-121147.3,-36725.66,-375000,-375000,-177975.8,-148354.2,0.02,0.00,0.88,-4,0,-2,28,0
'[13:02:00.060 21/01/2026]',-131749.2,-213511.1,-121182.2,-36694.28,-375000,-375000,-177717.5,-148256.2,0.02,0.00,0.88,-4,0,-2,28,0
'[13:02:00.064 21/01/2026]',-131840.2,-213615.6,-121282.2,-36753.69,-375000,-375000,-177449.5,-148191.1,0.02,0.00,0.88,-4,0,-2,28,0
'[13:02:00.068 21/01/2026]',-131829.6,-213601.3,-121249.4,-36788.2,-375000,-375000,-177681.8,-148285.1,0.02,0.00,0.88,-4,0,-2,28,0
'[13:02:00.072 21/01/2026]',-131738.9,-213493.7,-121149.9,-36742.73,-375000,-375000,-177979.1,-148363.1,0.05,0.00,0.88,-4,0,-2,28,0
'[13:02:00.076 21/01/2026]',-131742.1,-213503.6,-121166.6,-36696.2,-375000,-375000,-177779.9,-148277.8,0.05,0.00,0.88,-4,0,-2,28,0
'[13:02:00.080 21/01/2026]',-131831.4,-213606.9,-121282.2,-36739.74,-375000,-375000,-177478.7,-148197.2,0.05,0.00,0.88,-4,0,-2,28,0
'[13:02:00.084 21/01/2026]',-131832,-213605.5,-121277.5,-36777.43,-375000,-375000,-177620.5,-148260,0.05,0.00,0.88,-4,0,-2,28,0
'[13:02:00.088 21/01/2026]',-131752.6,-213499.7,-121170.9,-36747.25,-375000,-375000,-177959.8,-148362.1,0.05,0.00,0.88,-4,0,-2,28,0
'[13:02:00.092 21/01/2026]',-131740.1,-213494.7,-121149.6,-36701.56,-375000,-375000,-177852.7,-148311.8,0.05,0.00,0.88,-4,0,-2,28,0
'[13:02:00.096 21/01/2026]',-131828.5,-213606.5,-121258.7,-36743.54,-375000,-375000,-177527.1,-148223.1,0.05,0.00,0.88,-4,0,-2,28,0
'[13:02:00.100 21/01/2026]',-131850,-213628.9,-121276,-36794.1,-375000,-375000,-177576.6,-148256.8,0.05,0.00,0.88,-4,0,-2,28,0
'[13:02:00.104 21/01/2026]',-131768.1,-213533.2,-121182.4,-36770.5,-375000,-375000,-177929.5,-148365.7,0.05,0.00,0.88,-4,0,-2,28,0
'[13:02:00.108 21/01/2026]',-131731.1,-213484.1,-121138.4,-36711.58,-375000,-375000,-177893.9,-148326,0.02,0.00,0.89,-4,0,-2,28,0
'[13:02:00.112 21/01/2026]',-131823.6,-213573.9,-121249.8,-36741.66,-375000,-375000,-177567.5,-148235.2,0.02,0.00,0.89,-4,0,-2,28,0
'[13:02:00.116 21/01/2026]',-131870.1,-213629.9,-121303.7,-36798.88,-375000,-375000,-177545.1,-148249.4,0.02,0.00,0.89,-4,0,-2,28,0
'[13:02:00.120 21/01/2026]',-131798.9,-213564.7,-121212.3,-36786.77,-375000,-375000,-177896.6,-148364.7,0.02,0.00,0.89,-4,0,-2,28,0
'[13:02:00.124 21/01/2026]',-131732.1,-213492.1,-121148,-36718.64,-375000,-375000,-177937.3,-148347.5,0.02,0.00,0.89,-4,0,-2,28,0
'[13:02:00.128 21/01/2026]',-131795.2,-213573,-121237.4,-36722.66,-375000,-375000,-177612.4,-148244.3,0.02,0.00,0.89,-4,0,-2,28,0
'[13:02:00.132 21/01/2026]',-131870.7,-213654.1,-121314.3,-36788.42,-375000,-375000,-177503.6,-148233.9,0.02,0.00,0.89,-4,0,-2,28,0
'[13:02:00.136 21/01/2026]',-131826.8,-213582.7,-121243.2,-36800.85,-375000,-375000,-177845.2,-148348.9,0.02,0.00,0.89,-4,0,-2,28,0
'[13:02:00.140 21/01/2026]',-131754.9,-213502.5,-121159.5,-36738.22,-375000,-375000,-177977.1,-148364,0.02,0.00,0.89,-4,0,-2,28,0
'[13:02:00.144 21/01/2026]',-131803.1,-213560.3,-121227.9,-36729.55,-375000,-375000,-177685.2,-148268.1,0.02,-0.02,0.88,-4,0,-2,28,0
'[13:02:00.148 21/01/2026]',-131873.1,-213647.5,-121315.4,-36787.48,-375000,-375000,-177502.6,-148231.9,0.02,-0.02,0.88,-4,0,-2,28,0
'[13:02:00.152 21/01/2026]',-131841,-213607.1,-121267.7,-36810.55,-375000,-375000,-177798.1,-148344.2,0.02,-0.02,0.88,-4,0,-2,28,0
'[13:02:00.156 21/01/2026]',-131750.9,-213502.5,-121166.5,-36751.18,-375000,-375000,-178000.2,-148384.9,0.02,-0.02,0.88,-4,0,-2,28,0
'[13:02:00.160 21/01/2026]',-131777.6,-213537.5,-121202.9,-36727.58,-375000,-375000,-177757.3,-148298.6,0.02,-0.02,0.88,-4,0,-2,28,0
'[13:02:00.164 21/01/2026]',-131863.8,-213639,-121290.4,-36781.4,-375000,-375000,-177508.5,-148234.3,0.02,-0.02,0.88,-4,0,-2,28,0
'[13:02:00.168 21/01/2026]',-131837.6,-213610.9,-121264.2,-36805.81,-375000,-375000,-177727.9,-148322.6,0.02,-0.02,0.88,-4,0,-2,28,0
'[13:02:00.172 21/01/2026]',-131757.9,-213503.5,-121167.8,-36756.64,-375000,-375000,-177991.5,-148387.3,0.02,-0.02,0.88,-4,0,-2,28,0
'[13:02:00.176 21/01/2026]',-131776.4,-213525.1,-121196.6,-36724.72,-375000,-375000,-177820.3,-148315.7,0.02,-0.02,0.88,-4,0,-2,28,0
'[13:02:00.180 21/01/2026]',-131854.9,-213620.2,-121294.8,-36757.98,-375000,-375000,-177520,-148226.9,0.02,0.00,0.88,-4,0,-2,28,0
'[13:02:00.184 21/01/2026]',-131860.8,-213633.9,-121298,-36810.64,-375000,-375000,-177669,-148296.5,0.02,0.00,0.88,-4,0,-2,28,0
'[13:02:00.188 21/01/2026]',-131770,-213531.3,-121187.6,-36776.31,-375000,-375000,-177987.8,-148389.1,0.02,0.00,0.88,-4,0,-2,28,0
'[13:02:00.192 21/01/2026]',-131750.9,-213505.2,-121168.5,-36713.45,-375000,-375000,-177860.9,-148321.5,0.02,0.00,0.88,-4,0,-2,28,0
'[13:02:00.196 21/01/2026]',-131843.4,-213609.8,-121282.3,-36754.22,-375000,-375000,-177550.7,-148241.3,0.02,0.00,0.88,-4,0,-2,28,0
'[13:02:00.200 21/01/2026]',-131869.6,-213641,-121307.9,-36809.93,-375000,-375000,-177620.7,-148285.9,0.02,0.00,0.88,-4,0,-2,28,0
'[13:02:00.204 21/01/2026]',-131790.1,-213544,-121206.2,-36785.11,-375000,-375000,-177957.2,-148384.6,0.02,0.00,0.88,-4,0,-2,28,0
'[13:02:00.208 21/01/2026]',-131755.6,-213504,-121174,-36730,-375000,-375000,-177913.4,-148344.5,0.02,0.00,0.88,-4,0,-2,28,0
'[13:02:00.212 21/01/2026]',-131834.5,-213594.3,-121276.5,-36750.02,-375000,-375000,-177594.3,-148249.5,0.02,0.00,0.88,-4,0,-2,28,0
'[13:02:00.216 21/01/2026]',-131882,-213642.9,-121315.5,-36801.97,-375000,-375000,-177565.9,-148261.2,0.03,0.00,0.88,-4,0,-2,28,0
'[13:02:00.220 21/01/2026]',-131812.3,-213565.4,-121225.2,-36796.11,-375000,-375000,-177905.8,-148368.2,0.03,0.00,0.88,-4,0,-2,28,0
'[13:02:00.224 21/01/2026]',-131748.3,-213497.2,-121165.4,-36734.15,-375000,-375000,-177947.2,-148353.9,0.03,0.00,0.88,-4,0,-2,28,0
'[13:02:00.228 21/01/2026]',-131818,-213576.5,-121256.8,-36736.3,-375000,-375000,-177635.4,-148264,0.03,0.00,0.88,-4,0,-2,28,0
'[13:02:00.232 21/01/2026]',-131885.5,-213656.3,-121337.4,-36805.1,-375000,-375000,-177543.3,-148265.5,0.03,0.00,0.88,-4,0,-2,28,0
'[13:02:00.236 21/01/2026]',-131824.4,-213588.9,-121249.5,-36809.66,-375000,-375000,-177858.9,-148363.7,0.03,0.00,0.88,-4,0,-2,28,0
'[13:02:00.240 21/01/2026]',-131748,-213505.3,-121161.3,-36742.24,-375000,-375000,-177979.1,-148373.6,0.03,0.00,0.88,-4,0,-2,28,0
'[13:02:00.244 21/01/2026]',-131806,-213576,-121246.9,-36740.9,-375000,-375000,-177696,-148286.3,0.03,0.00,0.88,-4,0,-2,28,0
'[13:02:00.248 21/01/2026]',-131888.5,-213664.8,-121343.1,-36803.89,-375000,-375000,-177524.3,-148253.9,0.03,0.00,0.88,-4,0,-2,28,0
'[13:02:00.252 21/01/2026]',-131854.9,-213609.7,-121287,-36817.39,-375000,-375000,-177804.2,-148351.6,0.03,0.00,0.88,-4,0,-2,28,0
'[13:02:00.256 21/01/2026]',-131771,-213511.9,-121188,-36756.41,-375000,-375000,-177992.9,-148384.1,0.03,0.00,0.88,-4,0,-2,28,0
'[13:02:00.260 21/01/2026]',-131794.9,-213552.2,-121227.9,-36733.26,-375000,-375000,-177748.8,-148296.4,0.03,0.00,0.88,-4,0,-2,28,0
'[13:02:00.264 21/01/2026]',-131872.5,-213649.9,-121329.3,-36788.6,-375000,-375000,-177517.4,-148244.3,0.03,0.00,0.88,-4,0,-2,28,0
'[13:02:00.268 21/01/2026]',-131857.3,-213630,-121294.9,-36822.8,-375000,-375000,-177744.2,-148332.4,0.03,0.00,0.88,-4,0,-2,28,0
'[13:02:00.272 21/01/2026]',-131773.9,-213524.4,-121182.8,-36772.69,-375000,-375000,-177999.3,-148396.1,0.03,0.00,0.88,-4,0,-2,28,0
'[13:02:00.276 21/01/2026]',-131780.3,-213525.8,-121208.3,-36733.39,-375000,-375000,-177804.2,-148315.6,0.03,0.00,0.88,-4,0,-2,28,0
'[13:02:00.280 21/01/2026]',-131862.2,-213624.5,-121317.8,-36779.17,-375000,-375000,-177520.9,-148242,0.03,0.00,0.88,-4,0,-2,28,0
'[13:02:00.284 21/01/2026]',-131859.8,-213628.2,-121311.9,-36821.23,-375000,-375000,-177669.9,-148308.6,0.03,0.00,0.88,-4,0,-2,28,0
'[13:02:00.288 21/01/2026]',-131765.2,-213526.8,-121201.6,-36787.13,-375000,-375000,-177989.7,-148402.9,0.02,0.00,0.88,-4,0,-2,28,0
'[13:02:00.292 21/01/2026]',-131760,-213527.1,-121199.3,-36750.78,-375000,-375000,-177888.9,-148364.3,0.02,0.00,0.88,-4,0,-2,28,0
'[13:02:00.296 21/01/2026]',-131882.2,-213661.5,-121327.7,-36790.25,-375000,-375000,-177576.5,-148279.7,0.02,0.00,0.88,-4,0,-2,28,0
'[13:02:00.300 21/01/2026]',-131922,-213694.3,-121370.3,-36850.74,-375000,-375000,-177649,-148328.8,0.02,0.00,0.88,-4,0,-2,28,0
'[13:02:00.304 21/01/2026]',-131822.7,-213589.5,-121266.3,-36832.86,-375000,-375000,-177990.2,-148438.5,0.02,0.00,0.88,-4,0,-2,28,0
'[13:02:00.308 21/01/2026]',-131792.2,-213555.4,-121229.6,-36784,-375000,-375000,-177949,-148398.6,0.02,0.00,0.88,-4,0,-2,28,0
'[13:02:00.312 21/01/2026]',-131867.2,-213654.1,-121326.6,-36813.37,-375000,-375000,-177636.5,-148310.3,0.02,0.00,0.88,-4,0,-2,28,0
'[13:02:00.316 21/01/2026]',-131913.5,-213717,-121377.4,-36861.69,-375000,-375000,-177617.4,-148321.1,0.02,0.00,0.88,-4,0,-2,28,0
'[13:02:00.320 21/01/2026]',-131833.4,-213616.8,-121274.2,-36842.91,-375000,-375000,-177948.7,-148423.9,0.02,0.00,0.88,-4,0,-2,28,0
'[13:02:00.324 21/01/2026]',-131774.3,-213540.6,-121201.1,-36774.3,-375000,-375000,-177978.9,-148401.2,0.02,0.00,0.88,-4,0,-2,28,0
'[13:02:00.328 21/01/2026]',-131834.7,-213612.7,-121286.2,-36772.69,-375000,-375000,-177665.5,-148301.9,0.02,0.00,0.88,-4,0,-2,28,0
'[13:02:00.332 21/01/2026]',-131888,-213678.2,-121348.4,-36826.69,-375000,-375000,-177574.7,-148296,0.02,0.00,0.88,-4,0,-2,28,0
'[13:02:00.336 21/01/2026]',-131822,-213620.6,-121282.9,-36831.29,-375000,-375000,-177888.5,-148402.3,0.02,0.00,0.88,-4,0,-2,28,0
'[13:02:00.340 21/01/2026]',-131748.9,-213532.6,-121197.9,-36774.25,-375000,-375000,-178004.6,-148418.3,0.02,0.00,0.88,-4,0,-2,28,0
'[13:02:00.344 21/01/2026]',-131792.2,-213561.3,-121263.6,-36754,-375000,-375000,-177709.8,-148318.1,0.02,0.00,0.88,-4,0,-2,28,0
'[13:02:00.348 21/01/2026]',-131853,-213645.8,-121355.8,-36809.39,-375000,-375000,-177546.9,-148284.3,0.02,0.00,0.88,-4,0,-2,28,0
'[13:02:00.352 21/01/2026]',-131797.5,-213586,-121301.8,-36826.96,-375000,-375000,-177830.9,-148388.5,0.02,0.00,0.88,-4,0,-2,28,0
'[13:02:00.356 21/01/2026]',-131698.1,-213464.9,-121197.3,-36758.74,-375000,-375000,-178018.8,-148421,0.02,0.00,0.88,-4,0,-2,28,0
'[13:02:00.360 21/01/2026]',-131731.8,-213505.3,-121248.6,-36737.82,-375000,-375000,-177784.3,-148340.3,0.03,-0.02,0.88,-4,0,-2,28,0
'[13:02:00.364 21/01/2026]',-131814.5,-213591.5,-121350.6,-36796.2,-375000,-375000,-177572.2,-148299.7,0.03,-0.02,0.88,-4,0,-2,28,0
'[13:02:00.368 21/01/2026]',-131774.8,-213552,-121305.1,-36822.13,-375000,-375000,-177792,-148382.3,0.03,-0.02,0.88,-4,0,-2,28,0
'[13:02:00.372 21/01/2026]',-131671.2,-213428.7,-121182.5,-36763.88,-375000,-375000,-178050.3,-148444.6,0.03,-0.02,0.88,-4,0,-2,28,0
'[13:02:00.376 21/01/2026]',-131673.1,-213423.3,-121197.7,-36718.42,-375000,-375000,-177853.2,-148362.5,0.03,-0.02,0.88,-4,0,-2,28,0
'[13:02:00.380 21/01/2026]',-131754,-213519.7,-121299.6,-36774.39,-375000,-375000,-177601,-148310.4,0.03,-0.02,0.88,-4,0,-2,28,0
'[13:02:00.384 21/01/2026]',-131739.6,-213512.5,-121297.9,-36807.06,-375000,-375000,-177749.5,-148369.8,0.03,-0.02,0.88,-4,0,-2,28,0
'[13:02:00.388 21/01/2026]',-131644.5,-213398.4,-121193.8,-36759.41,-375000,-375000,-178038.1,-148438,0.03,-0.02,0.88,-4,0,-2,28,0
'[13:02:00.392 21/01/2026]',-131629.6,-213383.7,-121180.8,-36707.91,-375000,-375000,-177916.5,-148375.5,0.03,-0.02,0.88,-4,0,-2,28,0
'[13:02:00.396 21/01/2026]',-131718.7,-213479.3,-121282.2,-36747.7,-375000,-375000,-177623.9,-148305.1,0.03,-0.02,0.89,-4,0,-2,28,0
'[13:02:00.400 21/01/2026]',-131743.2,-213502.2,-121287.3,-36803.98,-375000,-375000,-177711.2,-148362,0.03,-0.02,0.89,-4,0,-2,28,0
'[13:02:00.404 21/01/2026]',-131647.8,-213408.2,-121196.2,-36770.32,-375000,-375000,-178031.5,-148451.7,0.03,-0.02,0.89,-4,0,-2,28,0
'[13:02:00.408 21/01/2026]',-131618.3,-213366.1,-121180.7,-36714.35,-375000,-375000,-177982.1,-148411.2,0.03,-0.02,0.89,-4,0,-2,28,0
'[13:02:00.412 21/01/2026]',-131700.9,-213458.3,-121281.7,-36742.78,-375000,-375000,-177672.4,-148326.3,0.03,-0.02,0.89,-4,0,-2,28,0
'[13:02:00.416 21/01/2026]',-131737.2,-213497.4,-121309.3,-36797.63,-375000,-375000,-177674.1,-148348.8,0.03,-0.02,0.89,-4,0,-2,28,0
'[13:02:00.420 21/01/2026]',-131668.7,-213409.6,-121219.4,-36786.86,-375000,-375000,-178003.4,-148456,0.03,-0.02,0.89,-4,0,-2,28,0
'[13:02:00.424 21/01/2026]',-131624,-213352.9,-121166.9,-36732.9,-375000,-375000,-178036,-148445.3,0.03,-0.02,0.89,-4,0,-2,28,0
'[13:02:00.428 21/01/2026]',-131692.2,-213435.3,-121260,-36745.51,-375000,-375000,-177738.2,-148360.2,0.03,-0.02,0.89,-4,0,-2,28,0
'[13:02:00.432 21/01/2026]',-131753.9,-213518,-121332.4,-36813.37,-375000,-375000,-177662,-148364.2,0.03,0.00,0.88,-4,0,-2,28,0
'[13:02:00.436 21/01/2026]',-131688.7,-213443.2,-121241.1,-36805.81,-375000,-375000,-177965.3,-148460.1,0.03,0.00,0.88,-4,0,-2,28,0
'[13:02:00.440 21/01/2026]',-131618.7,-213367.7,-121157.9,-36746.89,-375000,-375000,-178069.6,-148462.7,0.03,0.00,0.88,-4,0,-2,28,0
'[13:02:00.444 21/01/2026]',-131689,-213432.4,-121239.2,-36751.5,-375000,-375000,-177793.6,-148380.5,0.03,0.00,0.88,-4,0,-2,28,0
'[13:02:00.448 21/01/2026]',-131756.6,-213515.9,-121325.4,-36810.59,-375000,-375000,-177650.1,-148361.6,0.03,0.00,0.88,-4,0,-2,28,0
'[13:02:00.452 21/01/2026]',-131705.1,-213466.9,-121266.8,-36824.95,-375000,-375000,-177914.6,-148454.7,0.03,0.00,0.88,-4,0,-2,28,0
'[13:02:00.456 21/01/2026]',-131624.6,-213371.2,-121169.9,-36764.24,-375000,-375000,-178086.9,-148478.1,0.03,0.00,0.88,-4,0,-2,28,0
'[13:02:00.460 21/01/2026]',-131657.1,-213403.2,-121209.8,-36730.71,-375000,-375000,-177829,-148381.2,0.03,0.00,0.88,-4,0,-2,28,0
'[13:02:00.464 21/01/2026]',-131740.5,-213496.7,-121309.3,-36780.55,-375000,-375000,-177623.7,-148339.1,0.03,0.00,0.88,-4,0,-2,28,0
'[13:02:00.468 21/01/2026]',-131711.2,-213460,-121270.2,-36804.02,-375000,-375000,-177840.1,-148417,0.02,0.00,0.89,-4,0,-2,28,0
'[13:02:00.472 21/01/2026]',-131628.8,-213368.7,-121171.3,-36756.95,-375000,-375000,-178077.4,-148471.1,0.02,0.00,0.89,-4,0,-2,28,0
'[13:02:00.476 21/01/2026]',-131649.2,-213394.5,-121200.7,-36720.61,-375000,-375000,-177870.2,-148387,0.02,0.00,0.89,-4,0,-2,28,0
'[13:02:00.480 21/01/2026]',-131742.1,-213501.3,-121318.3,-36778.18,-375000,-375000,-177605.4,-148323.4,0.02,0.00,0.89,-4,0,-2,28,0
'[13:02:00.484 21/01/2026]',-131741.2,-213481,-121306.3,-36814.21,-375000,-375000,-177768.3,-148389.3,0.02,0.00,0.89,-4,0,-2,28,0
'[13:02:00.488 21/01/2026]',-131641.1,-213376.5,-121182.7,-36769.65,-375000,-375000,-178063.1,-148468.2,0.02,0.00,0.89,-4,0,-2,28,0
'[13:02:00.492 21/01/2026]',-131635.6,-213380,-121169.6,-36735.4,-375000,-375000,-177945.9,-148417.3,0.02,0.00,0.89,-4,0,-2,28,0
'[13:02:00.496 21/01/2026]',-131731,-213485.9,-121294.4,-36775.46,-375000,-375000,-177652.1,-148341.3,0.02,0.00,0.89,-4,0,-2,28,0
'[13:02:00.500 21/01/2026]',-131750.4,-213504.1,-121320.6,-36819.98,-375000,-375000,-177723.9,-148377.7,0.02,0.00,0.89,-4,0,-2,28,0
'[13:02:00.504 21/01/2026]',-131660,-213405,-121203.9,-36789.59,-375000,-375000,-178040.6,-148459.8,0.03,0.00,0.89,-4,0,-2,28,0
'[13:02:00.508 21/01/2026]',-131632,-213380.7,-121174.8,-36739.74,-375000,-375000,-177990.9,-148424.1,0.03,0.00,0.89,-4,0,-2,28,0
'[13:02:00.512 21/01/2026]',-131693.9,-213457,-121273.1,-36766.79,-375000,-375000,-177692.4,-148349,0.03,0.00,0.89,-4,0,-2,28,0
'[13:02:00.516 21/01/2026]',-131716.7,-213476.9,-121309.1,-36817.21,-375000,-375000,-177698.7,-148372,0.03,0.00,0.89,-4,0,-2,28,0
'[13:02:00.520 21/01/2026]',-131691.6,-213438,-121227.1,-36820.79,-375000,-375000,-178027.2,-148471.1,0.03,0.00,0.89,-4,0,-2,28,0
'[13:02:00.524 21/01/2026]',-131677.1,-213412.5,-121183.4,-36767.99,-375000,-375000,-178048.3,-148449.9,0.03,0.00,0.89,-4,0,-2,28,0
'[13:02:00.528 21/01/2026]',-131769.2,-213521.4,-121293,-36780.42,-375000,-375000,-177740.2,-148357.2,0.03,0.00,0.89,-4,0,-2,28,0
'[13:02:00.532 21/01/2026]',-131839.3,-213590.8,-121358.6,-36845.02,-375000,-375000,-177669.1,-148354.8,0.03,0.00,0.89,-4,0,-2,28,0
'[13:02:00.536 21/01/2026]',-131797.6,-213541.8,-121283.1,-36863.7,-375000,-375000,-178012.8,-148472.6,0.03,0.00,0.89,-4,0,-2,28,0
'[13:02:00.540 21/01/2026]',-131750.2,-213479.7,-121213.5,-36804.52,-375000,-375000,-178114.4,-148475.6,0.03,0.00,0.89,-4,0,-2,28,0
'[13:02:00.544 21/01/2026]',-131848.7,-213584.5,-121310.2,-36810.91,-375000,-375000,-177823.8,-148381.6,0.03,0.00,0.89,-4,0,-2,28,0
'[13:02:00.548 21/01/2026]',-131945,-213684.1,-121410.6,-36883.37,-375000,-375000,-177679.3,-148359.3,0.03,0.00,0.89,-4,0,-2,28,0
'[13:02:00.552 21/01/2026]',-131920.8,-213645.8,-121358.4,-36913.95,-375000,-375000,-177969.1,-148462.3,0.03,0.00,0.89,-4,0,-2,28,0
'[13:02:00.556 21/01/2026]',-131853.5,-213564.3,-121269.5,-36864.91,-375000,-375000,-178144.6,-148490.3,0.03,0.00,0.89,-4,0,-2,28,0
'[13:02:00.560 21/01/2026]',-131913.3,-213642.6,-121328.9,-36849.22,-375000,-375000,-177888,-148400.1,0.03,0.00,0.89,-4,0,-2,28,0
'[13:02:00.564 21/01/2026]',-132009.8,-213763.2,-121432.2,-36916.45,-375000,-375000,-177679,-148356.3,0.03,0.00,0.89,-4,0,-2,28,0
'[13:02:00.568 21/01/2026]',-132001.2,-213736.8,-121409,-36948.86,-375000,-375000,-177917.2,-148452.5,0.03,0.00,0.89,-4,0,-2,28,0
'[13:02:00.572 21/01/2026]',-131927.1,-213638,-121306,-36897.41,-375000,-375000,-178148.9,-148504.1,0.03,0.00,0.89,-4,0,-2,28,0
'[13:02:00.576 21/01/2026]',-131954.2,-213679.8,-121341.2,-36872.24,-375000,-375000,-177957.2,-148432.4,0.02,0.00,0.88,-4,0,-2,28,0
'[13:02:00.580 21/01/2026]',-132051.9,-213803.9,-121457.8,-36931.96,-375000,-375000,-177703.5,-148376,0.02,0.00,0.88,-4,0,-2,28,0
'[13:02:00.584 21/01/2026]',-132049.1,-213794.8,-121438.6,-36969.83,-375000,-375000,-177865,-148446.2,0.02,0.00,0.88,-4,0,-2,28,0
'[13:02:00.588 21/01/2026]',-131945.8,-213678.9,-121319,-36919.8,-375000,-375000,-178147.3,-148522,0.02,0.00,0.88,-4,0,-2,28,0
'[13:02:00.592 21/01/2026]',-131940.6,-213675.4,-121323.2,-36879.89,-375000,-375000,-178009.2,-148462.1,0.02,0.00,0.88,-4,0,-2,28,0
'[13:02:00.596 21/01/2026]',-132026.9,-213782.5,-121439.5,-36922.31,-375000,-375000,-177717.2,-148387.4,0.02,0.00,0.88,-4,0,-2,28,0
'[13:02:00.600 21/01/2026]',-132036.1,-213792.8,-121449.1,-36965.31,-375000,-375000,-177805.8,-148435.6,0.02,0.00,0.88,-4,0,-2,28,0
'[13:02:00.604 21/01/2026]',-131951.4,-213688.6,-121341,-36939.48,-375000,-375000,-178137.9,-148538.3,0.02,0.00,0.88,-4,0,-2,28,0
'[13:02:00.608 21/01/2026]',-131917.3,-213652.8,-121310,-36880.96,-375000,-375000,-178074.7,-148489.4,0.02,0.00,0.88,-4,0,-2,28,0
'[13:02:00.612 21/01/2026]',-131999.6,-213751.9,-121413.5,-36904.74,-375000,-375000,-177760.6,-148396.2,0.03,0.02,0.88,-4,0,-2,28,0
'[13:02:00.616 21/01/2026]',-132036,-213791.4,-121453.3,-36961.78,-375000,-375000,-177770,-148419.3,0.03,0.02,0.88,-4,0,-2,28,0
'[13:02:00.620 21/01/2026]',-131958.2,-213700.8,-121350.7,-36947.03,-375000,-375000,-178099.2,-148519.8,0.03,0.02,0.88,-4,0,-2,28,0
'[13:02:00.624 21/01/2026]',-131912.2,-213647.5,-121299.2,-36890.3,-375000,-375000,-178119.5,-148500.9,0.03,0.02,0.88,-4,0,-2,28,0
'[13:02:00.628 21/01/2026]',-131986,-213733.1,-121396.6,-36902.86,-375000,-375000,-177811.6,-148407.1,0.03,0.02,0.88,-4,0,-2,28,0
'[13:02:00.632 21/01/2026]',-132042.9,-213801.5,-121461.9,-36962.72,-375000,-375000,-177733.9,-148401.3,0.03,0.02,0.88,-4,0,-2,28,0
'[13:02:00.636 21/01/2026]',-131981,-213730.1,-121380.6,-36964.91,-375000,-375000,-178053.1,-148508.3,0.03,0.02,0.88,-4,0,-2,28,0
'[13:02:00.640 21/01/2026]',-131913.7,-213646.9,-121308.4,-36911.09,-375000,-375000,-178151.1,-148513.9,0.03,0.02,0.88,-4,0,-2,28,0
'[13:02:00.644 21/01/2026]',-131984.9,-213736.3,-121394.8,-36914.98,-375000,-375000,-177865,-148425.4,0.03,0.02,0.88,-4,0,-2,28,0
'[13:02:00.648 21/01/2026]',-132052.8,-213814.4,-121471.5,-36964.55,-375000,-375000,-177719.6,-148395.4,0.03,0.00,0.88,-4,0,-2,28,0
'[13:02:00.652 21/01/2026]',-132005.9,-213752.1,-121407,-36979.04,-375000,-375000,-178011.1,-148501.9,0.03,0.00,0.88,-4,0,-2,28,0
'[13:02:00.656 21/01/2026]',-131921.6,-213663,-121310.6,-36920.21,-375000,-375000,-178178.5,-148532.4,0.03,0.00,0.88,-4,0,-2,28,0
'[13:02:00.660 21/01/2026]',-131965.6,-213723.8,-121366.1,-36909.3,-375000,-375000,-177925.7,-148447.3,0.03,0.00,0.88,-4,0,-2,28,0
'[13:02:00.664 21/01/2026]',-132042.8,-213806.4,-121447.3,-36964.33,-375000,-375000,-177732.2,-148403.1,0.03,0.00,0.88,-4,0,-2,28,0
'[13:02:00.668 21/01/2026]',-132019.2,-213776.9,-121419.9,-36987.62,-375000,-375000,-177964,-148492.2,0.03,0.00,0.88,-4,0,-2,28,0
'[13:02:00.672 21/01/2026]',-131930.7,-213665.6,-121323.9,-36932.99,-375000,-375000,-178178.3,-148536.1,0.03,0.00,0.88,-4,0,-2,28,0
'[13:02:00.676 21/01/2026]',-131944.6,-213680,-121345.7,-36887.8,-375000,-375000,-177957.9,-148444.3,0.03,0.00,0.88,-4,0,-2,28,0
'[13:02:00.680 21/01/2026]',-132041.7,-213797.9,-121467.2,-36938.36,-375000,-375000,-177709.5,-148387.1,0.03,0.00,0.88,-4,0,-2,28,0
'[13:02:00.684 21/01/2026]',-132049.2,-213806,-121459,-36983.95,-375000,-375000,-177896.1,-148470.7,0.03,0.00,0.88,-4,0,-2,28,0
'[13:02:00.688 21/01/2026]',-131957.9,-213707.3,-121340,-36944.57,-375000,-375000,-178176.6,-148546.1,0.03,0.00,0.88,-4,0,-2,28,0
'[13:02:00.692 21/01/2026]',-131951.5,-213704.2,-121334.2,-36906.71,-375000,-375000,-178040.5,-148487.9,0.03,0.00,0.88,-4,0,-2,28,0
'[13:02:00.696 21/01/2026]',-132044.5,-213806.8,-121447.5,-36948.19,-375000,-375000,-177742.6,-148409.8,0.03,0.00,0.88,-4,0,-2,28,0
'[13:02:00.700 21/01/2026]',-132061.8,-213830,-121472.3,-37005.99,-375000,-375000,-177853.4,-148469.9,0.03,0.00,0.88,-4,0,-2,28,0
'[13:02:00.704 21/01/2026]',-131969.8,-213727.3,-121364.9,-36981.23,-375000,-375000,-178174.5,-148566.3,0.03,0.00,0.88,-4,0,-2,28,0
'[13:02:00.708 21/01/2026]',-131943.8,-213689.7,-121348.6,-36919.49,-375000,-375000,-178087.2,-148506.6,0.03,0.00,0.88,-4,0,-2,28,0
'[13:02:00.712 21/01/2026]',-132035.6,-213794.9,-121463.7,-36954.09,-375000,-375000,-177778.7,-148422.8,0.03,0.00,0.88,-4,0,-2,28,0
'[13:02:00.716 21/01/2026]',-132071.7,-213830.2,-121479,-37002.82,-375000,-375000,-177797.1,-148444.9,0.03,0.00,0.88,-4,0,-2,28,0
'[13:02:00.720 21/01/2026]',-131995.9,-213738.8,-121377.7,-36982.61,-375000,-375000,-178120.1,-148540.3,0.02,0.00,0.88,-4,0,-2,28,0
'[13:02:00.724 21/01/2026]',-131950,-213691,-121342.8,-36919.8,-375000,-375000,-178113.5,-148512.2,0.02,0.00,0.88,-4,0,-2,28,0
'[13:02:00.728 21/01/2026]',-132025.4,-213791.3,-121443.9,-36942.56,-375000,-375000,-177810.8,-148428,0.02,0.00,0.88,-4,0,-2,28,0
'[13:02:00.732 21/01/2026]',-132071.6,-213840,-121485.9,-36994.28,-375000,-375000,-177751.7,-148428.3,0.02,0.00,0.88,-4,0,-2,28,0
'[13:02:00.736 21/01/2026]',-132015.8,-213769.1,-121404.8,-36994.1,-375000,-375000,-178084.6,-148545.5,0.02,0.00,0.88,-4,0,-2,28,0
'[13:02:00.740 21/01/2026]',-131948.1,-213696.4,-121341.1,-36936.26,-375000,-375000,-178168.9,-148551.7,0.02,0.00,0.88,-4,0,-2,28,0
'[13:02:00.744 21/01/2026]',-132009.8,-213775.5,-121423.9,-36935.77,-375000,-375000,-177858.1,-148447,0.02,0.00,0.88,-4,0,-2,28,0
'[13:02:00.748 21/01/2026]',-132078.2,-213855.8,-121501.7,-36996.02,-375000,-375000,-177731,-148429.2,0.02,0.00,0.88,-4,0,-2,28,0
'[13:02:00.752 21/01/2026]',-132027.1,-213786.7,-121431,-36998.21,-375000,-375000,-178014.5,-148528.2,0.02,0.00,0.88,-4,0,-2,28,0
'[13:02:00.756 21/01/2026]',-131955.3,-213690.5,-121343.9,-36933.08,-375000,-375000,-178161.5,-148548.6,0.03,0.00,0.88,-4,0,-2,28,0
'[13:02:00.760 21/01/2026]',-131995.8,-213749,-121407.6,-36922.44,-375000,-375000,-177897.8,-148456.8,0.03,0.00,0.88,-4,0,-2,28,0
'[13:02:00.764 21/01/2026]',-132074.8,-213838.9,-121488.4,-36987.75,-375000,-375000,-177707,-148421.1,0.03,0.00,0.88,-4,0,-2,28,0
'[13:02:00.768 21/01/2026]',-132047.5,-213804.3,-121443.7,-37006.17,-375000,-375000,-177954.1,-148513.8,0.03,0.00,0.88,-4,0,-2,28,0
'[13:02:00.772 21/01/2026]',-131948.8,-213694.3,-121344.8,-36944.39,-375000,-375000,-178163.6,-148550.4,0.03,0.00,0.88,-4,0,-2,28,0
'[13:02:00.776 21/01/2026]',-131976.8,-213721.8,-121383.5,-36917.88,-375000,-375000,-177957.4,-148475.7,0.03,0.00,0.88,-4,0,-2,28,0
'[13:02:00.780 21/01/2026]',-132047.1,-213815.5,-121475.4,-36955.34,-375000,-375000,-177700.5,-148407.6,0.03,0.00,0.88,-4,0,-2,28,0
'[13:02:00.784 21/01/2026]',-132032.6,-213788.4,-121452.9,-36990.79,-375000,-375000,-177877.6,-148483,0.03,0.00,0.88,-4,0,-2,28,0
'[13:02:00.788 21/01/2026]',-131938.7,-213681.2,-121340.6,-36942.7,-375000,-375000,-178149.5,-148551.5,0.03,0.00,0.88,-4,0,-2,28,0
'[13:02:00.792 21/01/2026]',-131938.7,-213682.3,-121347.8,-36898.97,-375000,-375000,-177998.9,-148488,0.02,0.00,0.88,-4,0,-2,28,0
'[13:02:00.796 21/01/2026]',-132029.5,-213785.4,-121457,-36934.16,-375000,-375000,-177701.8,-148410.4,0.02,0.00,0.88,-4,0,-2,28,0
'[13:02:00.800 21/01/2026]',-132052,-213807.7,-121476.1,-36987.4,-375000,-375000,-177823.3,-148476.8,0.02,0.00,0.88,-4,0,-2,28,0
'[13:02:00.804 21/01/2026]',-131962.5,-213706.4,-121356.7,-36950.38,-375000,-375000,-178132.3,-148561.4,0.02,0.00,0.88,-4,0,-2,28,0
'[13:02:00.808 21/01/2026]',-131929.2,-213662.8,-121325.2,-36889.27,-375000,-375000,-178036,-148499.8,0.02,0.00,0.88,-4,0,-2,28,0
'[13:02:00.812 21/01/2026]',-132015.5,-213769.1,-121437,-36920.48,-375000,-375000,-177725.1,-148413,0.02,0.00,0.88,-4,0,-2,28,0
'[13:02:00.816 21/01/2026]',-132049.2,-213809.5,-121472.9,-36978.1,-375000,-375000,-177759.7,-148446.6,0.02,0.00,0.88,-4,0,-2,28,0
'[13:02:00.820 21/01/2026]',-131969.2,-213709.2,-121374.8,-36960.84,-375000,-375000,-178096.9,-148553.4,0.02,0.00,0.88,-4,0,-2,28,0
'[13:02:00.824 21/01/2026]',-131914.8,-213656.7,-121312.5,-36893.07,-375000,-375000,-178084.2,-148519.8,0.02,0.00,0.88,-4,0,-2,28,0
'[13:02:00.828 21/01/2026]',-131979,-213741.2,-121398.3,-36905.95,-375000,-375000,-177781.2,-148430,0.02,0.00,0.88,-4,0,-2,28,0
'[13:02:00.832 21/01/2026]',-132034.9,-213796.8,-121460.5,-36958.56,-375000,-375000,-177720.9,-148430.3,0.02,0.00,0.88,-4,0,-2,28,0
'[13:02:00.836 21/01/2026]',-131971.9,-213719.9,-121382.4,-36953.42,-375000,-375000,-178034.6,-148533.5,0.02,0.00,0.88,-4,0,-2,28,0
'[13:02:00.840 21/01/2026]',-131898.7,-213645.3,-121307,-36887.17,-375000,-375000,-178105.1,-148528,0.02,0.00,0.88,-4,0,-2,28,0
'[13:02:00.844 21/01/2026]',-131953.8,-213717.8,-121390.5,-36890.7,-375000,-375000,-177808.9,-148434.2,0.02,0.00,0.88,-4,0,-2,28,0
'[13:02:00.848 21/01/2026]',-132021.4,-213793.9,-121461.9,-36948.28,-375000,-375000,-177689.3,-148418,0.02,0.00,0.88,-4,0,-2,28,0
'[13:02:00.852 21/01/2026]',-131980.3,-213735.8,-121394.8,-36959.23,-375000,-375000,-177989.9,-148524,0.02,0.00,0.88,-4,0,-2,28,0
'[13:02:00.856 21/01/2026]',-131901.5,-213631.8,-121307.5,-36895.8,-375000,-375000,-178129.8,-148540.7,0.02,0.00,0.88,-4,0,-2,28,0
'[13:02:00.860 21/01/2026]',-131944.1,-213680.8,-121366.3,-36875.37,-375000,-375000,-177854.9,-148441.1,0.02,0.00,0.88,-4,0,-2,28,0
'[13:02:00.864 21/01/2026]',-132020.4,-213768.7,-121449.3,-36922.13,-375000,-375000,-177658.2,-148392.7,0.02,0.00,0.88,-4,0,-2,28,0
'[13:02:00.868 21/01/2026]',-131994.1,-213733.9,-121406.4,-36949.09,-375000,-375000,-177907.9,-148488.8,0.02,0.00,0.88,-4,0,-2,28,0
'[13:02:00.872 21/01/2026]',-131906.6,-213641.4,-121302.9,-36897.54,-375000,-375000,-178123.5,-148535.4,0.02,0.00,0.88,-4,0,-2,28,0
'[13:02:00.876 21/01/2026]',-131917.2,-213666.5,-121325.4,-36860.57,-375000,-375000,-177894.9,-148440.5,0.02,0.00,0.88,-4,0,-2,28,0
'[13:02:00.880 21/01/2026]',-132004.4,-213769.4,-121435.1,-36922.04,-375000,-375000,-177650.3,-148385.7,0.02,0.00,0.88,-4,0,-2,28,0
'[13:02:00.884 21/01/2026]',-132002.2,-213754.2,-121419.4,-36962.77,-375000,-375000,-177842.1,-148463.6,0.02,0.00,0.88,-4,0,-2,28,0
'[13:02:00.888 21/01/2026]',-131906.8,-213648.6,-121316.1,-36908.72,-375000,-375000,-178104.5,-148522.5,0.02,0.00,0.88,-4,0,-2,28,0
'[13:02:00.892 21/01/2026]',-131902.2,-213648.8,-121329.4,-36862,-375000,-375000,-177930.8,-148452.1,0.02,0.00,0.88,-4,0,-2,28,0
'[13:02:00.896 21/01/2026]',-131983,-213735.1,-121423.9,-36887.26,-375000,-375000,-177600.2,-148348,0.02,0.00,0.88,-4,0,-2,28,0
'[13:02:00.900 21/01/2026]',-131974,-213723.4,-121408.7,-36911.49,-375000,-375000,-177677.8,-148376,0.03,0.00,0.88,-4,0,-2,28,0
'[13:02:00.904 21/01/2026]',-131874.3,-213617.5,-121295.5,-36876.84,-375000,-375000,-178003.3,-148467.5,0.03,0.00,0.88,-4,0,-2,28,0
'[13:02:00.908 21/01/2026]',-131847.8,-213594.6,-121275,-36829.06,-375000,-375000,-177942.2,-148426.9,0.03,0.00,0.88,-4,0,-2,28,0
'[13:02:00.912 21/01/2026]',-131949.5,-213701.5,-121386,-36864.11,-375000,-375000,-177658.2,-148356.4,0.03,0.00,0.88,-4,0,-2,28,0
'[13:02:00.916 21/01/2026]',-131990.9,-213743.8,-121417,-36924.81,-375000,-375000,-177721.4,-148403.7,0.03,0.00,0.88,-4,0,-2,28,0
'[13:02:00.920 21/01/2026]',-131920.5,-213665.8,-121331.6,-36918.02,-375000,-375000,-178079.3,-148526.1,0.03,0.00,0.88,-4,0,-2,28,0
'[13:02:00.924 21/01/2026]',-131884.3,-213623.9,-121293.9,-36862,-375000,-375000,-178070.9,-148500.3,0.03,0.00,0.88,-4,0,-2,28,0
'[13:02:00.928 21/01/2026]',-131953.6,-213712.9,-121381.2,-36874.97,-375000,-375000,-177742.2,-148400.4,0.03,0.00,0.88,-4,0,-2,28,0
'[13:02:00.932 21/01/2026]',-132000.6,-213768.2,-121440.3,-36934.2,-375000,-375000,-177683.7,-148401.7,0.03,0.00,0.88,-4,0,-2,28,0
'[13:02:00.936 21/01/2026]',-131931.5,-213682.7,-121347.6,-36930.04,-375000,-375000,-177997.3,-148501.9,0.03,0.00,0.88,-4,0,-2,28,0
'[13:02:00.940 21/01/2026]',-131860.6,-213601.9,-121266.1,-36862.27,-375000,-375000,-178043.4,-148485.1,0.03,0.00,0.88,-4,0,-2,28,0
'[13:02:00.944 21/01/2026]',-131911.8,-213667.8,-121341.3,-36859.01,-375000,-375000,-177727.9,-148380.8,0.03,0.00,0.88,-4,0,-2,28,0
'[13:02:00.948 21/01/2026]',-131965.1,-213723.1,-121412.1,-36905.01,-375000,-375000,-177588.5,-148339.9,0.03,0.00,0.88,-4,0,-2,28,0
'[13:02:00.952 21/01/2026]',-131921.7,-213674.1,-121336.8,-36910.64,-375000,-375000,-177895.7,-148447.9,0.03,0.00,0.88,-4,0,-2,28,0
'[13:02:00.956 21/01/2026]',-131846.2,-213586.5,-121250.2,-36848.73,-375000,-375000,-178047.5,-148474.6,0.03,0.00,0.88,-4,0,-2,28,0
'[13:02:00.960 21/01/2026]',-131885.3,-213634.7,-121316.3,-36839.83,-375000,-375000,-177779.9,-148385,0.03,0.00,0.88,-4,0,-2,28,0
'[13:02:00.964 21/01/2026]',-131958.7,-213727.5,-121411,-36897.54,-375000,-375000,-177580.8,-148341.5,0.03,0.00,0.88,-4,0,-2,28,0
'[13:02:00.968 21/01/2026]',-131923.7,-213675.8,-121355.8,-36913.86,-375000,-375000,-177836,-148429.9,0.03,0.00,0.88,-4,0,-2,28,0
'[13:02:00.972 21/01/2026]',-131843.8,-213580.8,-121249.5,-36860.04,-375000,-375000,-178062.9,-148484.7,0.02,0.00,0.88,-4,0,-2,28,0
'[13:02:00.976 21/01/2026]',-131876.7,-213626,-121296.4,-36839.7,-375000,-375000,-177848.9,-148410.5,0.02,0.00,0.88,-4,0,-2,28,0
'[13:02:00.980 21/01/2026]',-131957.6,-213721.6,-121402.6,-36886.23,-375000,-375000,-177595.5,-148344,0.02,0.00,0.88,-4,0,-2,28,0
'[13:02:00.984 21/01/2026]',-131941.8,-213698,-121372.1,-36913.86,-375000,-375000,-177795.3,-148421,0.02,0.00,0.88,-4,0,-2,28,0
'[13:02:00.988 21/01/2026]',-131841.8,-213584.6,-121259,-36866.7,-375000,-375000,-178069.2,-148486.8,0.02,0.00,0.88,-4,0,-2,28,0
'[13:02:00.992 21/01/2026]',-131840,-213587.9,-121271.9,-36828.48,-375000,-375000,-177902,-148413.2,0.02,0.00,0.88,-4,0,-2,28,0
'[13:02:00.996 21/01/2026]',-131929.9,-213686,-121373.2,-36865.8,-375000,-375000,-177603.3,-148326.5,0.02,0.00,0.88,-4,0,-2,28,0
'[13:02:01.000 21/01/2026]',-131935.6,-213688,-121376.3,-36907.38,-375000,-375000,-177725.5,-148377.9,0.02,0.00,0.88,-4,0,-2,28,0
'[13:02:01.004 21/01/2026]',-131848,-213589.8,-121273.1,-36879.71,-375000,-375000,-178055.1,-148478.2,0.02,0.00,0.88,-4,0,-2,28,0
'[13:02:01.008 21/01/2026]',-131828.4,-213568.8,-121250.3,-36834.42,-375000,-375000,-177964.4,-148432.2,0.03,0.00,0.88,-4,0,-2,28,0
'[13:02:01.012 21/01/2026]',-131913.2,-213669.3,-121349.9,-36858.38,-375000,-375000,-177647,-148337.1,0.03,0.00,0.88,-4,0,-2,28,0
'[13:02:01.016 21/01/2026]',-131950.5,-213707.3,-121387.2,-36910.64,-375000,-375000,-177698.5,-148374.3,0.03,0.00,0.88,-4,0,-2,28,0
'[13:02:01.020 21/01/2026]',-131857.9,-213607.8,-121273.3,-36885.56,-375000,-375000,-178036.9,-148476.7,0.03,0.00,0.88,-4,0,-2,28,0
'[13:02:01.024 21/01/2026]',-131810.4,-213545.2,-121222.7,-36822.53,-375000,-375000,-178006.7,-148434.8,0.03,0.00,0.88,-4,0,-2,28,0
'[13:02:01.028 21/01/2026]',-131887.9,-213638.9,-121321.1,-36831.7,-375000,-375000,-177684.8,-148335.3,0.03,0.00,0.88,-4,0,-2,28,0
'[13:02:01.032 21/01/2026]',-131939.3,-213708.5,-121371.8,-36893.03,-375000,-375000,-177655.5,-148354.6,0.03,0.00,0.88,-4,0,-2,28,0
'[13:02:01.036 21/01/2026]',-131869.1,-213623,-121281.4,-36887.98,-375000,-375000,-177999.2,-148466.5,0.03,0.00,0.88,-4,0,-2,28,0
'[13:02:01.040 21/01/2026]',-131792.4,-213541.2,-121204.4,-36818.2,-375000,-375000,-178052.9,-148450,0.03,0.00,0.88,-4,0,-2,28,0
'[13:02:01.044 21/01/2026]',-131858.3,-213618.8,-121297.6,-36817.3,-375000,-375000,-177730.7,-148343.3,0.02,0.00,0.88,-4,0,-2,28,0
'[13:02:01.048 21/01/2026]',-131932.4,-213696.6,-121383.5,-36881.59,-375000,-375000,-177619.9,-148336.9,0.02,0.00,0.88,-4,0,-2,28,0
'[13:02:01.052 21/01/2026]',-131881.1,-213632.7,-121308.5,-36890.39,-375000,-375000,-177946.8,-148450.7,0.02,0.00,0.88,-4,0,-2,28,0
'[13:02:01.056 21/01/2026]',-131795,-213536.6,-121211.9,-36822.13,-375000,-375000,-178081.5,-148461.4,0.02,0.00,0.88,-4,0,-2,28,0
'[13:02:01.060 21/01/2026]',-131842.4,-213594.5,-121278.1,-36809.43,-375000,-375000,-177788.5,-148358,0.02,0.00,0.88,-4,0,-2,28,0
'[13:02:01.064 21/01/2026]',-131921.4,-213684.6,-121365.1,-36862.14,-375000,-375000,-177599.2,-148313.5,0.02,0.00,0.88,-4,0,-2,28,0
'[13:02:01.068 21/01/2026]',-131878.7,-213643,-121312.8,-36876.58,-375000,-375000,-177869.7,-148412.3,0.02,0.00,0.88,-4,0,-2,28,0
'[13:02:01.072 21/01/2026]',-131790.3,-213541.3,-121213.8,-36819.58,-375000,-375000,-178080.2,-148455.2,0.02,0.00,0.88,-4,0,-2,28,0
'[13:02:01.076 21/01/2026]',-131813.9,-213564.1,-121248.1,-36789.72,-375000,-375000,-177836.8,-148361,0.02,0.00,0.88,-4,0,-2,28,0
'[13:02:01.080 21/01/2026]',-131901.7,-213656.8,-121339.3,-36842.16,-375000,-375000,-177584.8,-148297.7,0.02,0.02,0.88,-4,0,-2,28,0
'[13:02:01.084 21/01/2026]',-131884.2,-213638.1,-121307.6,-36869.6,-375000,-375000,-177792.7,-148379.8,0.02,0.02,0.88,-4,0,-2,28,0
'[13:02:01.088 21/01/2026]',-131793.9,-213539.5,-121199,-36821.55,-375000,-375000,-178061.7,-148447.1,0.02,0.02,0.88,-4,0,-2,28,0
'[13:02:01.092 21/01/2026]',-131797.2,-213547.3,-121221.4,-36786.01,-375000,-375000,-177888,-148372.6,0.02,0.02,0.88,-4,0,-2,28,0
'[13:02:01.096 21/01/2026]',-131884.3,-213644,-121328.3,-36831.83,-375000,-375000,-177602.1,-148297.2,0.02,0.02,0.88,-4,0,-2,28,0
'[13:02:01.100 21/01/2026]',-131901.1,-213659.8,-121333.2,-36882.93,-375000,-375000,-177740.9,-148366.5,0.02,0.02,0.88,-4,0,-2,28,0
'[13:02:01.104 21/01/2026]',-131812.6,-213558.3,-121220.6,-36845.02,-375000,-375000,-178056.5,-148457.2,0.02,0.02,0.88,-4,0,-2,28,0
'[13:02:01.108 21/01/2026]',-131791.1,-213537.7,-121202,-36788.24,-375000,-375000,-177939.1,-148392.7,0.02,0.02,0.88,-4,0,-2,28,0
'[13:02:01.112 21/01/2026]',-131880.5,-213637.6,-121313.6,-36819.09,-375000,-375000,-177620.9,-148301,0.02,0.02,0.88,-4,0,-2,28,0
'[13:02:01.116 21/01/2026]',-131897,-213658.8,-121340.3,-36865.85,-375000,-375000,-177667.4,-148331.9,0.02,0.00,0.88,-4,0,-2,28,0
'[13:02:01.120 21/01/2026]',-131821.8,-213578,-121245.7,-36849.8,-375000,-375000,-178013.8,-148443.6,0.02,0.00,0.88,-4,0,-2,28,0
'[13:02:01.124 21/01/2026]',-131775.1,-213523.2,-121195.7,-36780.24,-375000,-375000,-177982.5,-148406.9,0.02,0.00,0.88,-4,0,-2,28,0
'[13:02:01.128 21/01/2026]',-131847.3,-213607.2,-121284,-36791.06,-375000,-375000,-177654.5,-148304.1,0.02,0.00,0.88,-4,0,-2,28,0
'[13:02:01.132 21/01/2026]',-131891.7,-213658.5,-121336.7,-36855.57,-375000,-375000,-177636.9,-148324.4,0.02,0.00,0.88,-4,0,-2,28,0
'[13:02:01.136 21/01/2026]',-131806.3,-213562.9,-121234.8,-36842.78,-375000,-375000,-177979.6,-148430.9,0.02,0.00,0.88,-4,0,-2,28,0
'[13:02:01.140 21/01/2026]',-131742.7,-213498,-121167.1,-36774.92,-375000,-375000,-178019.2,-148404.1,0.02,0.00,0.88,-4,0,-2,28,0
'[13:02:01.144 21/01/2026]',-131817,-213587.2,-121260,-36773.13,-375000,-375000,-177699.3,-148300.6,0.02,0.00,0.88,-4,0,-2,28,0
'[13:02:01.148 21/01/2026]',-131868.9,-213649.5,-121330.5,-36832.63,-375000,-375000,-177604.5,-148305.3,0.02,0.00,0.88,-4,0,-2,28,0
'[13:02:01.152 21/01/2026]',-131792.6,-213568,-121242.8,-36834.11,-375000,-375000,-177934.7,-148428,0.03,0.00,0.89,-4,0,-2,28,0
'[13:02:01.156 21/01/2026]',-131700.8,-213474.7,-121143.4,-36762.27,-375000,-375000,-178058.4,-148441.5,0.03,0.00,0.89,-4,0,-2,28,0
'[13:02:01.160 21/01/2026]',-131738.1,-213527.6,-121204.4,-36743,-375000,-375000,-177762.8,-148340.6,0.03,0.00,0.89,-4,0,-2,28,0
'[13:02:01.164 21/01/2026]',-131800.1,-213596.8,-121281.2,-36790.34,-375000,-375000,-177568.2,-148291.7,0.03,0.00,0.89,-4,0,-2,28,0
'[13:02:01.168 21/01/2026]',-131747.9,-213535.1,-121220,-36801.39,-375000,-375000,-177843.6,-148389.4,0.03,0.00,0.89,-4,0,-2,28,0
'[13:02:01.172 21/01/2026]',-131648.6,-213433.8,-121116.8,-36739.74,-375000,-375000,-178039.3,-148429.3,0.03,0.00,0.89,-4,0,-2,28,0
'[13:02:01.176 21/01/2026]',-131659.5,-213469.3,-121157.9,-36707.96,-375000,-375000,-177787,-148332.3,0.03,0.00,0.89,-4,0,-2,28,0
'[13:02:01.180 21/01/2026]',-131730.7,-213557.4,-121255.1,-36756.82,-375000,-375000,-177543.7,-148269.7,0.03,0.00,0.89,-4,0,-2,28,0
'[13:02:01.184 21/01/2026]',-131706.9,-213526.6,-121223.2,-36790.7,-375000,-375000,-177769.3,-148365.8,0.03,0.00,0.89,-4,0,-2,28,0
'[13:02:01.188 21/01/2026]',-131607.3,-213410,-121104.7,-36734.96,-375000,-375000,-178037.3,-148433.6,0.03,0.00,0.89,-4,0,-2,28,0
'[13:02:01.192 21/01/2026]',-131605,-213414.3,-121120.1,-36689.09,-375000,-375000,-177848.8,-148354.6,0.03,0.00,0.89,-4,0,-2,28,0
'[13:02:01.196 21/01/2026]',-131679.9,-213502.9,-121221.4,-36729.82,-375000,-375000,-177567.3,-148281.9,0.03,0.00,0.89,-4,0,-2,28,0
'[13:02:01.200 21/01/2026]',-131684.8,-213509.6,-121219.4,-36776.31,-375000,-375000,-177708.5,-148346.3,0.03,0.00,0.89,-4,0,-2,28,0
'[13:02:01.204 21/01/2026]',-131596.3,-213416.3,-121110.5,-36742.96,-375000,-375000,-178021.8,-148438,0.03,0.00,0.89,-4,0,-2,28,0
'[13:02:01.208 21/01/2026]',-131562.1,-213381.9,-121092.6,-36683.77,-375000,-375000,-177904,-148376.4,0.03,0.00,0.89,-4,0,-2,28,0
'[13:02:01.212 21/01/2026]',-131635.4,-213472,-121185.3,-36711.8,-375000,-375000,-177590.4,-148287.9,0.03,0.00,0.89,-4,0,-2,28,0
'[13:02:01.216 21/01/2026]',-131657.9,-213503.5,-121207.1,-36770.09,-375000,-375000,-177657.8,-148331,0.03,0.00,0.89,-4,0,-2,28,0
'[13:02:01.220 21/01/2026]',-131574.7,-213402.9,-121105.6,-36747.21,-375000,-375000,-177999.5,-148441.8,0.03,0.00,0.89,-4,0,-2,28,0
'[13:02:01.224 21/01/2026]',-131538.8,-213358.6,-121070.9,-36694.14,-375000,-375000,-177970.6,-148410.9,0.02,0.00,0.88,-4,0,-2,28,0
'[13:02:01.228 21/01/2026]',-131612.4,-213446.8,-121165.7,-36706.93,-375000,-375000,-177643.8,-148309,0.02,0.00,0.88,-4,0,-2,28,0
'[13:02:01.232 21/01/2026]',-131649.7,-213495.5,-121209,-36761.51,-375000,-375000,-177623.2,-148326,0.02,0.00,0.88,-4,0,-2,28,0
'[13:02:01.236 21/01/2026]',-131578,-213400.7,-121114.4,-36748.01,-375000,-375000,-177960.2,-148435,0.02,0.00,0.88,-4,0,-2,28,0
'[13:02:01.240 21/01/2026]',-131517.7,-213334.2,-121051.4,-36684.09,-375000,-375000,-178004.6,-148419.3,0.02,0.00,0.88,-4,0,-2,28,0
'[13:02:01.244 21/01/2026]',-131586.9,-213413.2,-121146,-36692.13,-375000,-375000,-177697.1,-148320.8,0.02,0.00,0.88,-4,0,-2,28,0
'[13:02:01.248 21/01/2026]',-131649.8,-213477.7,-121216.4,-36751.63,-375000,-375000,-177589.6,-148305.1,0.02,0.00,0.88,-4,0,-2,28,0
'[13:02:01.252 21/01/2026]',-131589.3,-213417.7,-121139.8,-36763.39,-375000,-375000,-177917.4,-148420.8,0.02,0.00,0.88,-4,0,-2,28,0
'[13:02:01.256 21/01/2026]',-131507.6,-213325.4,-121042.5,-36694.05,-375000,-375000,-178037.9,-148429,0.02,0.00,0.88,-4,0,-2,28,0
'[13:02:01.260 21/01/2026]',-131568.7,-213387.3,-121116.5,-36686.18,-375000,-375000,-177748.5,-148331.6,0.03,0.00,0.89,-4,0,-2,28,0
'[13:02:01.264 21/01/2026]',-131648,-213483.1,-121213.7,-36738.13,-375000,-375000,-177575.2,-148298.7,0.03,0.00,0.89,-4,0,-2,28,0
'[13:02:01.268 21/01/2026]',-131614.5,-213437.7,-121158.1,-36757.84,-375000,-375000,-177851.1,-148403.9,0.03,0.00,0.89,-4,0,-2,28,0
'[13:02:01.272 21/01/2026]',-131530.2,-213347.8,-121056.9,-36699.73,-375000,-375000,-178048.7,-148447.7,0.03,0.00,0.89,-4,0,-2,28,0
'[13:02:01.276 21/01/2026]',-131558.2,-213382,-121104,-36672.77,-375000,-375000,-177804.1,-148360,0.03,0.00,0.89,-4,0,-2,28,0
'[13:02:01.280 21/01/2026]',-131632.4,-213468,-121198.3,-36715.69,-375000,-375000,-177553.5,-148295.2,0.03,0.00,0.89,-4,0,-2,28,0
'[13:02:01.284 21/01/2026]',-131608.2,-213438.5,-121165.1,-36741.53,-375000,-375000,-177769.3,-148376.7,0.03,0.00,0.89,-4,0,-2,28,0
'[13:02:01.288 21/01/2026]',-131520,-213334.8,-121058,-36692.71,-375000,-375000,-178030.7,-148439,0.03,0.00,0.89,-4,0,-2,28,0
'[13:02:01.292 21/01/2026]',-131534.1,-213345.7,-121081.2,-36650.96,-375000,-375000,-177837.4,-148361.5,0.03,0.00,0.89,-4,0,-2,28,0
'[13:02:01.296 21/01/2026]',-131617.8,-213455.4,-121188.6,-36694.37,-375000,-375000,-177549.7,-148282.2,0.03,0.00,0.88,-4,0,-2,28,0
'[13:02:01.300 21/01/2026]',-131632.1,-213461.1,-121182.7,-36741.13,-375000,-375000,-177702.4,-148351.7,0.03,0.00,0.88,-4,0,-2,28,0
'[13:02:01.304 21/01/2026]',-131543.5,-213364.2,-121076.1,-36708.58,-375000,-375000,-178010.6,-148436.7,0.03,0.00,0.88,-4,0,-2,28,0
'[13:02:01.308 21/01/2026]',-131532.6,-213357,-121080.8,-36663.88,-375000,-375000,-177890.8,-148374.6,0.03,0.00,0.88,-4,0,-2,28,0
'[13:02:01.312 21/01/2026]',-131618.1,-213448.3,-121189.6,-36699.73,-375000,-375000,-177584.3,-148287.7,0.03,0.00,0.88,-4,0,-2,28,0
'[13:02:01.316 21/01/2026]',-131639.8,-213476.9,-121207.3,-36750.6,-375000,-375000,-177656.4,-148334.8,0.03,0.00,0.88,-4,0,-2,28,0
'[13:02:01.320 21/01/2026]',-131555.7,-213372.9,-121093.8,-36714.84,-375000,-375000,-177986.1,-148432,0.03,0.00,0.88,-4,0,-2,28,0
'[13:02:01.324 21/01/2026]',-131516.4,-213327.1,-121049,-36656.9,-375000,-375000,-177941.8,-148394.2,0.03,0.00,0.88,-4,0,-2,28,0
'[13:02:01.328 21/01/2026]',-131596,-213428.3,-121163.8,-36685.34,-375000,-375000,-177629.5,-148309.4,0.03,0.00,0.88,-4,0,-2,28,0
'[13:02:01.332 21/01/2026]',-131652.1,-213489.7,-121224.6,-36749.57,-375000,-375000,-177630.1,-148340.8,0.02,0.00,0.89,-4,0,-2,28,0
'[13:02:01.336 21/01/2026]',-131592.1,-213399.6,-121128.7,-36743.81,-375000,-375000,-177972.3,-148459.2,0.02,0.00,0.89,-4,0,-2,28,0
'[13:02:01.340 21/01/2026]',-131533.5,-213341.8,-121067.1,-36681.22,-375000,-375000,-178002.8,-148440.7,0.02,0.00,0.89,-4,0,-2,28,0
'[13:02:01.344 21/01/2026]',-131600.2,-213429.5,-121161.1,-36688.55,-375000,-375000,-177689.2,-148339.8,0.02,0.00,0.89,-4,0,-2,28,0
'[13:02:01.348 21/01/2026]',-131665,-213508.3,-121228.8,-36752.48,-375000,-375000,-177600.7,-148336.5,0.02,0.00,0.89,-4,0,-2,28,0
'[13:02:01.352 21/01/2026]',-131615.8,-213440.1,-121161.8,-36762.05,-375000,-375000,-177920,-148447.3,0.02,0.00,0.89,-4,0,-2,28,0
'[13:02:01.356 21/01/2026]',-131551.3,-213358.4,-121090.7,-36705.99,-375000,-375000,-178043.3,-148469.8,0.02,0.00,0.89,-4,0,-2,28,0
'[13:02:01.360 21/01/2026]',-131598.9,-213427.5,-121156.4,-36699.46,-375000,-375000,-177748.9,-148371.5,0.02,0.00,0.89,-4,0,-2,28,0
'[13:02:01.364 21/01/2026]',-131667.2,-213514.2,-121237.2,-36759.5,-375000,-375000,-177581.6,-148339.2,0.02,0.00,0.89,-4,0,-2,28,0
'[13:02:01.368 21/01/2026]',-131635.5,-213466.5,-121187.6,-36777.2,-375000,-375000,-177879,-148456.3,0.02,-0.02,0.88,-4,0,-2,28,0
'[13:02:01.372 21/01/2026]',-131552.5,-213366.1,-121088.6,-36714.48,-375000,-375000,-178063.4,-148494.1,0.02,-0.02,0.88,-4,0,-2,28,0
'[13:02:01.376 21/01/2026]',-131583.5,-213414.9,-121137.4,-36693.47,-375000,-375000,-177811.3,-148405.9,0.02,-0.02,0.88,-4,0,-2,28,0
'[13:02:01.380 21/01/2026]',-131672.9,-213511,-121234.8,-36744.66,-375000,-375000,-177582.6,-148354.7,0.02,-0.02,0.88,-4,0,-2,28,0
'[13:02:01.384 21/01/2026]',-131663.4,-213486.1,-121197.1,-36778.72,-375000,-375000,-177807.9,-148449,0.02,-0.02,0.88,-4,0,-2,28,0
'[13:02:01.388 21/01/2026]',-131574.2,-213395.1,-121104.6,-36736.84,-375000,-375000,-178052.1,-148511.7,0.02,-0.02,0.88,-4,0,-2,28,0
'[13:02:01.392 21/01/2026]',-131579.2,-213406.5,-121136.3,-36704.65,-375000,-375000,-177852.4,-148430.7,0.02,-0.02,0.88,-4,0,-2,28,0
'[13:02:01.396 21/01/2026]',-131672.4,-213508.5,-121243.9,-36750.65,-375000,-375000,-177574.4,-148358.8,0.02,-0.02,0.88,-4,0,-2,28,0
'[13:02:01.400 21/01/2026]',-131686.1,-213514.6,-121238.4,-36802.01,-375000,-375000,-177728.3,-148431,0.02,-0.02,0.88,-4,0,-2,28,0
'[13:02:01.404 21/01/2026]',-131593.2,-213402.9,-121122.1,-36764.1,-375000,-375000,-178037.2,-148516.6,0.03,0.00,0.88,-4,0,-2,28,0
'[13:02:01.408 21/01/2026]',-131580.7,-213407.6,-121120,-36709.88,-375000,-375000,-177912,-148454,0.03,0.00,0.88,-4,0,-2,28,0
'[13:02:01.412 21/01/2026]',-131675,-213515.7,-121232.2,-36745.37,-375000,-375000,-177611.3,-148372.7,0.03,0.00,0.88,-4,0,-2,28,0
'[13:02:01.416 21/01/2026]',-131698,-213533.9,-121236.9,-36786.19,-375000,-375000,-177682,-148415.8,0.03,0.00,0.88,-4,0,-2,28,0
'[13:02:01.420 21/01/2026]',-131618.2,-213434.4,-121144.7,-36772.06,-375000,-375000,-178023.5,-148523.2,0.03,0.00,0.88,-4,0,-2,28,0
'[13:02:01.424 21/01/2026]',-131582.4,-213396.4,-121117.3,-36716.27,-375000,-375000,-177967.9,-148486.1,0.03,0.00,0.88,-4,0,-2,28,0
'[13:02:01.428 21/01/2026]',-131671.9,-213508.1,-121235,-36752.26,-375000,-375000,-177655.8,-148401.6,0.03,0.00,0.88,-4,0,-2,28,0
'[13:02:01.432 21/01/2026]',-131715.4,-213551.5,-121270.1,-36801.74,-375000,-375000,-177645.5,-148420.5,0.03,0.00,0.88,-4,0,-2,28,0
'[13:02:01.436 21/01/2026]',-131637.1,-213461.4,-121167.5,-36783.01,-375000,-375000,-177970.6,-148521.3,0.03,0.00,0.88,-4,0,-2,28,0
'[13:02:01.440 21/01/2026]',-131567.6,-213398.1,-121107.3,-36718.37,-375000,-375000,-177993.1,-148499,0.02,0.00,0.86,-4,0,-2,28,0
'[13:02:01.444 21/01/2026]',-131641.8,-213479.7,-121190.3,-36724.86,-375000,-375000,-177677.6,-148397.8,0.02,0.00,0.86,-4,0,-2,28,0
'[13:02:01.448 21/01/2026]',-131719.1,-213559.9,-121269.4,-36790.61,-375000,-375000,-177594,-148393.8,0.02,0.00,0.86,-4,0,-2,28,0
'[13:02:01.452 21/01/2026]',-131659.6,-213492.5,-121201.7,-36809.39,-375000,-375000,-177930.1,-148512.5,0.02,0.00,0.86,-4,0,-2,28,0
'[13:02:01.456 21/01/2026]',-131585.6,-213407.8,-121122.3,-36746.09,-375000,-375000,-178033.6,-148514.5,0.02,0.00,0.86,-4,0,-2,28,0
'[13:02:01.460 21/01/2026]',-131643.2,-213477.4,-121193.9,-36729.55,-375000,-375000,-177728.6,-148403.2,0.02,0.00,0.86,-4,0,-2,28,0
'[13:02:01.464 21/01/2026]',-131714,-213546.1,-121265.8,-36781.85,-375000,-375000,-177567.1,-148365.1,0.02,0.00,0.86,-4,0,-2,28,0
'[13:02:01.468 21/01/2026]',-131677.9,-213497.6,-121212.7,-36801.3,-375000,-375000,-177858,-148469.9,0.02,0.00,0.86,-4,0,-2,28,0
'[13:02:01.472 21/01/2026]',-131593.5,-213412,-121124.9,-36749.57,-375000,-375000,-178040.6,-148498.6,0.02,0.00,0.86,-4,0,-2,28,0
'[13:02:01.476 21/01/2026]',-131627.7,-213448,-121170.5,-36720.16,-375000,-375000,-177778.4,-148397.3,0.03,0.00,0.89,-4,0,-2,28,0
'[13:02:01.480 21/01/2026]',-131705,-213528.3,-121258.6,-36763.88,-375000,-375000,-177552.5,-148337,0.03,0.00,0.89,-4,0,-2,28,0
'[13:02:01.484 21/01/2026]',-131686.1,-213513.6,-121236.3,-36799.38,-375000,-375000,-177793,-148441.1,0.03,0.00,0.89,-4,0,-2,28,0
'[13:02:01.488 21/01/2026]',-131609.2,-213423.1,-121132.5,-36758.83,-375000,-375000,-178052.9,-148515,0.03,0.00,0.89,-4,0,-2,28,0
'[13:02:01.492 21/01/2026]',-131617.5,-213433.1,-121145.7,-36713.32,-375000,-375000,-177843.9,-148423.3,0.03,0.00,0.89,-4,0,-2,28,0
'[13:02:01.496 21/01/2026]',-131702.9,-213533.8,-121270.2,-36764.82,-375000,-375000,-177578.2,-148357.1,0.03,0.00,0.89,-4,0,-2,28,0
'[13:02:01.500 21/01/2026]',-131708,-213537.7,-121262.7,-36810.5,-375000,-375000,-177737.3,-148426.8,0.03,0.00,0.89,-4,0,-2,28,0
'[13:02:01.504 21/01/2026]',-131619.1,-213436.2,-121147.7,-36770.23,-375000,-375000,-178036.9,-148509.1,0.03,0.00,0.89,-4,0,-2,28,0
'[13:02:01.508 21/01/2026]',-131607.4,-213429.3,-121143.8,-36725.84,-375000,-375000,-177904.1,-148446.5,0.03,0.00,0.89,-4,0,-2,28,0
'[13:02:01.512 21/01/2026]',-131681,-213527.4,-121247.6,-36766.7,-375000,-375000,-177604,-148359.8,0.02,-0.02,0.89,-4,0,-2,28,0
'[13:02:01.516 21/01/2026]',-131705.1,-213555.6,-121268.2,-36819.4,-375000,-375000,-177690.5,-148414.9,0.02,-0.02,0.89,-4,0,-2,28,0
'[13:02:01.520 21/01/2026]',-131629.4,-213448.9,-121160.3,-36788.02,-375000,-375000,-178025.9,-148514.8,0.02,-0.02,0.89,-4,0,-2,28,0
'[13:02:01.524 21/01/2026]',-131598.6,-213409,-121119.1,-36723.33,-375000,-375000,-177958.6,-148461.4,0.02,-0.02,0.89,-4,0,-2,28,0
'[13:02:01.528 21/01/2026]',-131672.3,-213495.6,-121216.1,-36734.51,-375000,-375000,-177634.7,-148356.6,0.02,-0.02,0.89,-4,0,-2,28,0
'[13:02:01.532 21/01/2026]',-131702.2,-213522.9,-121261.4,-36784.13,-375000,-375000,-177632.2,-148368.5,0.02,-0.02,0.89,-4,0,-2,28,0
'[13:02:01.536 21/01/2026]',-131599.2,-213412.9,-121155.4,-36755.92,-375000,-375000,-177951.9,-148462.3,0.02,-0.02,0.89,-4,0,-2,28,0
'[13:02:01.540 21/01/2026]',-131564.4,-213368.1,-121116.1,-36702.5,-375000,-375000,-177981.5,-148456.1,0.02,-0.02,0.89,-4,0,-2,28,0
'[13:02:01.544 21/01/2026]',-131655.1,-213466.7,-121217.4,-36725.52,-375000,-375000,-177681,-148372,0.02,-0.02,0.89,-4,0,-2,28,0
'[13:02:01.548 21/01/2026]',-131710.2,-213523.8,-121281,-36791.55,-375000,-375000,-177623.5,-148382.6,0.02,0.00,0.88,-4,0,-2,28,0
'[13:02:01.552 21/01/2026]',-131653.3,-213459,-121205.1,-36801.83,-375000,-375000,-177961.7,-148508,0.02,0.00,0.88,-4,0,-2,28,0
'[13:02:01.556 21/01/2026]',-131586.6,-213390.2,-121133,-36743.36,-375000,-375000,-178064.7,-148522.1,0.02,0.00,0.88,-4,0,-2,28,0
'[13:02:01.560 21/01/2026]',-131653.1,-213467.6,-121208.2,-36751.9,-375000,-375000,-177777,-148431.3,0.02,0.00,0.88,-4,0,-2,28,0
'[13:02:01.564 21/01/2026]',-131722.4,-213549.4,-121281.6,-36810.46,-375000,-375000,-177625,-148402.3,0.02,0.00,0.88,-4,0,-2,28,0
'[13:02:01.568 21/01/2026]',-131668.7,-213495.1,-121227.9,-36817.39,-375000,-375000,-177916.4,-148505.5,0.02,0.00,0.88,-4,0,-2,28,0
'[13:02:01.572 21/01/2026]',-131594,-213399.3,-121130.9,-36761.02,-375000,-375000,-178099.1,-148542.4,0.02,0.00,0.88,-4,0,-2,28,0
'[13:02:01.576 21/01/2026]',-131620.3,-213434.5,-121177.1,-36734.51,-375000,-375000,-177835.3,-148444.4,0.02,0.00,0.88,-4,0,-2,28,0
'[13:02:01.580 21/01/2026]',-131700.1,-213527.1,-121275.9,-36783.55,-375000,-375000,-177626.9,-148398,0.02,0.00,0.88,-4,0,-2,28,0
'[13:02:01.584 21/01/2026]',-131687.4,-213501.9,-121250.4,-36822.57,-375000,-375000,-177877,-148498.9,0.03,0.00,0.88,-4,0,-2,28,0
'[13:02:01.588 21/01/2026]',-131596.3,-213401.2,-121150.6,-36774.16,-375000,-375000,-178121.3,-148562.2,0.03,0.00,0.88,-4,0,-2,28,0
'[13:02:01.592 21/01/2026]',-131603.6,-213417.4,-121168.1,-36735.58,-375000,-375000,-177913.2,-148479.2,0.03,0.00,0.88,-4,0,-2,28,0
'[13:02:01.596 21/01/2026]',-131685.5,-213514.2,-121266.5,-36783.77,-375000,-375000,-177662.6,-148414.5,0.03,0.00,0.88,-4,0,-2,28,0
'[13:02:01.600 21/01/2026]',-131669.8,-213482.7,-121247.1,-36826.02,-375000,-375000,-177856.7,-148502.6,0.03,0.00,0.88,-4,0,-2,28,0
'[13:02:01.604 21/01/2026]',-131576.3,-213347,-121127.8,-36776.26,-375000,-375000,-178139.9,-148569.4,0.03,0.00,0.88,-4,0,-2,28,0
'[13:02:01.608 21/01/2026]',-131607.3,-213389,-121166.9,-36743.18,-375000,-375000,-177991.8,-148491.1,0.03,0.00,0.88,-4,0,-2,28,0
'[13:02:01.612 21/01/2026]',-131716.3,-213520.4,-121286.2,-36788.11,-375000,-375000,-177703.6,-148409,0.03,0.00,0.88,-4,0,-2,28,0
'[13:02:01.616 21/01/2026]',-131746.3,-213547.8,-121306,-36845.64,-375000,-375000,-177803.5,-148465.3,0.03,0.00,0.88,-4,0,-2,28,0
'[13:02:01.620 21/01/2026]',-131676.4,-213460.7,-121204.7,-36826.46,-375000,-375000,-178134.7,-148561.6,0.03,0.00,0.89,-4,0,-2,28,0
'[13:02:01.624 21/01/2026]',-131684.6,-213455.1,-121189.5,-36781.63,-375000,-375000,-178071,-148511.9,0.03,0.00,0.89,-4,0,-2,28,0
'[13:02:01.628 21/01/2026]',-131824.6,-213598.7,-121311.5,-36816.5,-375000,-375000,-177762.5,-148421.8,0.03,0.00,0.89,-4,0,-2,28,0
'[13:02:01.632 21/01/2026]',-131884.7,-213663.3,-121353.6,-36880.82,-375000,-375000,-177776.3,-148448.2,0.03,0.00,0.89,-4,0,-2,28,0
'[13:02:01.636 21/01/2026]',-131837.2,-213599,-121279.8,-36886.95,-375000,-375000,-178117.6,-148561,0.03,0.00,0.89,-4,0,-2,28,0
'[13:02:01.640 21/01/2026]',-131829.1,-213580.4,-121248.3,-36842.07,-375000,-375000,-178136.6,-148540.3,0.03,0.00,0.89,-4,0,-2,28,0
'[13:02:01.644 21/01/2026]',-131949.5,-213709.9,-121362.6,-36876.62,-375000,-375000,-177851,-148460.1,0.03,0.00,0.89,-4,0,-2,28,0
'[13:02:01.648 21/01/2026]',-132045.2,-213810,-121439.3,-36949.89,-375000,-375000,-177788.8,-148466,0.03,0.00,0.89,-4,0,-2,28,0
'[13:02:01.652 21/01/2026]',-131994.8,-213744.6,-121344.1,-36949.4,-375000,-375000,-178107,-148574.7,0.03,0.00,0.89,-4,0,-2,28,0
'[13:02:01.656 21/01/2026]',-131927.3,-213664.4,-121267.8,-36889.32,-375000,-375000,-178192.7,-148574.9,0.05,0.00,0.88,-4,0,-2,28,0
'[13:02:01.660 21/01/2026]',-132003.6,-213737.5,-121367.4,-36893.88,-375000,-375000,-177900.5,-148480.2,0.05,0.00,0.88,-4,0,-2,28,0
'[13:02:01.664 21/01/2026]',-132092.6,-213827.7,-121455.7,-36956.33,-375000,-375000,-177762,-148456.9,0.05,0.00,0.88,-4,0,-2,28,0
'[13:02:01.668 21/01/2026]',-132048,-213783.4,-121392.8,-36974.79,-375000,-375000,-178060.2,-148566.8,0.05,0.00,0.88,-4,0,-2,28,0
'[13:02:01.672 21/01/2026]',-131985.7,-213706.8,-121318.2,-36915.16,-375000,-375000,-178221.4,-148593,0.05,0.00,0.88,-4,0,-2,28,0
'[13:02:01.676 21/01/2026]',-132026.6,-213751.6,-121380.5,-36901.57,-375000,-375000,-177962.4,-148501,0.05,0.00,0.88,-4,0,-2,28,0
'[13:02:01.680 21/01/2026]',-132092.4,-213819.7,-121467.6,-36955.03,-375000,-375000,-177759.5,-148456,0.05,0.00,0.88,-4,0,-2,28,0
'[13:02:01.684 21/01/2026]',-132047.8,-213771.5,-121419,-36976.85,-375000,-375000,-177992.8,-148543.5,0.05,0.00,0.88,-4,0,-2,28,0
'[13:02:01.688 21/01/2026]',-131965.2,-213669.4,-121318.1,-36928.48,-375000,-375000,-178229.8,-148602.2,0.05,0.00,0.88,-4,0,-2,28,0
'[13:02:01.692 21/01/2026]',-131958.5,-213681.2,-121333.6,-36884.36,-375000,-375000,-178012,-148512.6,0.03,0.02,0.88,-4,0,-2,28,0
'[13:02:01.696 21/01/2026]',-132024.1,-213769.2,-121430.6,-36930.49,-375000,-375000,-177760.3,-148452.5,0.03,0.02,0.88,-4,0,-2,28,0
'[13:02:01.700 21/01/2026]',-132035.9,-213772.4,-121418.9,-36976.09,-375000,-375000,-177945.6,-148541,0.03,0.02,0.88,-4,0,-2,28,0
'[13:02:01.704 21/01/2026]',-131950.9,-213663.8,-121306.1,-36933.17,-375000,-375000,-178229.2,-148622.2,0.03,0.02,0.88,-4,0,-2,28,0
'[13:02:01.708 21/01/2026]',-131929.5,-213656.3,-121317.3,-36882.34,-375000,-375000,-178080.5,-148550,0.03,0.02,0.88,-4,0,-2,28,0
'[13:02:01.712 21/01/2026]',-132007.3,-213756,-121437.6,-36927.41,-375000,-375000,-177799.7,-148477.3,0.03,0.02,0.88,-4,0,-2,28,0
'[13:02:01.716 21/01/2026]',-132017.7,-213773.5,-121439.9,-36971.21,-375000,-375000,-177894.5,-148523.4,0.03,0.02,0.88,-4,0,-2,28,0
'[13:02:01.720 21/01/2026]',-131923.8,-213668.3,-121331.6,-36939.83,-375000,-375000,-178206.7,-148618.5,0.03,0.02,0.88,-4,0,-2,28,0
'[13:02:01.724 21/01/2026]',-131897.3,-213636.2,-121317.9,-36893.83,-375000,-375000,-178150.6,-148584.9,0.03,0.02,0.88,-4,0,-2,28,0
'[13:02:01.728 21/01/2026]',-131984.9,-213738.3,-121424.5,-36919.63,-375000,-375000,-177847.8,-148494.3,0.02,0.00,0.89,-4,0,-2,28,0
'[13:02:01.732 21/01/2026]',-132033.6,-213781.3,-121459.5,-36975.91,-375000,-375000,-177861.9,-148518.4,0.02,0.00,0.89,-4,0,-2,28,0
'[13:02:01.736 21/01/2026]',-131947.9,-213680,-121351.7,-36957.13,-375000,-375000,-178186.9,-148620,0.02,0.00,0.89,-4,0,-2,28,0
'[13:02:01.740 21/01/2026]',-131880.9,-213609.2,-121277.6,-36887.35,-375000,-375000,-178191.5,-148590.5,0.02,0.00,0.89,-4,0,-2,28,0
'[13:02:01.744 21/01/2026]',-131952.8,-213705.6,-121386,-36902.33,-375000,-375000,-177889.8,-148502.1,0.02,0.00,0.89,-4,0,-2,28,0
'[13:02:01.748 21/01/2026]',-132018.7,-213776,-121460.4,-36973.63,-375000,-375000,-177832.2,-148512.4,0.02,0.00,0.89,-4,0,-2,28,0
'[13:02:01.752 21/01/2026]',-131955.3,-213693.6,-121377.8,-36974.66,-375000,-375000,-178146.4,-148616.5,0.02,0.00,0.89,-4,0,-2,28,0
'[13:02:01.756 21/01/2026]',-131884.9,-213617.5,-121311.9,-36916.63,-375000,-375000,-178240.1,-148619.4,0.02,0.00,0.89,-4,0,-2,28,0
'[13:02:01.760 21/01/2026]',-131953.3,-213693.8,-121401.8,-36915.87,-375000,-375000,-177945,-148522.7,0.02,0.00,0.89,-4,0,-2,28,0
'[13:02:01.764 21/01/2026]',-132029.8,-213783.2,-121483.6,-36979.3,-375000,-375000,-177817.8,-148511.4,0.03,0.00,0.88,-4,0,-2,28,0
'[13:02:01.768 21/01/2026]',-131973.4,-213724.2,-121405.1,-36988.2,-375000,-375000,-178101.4,-148607.1,0.03,0.00,0.88,-4,0,-2,28,0
'[13:02:01.772 21/01/2026]',-131898.5,-213628.7,-121311,-36919.67,-375000,-375000,-178254.8,-148626.4,0.03,0.00,0.88,-4,0,-2,28,0
'[13:02:01.776 21/01/2026]',-131948.9,-213681.4,-121377.2,-36899.46,-375000,-375000,-177997.9,-148540.2,0.03,0.00,0.88,-4,0,-2,28,0
'[13:02:01.780 21/01/2026]',-132032.8,-213777,-121472.6,-36960.62,-375000,-375000,-177805,-148499.6,0.03,0.00,0.88,-4,0,-2,28,0
'[13:02:01.784 21/01/2026]',-131990.1,-213734.7,-121416.5,-36977.96,-375000,-375000,-178032.1,-148579.2,0.03,0.00,0.88,-4,0,-2,28,0
'[13:02:01.788 21/01/2026]',-131896.7,-213632.7,-121318.9,-36929.33,-375000,-375000,-178245,-148625.7,0.03,0.00,0.88,-4,0,-2,28,0
'[13:02:01.792 21/01/2026]',-131923.8,-213657.5,-121352.4,-36901.43,-375000,-375000,-178035.7,-148549.5,0.03,0.00,0.88,-4,0,-2,28,0
'[13:02:01.796 21/01/2026]',-132016.6,-213767.8,-121449.8,-36959.46,-375000,-375000,-177788.6,-148486.3,0.03,0.00,0.88,-4,0,-2,28,0
'[13:02:01.800 21/01/2026]',-132012,-213764.1,-121445.6,-37001.48,-375000,-375000,-177970.5,-148565.3,0.03,0.00,0.88,-4,0,-2,28,0
'[13:02:01.804 21/01/2026]',-131929.7,-213666.6,-121346.8,-36960.57,-375000,-375000,-178251,-148643.5,0.03,0.00,0.88,-4,0,-2,28,0
'[13:02:01.808 21/01/2026]',-131939.5,-213674.9,-121364,-36922,-375000,-375000,-178105.4,-148577.7,0.03,0.00,0.88,-4,0,-2,28,0
'[13:02:01.812 21/01/2026]',-132032.1,-213785.4,-121485,-36965.4,-375000,-375000,-177818.9,-148500.5,0.03,0.00,0.88,-4,0,-2,28,0
'[13:02:01.816 21/01/2026]',-132042.7,-213796.2,-121485.3,-37003.04,-375000,-375000,-177912.5,-148544.3,0.03,0.00,0.88,-4,0,-2,28,0
'[13:02:01.820 21/01/2026]',-131962.2,-213691.8,-121383,-36983.02,-375000,-375000,-178231.9,-148647.1,0.03,0.00,0.88,-4,0,-2,28,0
'[13:02:01.824 21/01/2026]',-131932.4,-213655.8,-121350.1,-36930.54,-375000,-375000,-178146.5,-148597.6,0.03,0.00,0.88,-4,0,-2,28,0
'[13:02:01.828 21/01/2026]',-132025.5,-213768.8,-121454.4,-36955.3,-375000,-375000,-177836.7,-148511.1,0.03,0.00,0.88,-4,0,-2,28,0
'[13:02:01.832 21/01/2026]',-132071.2,-213826.8,-121503.6,-37021.95,-375000,-375000,-177871.5,-148549.7,0.03,0.00,0.88,-4,0,-2,28,0
'[13:02:01.836 21/01/2026]',-131996.8,-213742.3,-121411,-37019.67,-375000,-375000,-178207.2,-148655,0.03,0.00,0.88,-4,0,-2,28,0
'[13:02:01.840 21/01/2026]',-131944.8,-213683.1,-121362.3,-36955.3,-375000,-375000,-178202.5,-148621.3,0.03,0.00,0.88,-4,0,-2,28,0
'[13:02:01.844 21/01/2026]',-132030.1,-213783.7,-121463.5,-36968.71,-375000,-375000,-177888.1,-148533.5,0.03,0.00,0.88,-4,0,-2,28,0
'[13:02:01.848 21/01/2026]',-132084,-213848.6,-121522,-37038.14,-375000,-375000,-177841.5,-148546.6,0.03,0.00,0.88,-4,0,-2,28,0
'[13:02:01.852 21/01/2026]',-132022.1,-213769.7,-121441,-37036.97,-375000,-375000,-178165.3,-148656.1,0.03,0.00,0.88,-4,0,-2,28,0
'[13:02:01.856 21/01/2026]',-131969.3,-213709.2,-121380.3,-36978.19,-375000,-375000,-178241.7,-148655.7,0.03,0.00,0.88,-4,0,-2,28,0
'[13:02:01.860 21/01/2026]',-132045,-213794.4,-121478.1,-36990.57,-375000,-375000,-177955.6,-148572.4,0.03,0.00,0.88,-4,0,-2,28,0
'[13:02:01.864 21/01/2026]',-132116.5,-213873.5,-121555.3,-37049.4,-375000,-375000,-177815.7,-148547.3,0.03,0.00,0.88,-4,0,-2,28,0
'[13:02:01.868 21/01/2026]',-132067.2,-213818.8,-121489.3,-37066.88,-375000,-375000,-178121.5,-148665.9,0.03,0.00,0.88,-4,0,-2,28,0
'[13:02:01.872 21/01/2026]',-131995,-213739.2,-121403,-37016.9,-375000,-375000,-178295,-148710.6,0.03,0.00,0.88,-4,0,-2,28,0
'[13:02:01.876 21/01/2026]',-132037.4,-213797.2,-121461.8,-36999.02,-375000,-375000,-178024.8,-148615.5,0.03,0.00,0.88,-4,0,-2,28,0
'[13:02:01.880 21/01/2026]',-132120.3,-213887,-121544.8,-37049.71,-375000,-375000,-177820.7,-148565.5,0.03,0.00,0.88,-4,0,-2,28,0
'[13:02:01.884 21/01/2026]',-132095,-213845.7,-121507,-37085.25,-375000,-375000,-178082.2,-148672.9,0.03,0.00,0.88,-4,0,-2,28,0
'[13:02:01.888 21/01/2026]',-132010.5,-213760.3,-121421.6,-37043.81,-375000,-375000,-178314,-148738,0.03,0.00,0.88,-4,0,-2,28,0
'[13:02:01.892 21/01/2026]',-132039.2,-213805.2,-121462.8,-37021.11,-375000,-375000,-178093.3,-148651,0.03,0.00,0.88,-4,0,-2,28,0
'[13:02:01.896 21/01/2026]',-132121.8,-213903.4,-121569.1,-37062.99,-375000,-375000,-177838.8,-148583.6,0.03,0.00,0.88,-4,0,-2,28,0
'[13:02:01.900 21/01/2026]',-132106.7,-213882.6,-121540.9,-37096.79,-375000,-375000,-178035.4,-148664.5,0.03,0.00,0.88,-4,0,-2,28,0
'[13:02:01.904 21/01/2026]',-132021.5,-213772.2,-121430.1,-37041.18,-375000,-375000,-178294.8,-148722.3,0.03,0.00,0.88,-4,0,-2,28,0
'[13:02:01.908 21/01/2026]',-132030.9,-213781.2,-121451.3,-37005.55,-375000,-375000,-178139.7,-148653.3,0.02,0.00,0.88,-4,0,-2,28,0
'[13:02:01.912 21/01/2026]',-132126,-213891.7,-121562.7,-37049.54,-375000,-375000,-177857.3,-148580.3,0.02,0.00,0.88,-4,0,-2,28,0
'[13:02:01.916 21/01/2026]',-132141.5,-213904.9,-121570.3,-37094.37,-375000,-375000,-177975.3,-148642,0.02,0.00,0.88,-4,0,-2,28,0
'[13:02:01.920 21/01/2026]',-132059.6,-213810.3,-121466.8,-37061.16,-375000,-375000,-178286.1,-148732.1,0.02,0.00,0.88,-4,0,-2,28,0
'[13:02:01.924 21/01/2026]',-132043.6,-213789.9,-121451.1,-37012.12,-375000,-375000,-178207.7,-148688,0.02,0.00,0.88,-4,0,-2,28,0
'[13:02:01.928 21/01/2026]',-132136.4,-213881.9,-121559.2,-37048.24,-375000,-375000,-177899.4,-148597.8,0.02,0.00,0.88,-4,0,-2,28,0
'[13:02:01.932 21/01/2026]',-132166.9,-213916,-121586.2,-37098.04,-375000,-375000,-177928.6,-148623.5,0.02,0.00,0.88,-4,0,-2,28,0
'[13:02:01.936 21/01/2026]',-132079.2,-213837.9,-121478.4,-37087.13,-375000,-375000,-178270.2,-148738.6,0.02,0.00,0.88,-4,0,-2,28,0
'[13:02:01.940 21/01/2026]',-132028.4,-213785.8,-121426.7,-37031.52,-375000,-375000,-178270,-148715.3,0.02,0.00,0.88,-4,0,-2,28,0
'[13:02:01.944 21/01/2026]',-132104,-213881.7,-121533.2,-37048.69,-375000,-375000,-177955.8,-148616.7,0.03,0.00,0.88,-4,0,-2,28,0
'[13:02:01.948 21/01/2026]',-132157.4,-213936.8,-121604.5,-37105.19,-375000,-375000,-177911.3,-148622.2,0.03,0.00,0.88,-4,0,-2,28,0
'[13:02:01.952 21/01/2026]',-132091.8,-213861.2,-121521,-37102.42,-375000,-375000,-178232.4,-148726.6,0.03,0.00,0.88,-4,0,-2,28,0
'[13:02:01.956 21/01/2026]',-132032.2,-213785.5,-121445.7,-37038.89,-375000,-375000,-178300.7,-148717.6,0.03,0.00,0.88,-4,0,-2,28,0
'[13:02:01.960 21/01/2026]',-132106.9,-213865.4,-121526.4,-37045.82,-375000,-375000,-178008,-148625.2,0.03,0.00,0.88,-4,0,-2,28,0
'[13:02:01.964 21/01/2026]',-132168.4,-213932.9,-121596.4,-37101.08,-375000,-375000,-177883.7,-148601.5,0.03,0.00,0.88,-4,0,-2,28,0
'[13:02:01.968 21/01/2026]',-132104.7,-213847.8,-121528.1,-37105.77,-375000,-375000,-178183.2,-148706.5,0.03,0.00,0.88,-4,0,-2,28,0
'[13:02:01.972 21/01/2026]',-132027.5,-213757.4,-121446.7,-37045.78,-375000,-375000,-178344.2,-148740.6,0.03,0.00,0.88,-4,0,-2,28,0
'[13:02:01.976 21/01/2026]',-132091.7,-213852.4,-121518.3,-37036.88,-375000,-375000,-178064.1,-148642.1,0.03,0.00,0.88,-4,0,-2,28,0
'[13:02:01.980 21/01/2026]',-132187.5,-213960.3,-121619.2,-37105.64,-375000,-375000,-177884.8,-148613,0.03,0.00,0.88,-4,0,-2,28,0
'[13:02:01.984 21/01/2026]',-132157.8,-213909.2,-121565.2,-37117.8,-375000,-375000,-178125.4,-148701.1,0.03,0.00,0.88,-4,0,-2,28,0
'[13:02:01.988 21/01/2026]',-132071.9,-213824.3,-121462.3,-37075.24,-375000,-375000,-178353.9,-148757,0.03,0.00,0.88,-4,0,-2,28,0
'[13:02:01.992 21/01/2026]',-132099.1,-213856.6,-121502.9,-37044.98,-375000,-375000,-178134.4,-148673.5,0.03,0.00,0.88,-4,0,-2,28,0
'[13:02:01.996 21/01/2026]',-132181,-213953.2,-121604.4,-37085.21,-375000,-375000,-177872,-148595.5,0.03,0.00,0.88,-4,0,-2,28,0
'[13:02:02.000 21/01/2026]',-132171,-213944,-121586.3,-37126.11,-375000,-375000,-178064.4,-148678,0.03,0.00,0.88,-4,0,-2,28,0
'[13:02:02.004 21/01/2026]',-132087.5,-213835.3,-121475.8,-37071.84,-375000,-375000,-178331.2,-148746.7,0.03,0.00,0.88,-4,0,-2,28,0
'[13:02:02.008 21/01/2026]',-132074.9,-213831.6,-121469.4,-37029.06,-375000,-375000,-178163.2,-148668.3,0.03,0.00,0.88,-4,0,-2,28,0
'[13:02:02.012 21/01/2026]',-132157.7,-213923.3,-121572.4,-37072.82,-375000,-375000,-177883.6,-148591.4,0.03,0.00,0.88,-4,0,-2,28,0
'[13:02:02.016 21/01/2026]',-132169.3,-213935.1,-121578.6,-37118.16,-375000,-375000,-178011.5,-148648.5,0.02,0.02,0.88,-4,0,-2,28,0
'[13:02:02.020 21/01/2026]',-132092.8,-213829.4,-121477.6,-37091.11,-375000,-375000,-178323.4,-148740.7,0.02,0.02,0.88,-4,0,-2,28,0
'[13:02:02.024 21/01/2026]',-132062.5,-213806,-121454.4,-37038.98,-375000,-375000,-178229,-148688.2,0.02,0.02,0.88,-4,0,-2,28,0
'[13:02:02.028 21/01/2026]',-132145.5,-213916.9,-121574.4,-37079.31,-375000,-375000,-177930.3,-148612.8,0.02,0.02,0.88,-4,0,-2,28,0
'[13:02:02.032 21/01/2026]',-132179.4,-213946.4,-121609.7,-37127.41,-375000,-375000,-177966.9,-148650,0.02,0.02,0.88,-4,0,-2,28,0
'[13:02:02.036 21/01/2026]',-132099.4,-213854.5,-121511.9,-37117.26,-375000,-375000,-178298.9,-148763.3,0.02,0.02,0.88,-4,0,-2,28,0
'[13:02:02.040 21/01/2026]',-132045.4,-213803.3,-121461.1,-37052.84,-375000,-375000,-178279.2,-148736.4,0.02,0.02,0.88,-4,0,-2,28,0
'[13:02:02.044 21/01/2026]',-132129.3,-213889.6,-121558.6,-37070.77,-375000,-375000,-177961.7,-148640.4,0.02,0.02,0.88,-4,0,-2,28,0
'[13:02:02.048 21/01/2026]',-132183.6,-213946.1,-121616.1,-37127.36,-375000,-375000,-177917.9,-148648.8,0.02,0.02,0.88,-4,0,-2,28,0
'[13:02:02.052 21/01/2026]',-132109,-213871,-121533.3,-37120.48,-375000,-375000,-178225.3,-148754.5,0.03,-0.02,0.88,-4,0,-2,28,0
'[13:02:02.056 21/01/2026]',-132041.9,-213799.1,-121456.7,-37050.38,-375000,-375000,-178285,-148741.7,0.03,-0.02,0.88,-4,0,-2,28,0
'[13:02:02.060 21/01/2026]',-132101.4,-213864.6,-121525,-37039.92,-375000,-375000,-177982.9,-148635.4,0.03,-0.02,0.88,-4,0,-2,28,0
'[13:02:02.064 21/01/2026]',-132167.2,-213937.5,-121596,-37102.78,-375000,-375000,-177875.9,-148622.1,0.03,-0.02,0.88,-4,0,-2,28,0
'[13:02:02.068 21/01/2026]',-132122.8,-213881.7,-121547,-37120.12,-375000,-375000,-178186.4,-148735.8,0.03,-0.02,0.88,-4,0,-2,28,0
'[13:02:02.072 21/01/2026]',-132040.4,-213787.2,-121452.7,-37058.48,-375000,-375000,-178329.7,-148752.4,0.03,-0.02,0.88,-4,0,-2,28,0
'[13:02:02.076 21/01/2026]',-132090.1,-213835.6,-121508.1,-37047.93,-375000,-375000,-178060.4,-148658.9,0.03,-0.02,0.88,-4,0,-2,28,0
'[13:02:02.080 21/01/2026]',-132179,-213940.5,-121613.1,-37111.81,-375000,-375000,-177894.4,-148634.5,0.03,-0.02,0.88,-4,0,-2,28,0
'[13:02:02.084 21/01/2026]',-132150.8,-213897.6,-121574.8,-37137.46,-375000,-375000,-178142.4,-148722,0.03,-0.02,0.88,-4,0,-2,28,0
'[13:02:02.088 21/01/2026]',-132058.4,-213794.3,-121472,-37085.88,-375000,-375000,-178362.4,-148768.8,0.02,0.02,0.88,-4,0,-2,28,0
'[13:02:02.092 21/01/2026]',-132087.5,-213839.4,-121500,-37055.57,-375000,-375000,-178133.4,-148687.7,0.02,0.02,0.88,-4,0,-2,28,0
'[13:02:02.096 21/01/2026]',-132161.9,-213934.1,-121593.4,-37099.25,-375000,-375000,-177888.6,-148622.7,0.02,0.02,0.88,-4,0,-2,28,0
'[13:02:02.100 21/01/2026]',-132141.6,-213910.4,-121572.8,-37129.87,-375000,-375000,-178083.5,-148698.7,0.02,0.02,0.88,-4,0,-2,28,0
'[13:02:02.104 21/01/2026]',-132056.7,-213807.6,-121469.5,-37078.55,-375000,-375000,-178335.4,-148754.6,0.02,0.02,0.88,-4,0,-2,28,0
'[13:02:02.108 21/01/2026]',-132053.4,-213812.7,-121483.5,-37035.18,-375000,-375000,-178160.4,-148678.8,0.02,0.02,0.88,-4,0,-2,28,0
'[13:02:02.112 21/01/2026]',-132137.8,-213909.2,-121587.8,-37068.89,-375000,-375000,-177880.5,-148600,0.02,0.02,0.88,-4,0,-2,28,0
'[13:02:02.116 21/01/2026]',-132144.5,-213915.8,-121592.9,-37114.31,-375000,-375000,-178009,-148659.2,0.02,0.02,0.88,-4,0,-2,28,0
'[13:02:02.120 21/01/2026]',-132058.2,-213821.5,-121480,-37079.93,-375000,-375000,-178308.6,-148746.6,0.02,0.02,0.88,-4,0,-2,28,0
'[13:02:02.124 21/01/2026]',-132038.8,-213787.9,-121464.3,-37020.75,-375000,-375000,-178199.6,-148684.8,0.03,0.00,0.89,-4,0,-2,28,0
'[13:02:02.128 21/01/2026]',-132121.7,-213882.7,-121567,-37040.68,-375000,-375000,-177891.1,-148588.3,0.03,0.00,0.89,-4,0,-2,28,0
'[13:02:02.132 21/01/2026]',-132150.1,-213914.5,-121582.5,-37093.25,-375000,-375000,-177938.2,-148620.6,0.03,0.00,0.89,-4,0,-2,28,0
'[13:02:02.136 21/01/2026]',-132059.6,-213812.1,-121464.4,-37065.09,-375000,-375000,-178248.7,-148710.1,0.03,0.00,0.89,-4,0,-2,28,0
'[13:02:02.140 21/01/2026]',-132004.5,-213751.9,-121419.5,-37003.54,-375000,-375000,-178227.8,-148667.5,0.03,0.00,0.89,-4,0,-2,28,0
'[13:02:02.144 21/01/2026]',-132085.8,-213848,-121538.5,-37026.96,-375000,-375000,-177919.4,-148572.1,0.03,0.00,0.89,-4,0,-2,28,0
'[13:02:02.148 21/01/2026]',-132158.3,-213925.9,-121616.4,-37113.64,-375000,-375000,-177913.1,-148609.2,0.03,0.00,0.89,-4,0,-2,28,0
'[13:02:02.152 21/01/2026]',-132101.2,-213852.7,-121539.3,-37121.55,-375000,-375000,-178238.8,-148726.3,0.03,0.00,0.89,-4,0,-2,28,0
'[13:02:02.156 21/01/2026]',-132060.8,-213806.3,-121478,-37062.19,-375000,-375000,-178297.6,-148719.1,0.03,0.00,0.89,-4,0,-2,28,0
'[13:02:02.160 21/01/2026]',-132137,-213900.9,-121571.7,-37079.57,-375000,-375000,-178006.3,-148630.9,0.03,0.00,0.88,-4,0,-2,28,0
'[13:02:02.164 21/01/2026]',-132193.1,-213977.5,-121638.4,-37141.63,-375000,-375000,-177903.8,-148618,0.03,0.00,0.88,-4,0,-2,28,0
'[13:02:02.168 21/01/2026]',-132149.5,-213916.3,-121574.3,-37143.77,-375000,-375000,-178200.1,-148727,0.03,0.00,0.88,-4,0,-2,28,0
'[13:02:02.172 21/01/2026]',-132076.9,-213821.3,-121497.3,-37078.68,-375000,-375000,-178334.6,-148748.7,0.03,0.00,0.88,-4,0,-2,28,0
'[13:02:02.176 21/01/2026]',-132113.9,-213870,-121550,-37062.63,-375000,-375000,-178062.7,-148651.1,0.03,0.00,0.88,-4,0,-2,28,0
'[13:02:02.180 21/01/2026]',-132175.5,-213946,-121620.5,-37108.32,-375000,-375000,-177876.9,-148601.3,0.03,0.00,0.88,-4,0,-2,28,0
'[13:02:02.184 21/01/2026]',-132110.1,-213886.6,-121546.2,-37112.34,-375000,-375000,-178110.5,-148675.7,0.03,0.00,0.88,-4,0,-2,28,0
'[13:02:02.188 21/01/2026]',-132018.6,-213778.4,-121443.9,-37044.62,-375000,-375000,-178303.8,-148714.8,0.03,0.00,0.88,-4,0,-2,28,0
'[13:02:02.192 21/01/2026]',-132049.2,-213815.4,-121486.6,-37007.74,-375000,-375000,-178072.2,-148626.3,0.03,0.00,0.88,-4,0,-2,28,0
'[13:02:02.196 21/01/2026]',-132143.4,-213921.2,-121600.5,-37066.21,-375000,-375000,-177852.5,-148579.5,0.02,-0.02,0.89,-4,0,-2,28,0
'[13:02:02.200 21/01/2026]',-132136.2,-213899.8,-121579.9,-37102.33,-375000,-375000,-178049.6,-148661.4,0.02,-0.02,0.89,-4,0,-2,28,0
'[13:02:02.204 21/01/2026]',-132051.4,-213796.1,-121479.7,-37060.62,-375000,-375000,-178304.3,-148726.6,0.02,-0.02,0.89,-4,0,-2,28,0
'[13:02:02.208 21/01/2026]',-132054,-213818.8,-121494.3,-37022.94,-375000,-375000,-178140.8,-148660.7,0.02,-0.02,0.89,-4,0,-2,28,0
'[13:02:02.212 21/01/2026]',-132139.3,-213916.4,-121592.9,-37069.43,-375000,-375000,-177867,-148582.1,0.02,-0.02,0.89,-4,0,-2,28,0
'[13:02:02.216 21/01/2026]',-132146.8,-213898.5,-121579,-37110.6,-375000,-375000,-177992.2,-148637,0.02,-0.02,0.89,-4,0,-2,28,0
'[13:02:02.220 21/01/2026]',-132061.7,-213808.2,-121480.4,-37071.62,-375000,-375000,-178290.5,-148727.5,0.02,-0.02,0.89,-4,0,-2,28,0
'[13:02:02.224 21/01/2026]',-132046.7,-213798,-121467,-37023.03,-375000,-375000,-178189.9,-148672.4,0.02,-0.02,0.89,-4,0,-2,28,0
'[13:02:02.228 21/01/2026]',-132123.9,-213903.9,-121577.4,-37053.6,-375000,-375000,-177890.1,-148583.8,0.02,-0.02,0.89,-4,0,-2,28,0
'[13:02:02.232 21/01/2026]',-132149.3,-213938.2,-121596.5,-37105.19,-375000,-375000,-177943.9,-148621.2,0.03,0.00,0.88,-4,0,-2,28,0
'[13:02:02.236 21/01/2026]',-132078.2,-213838.1,-121500.5,-37082.39,-375000,-375000,-178252.6,-148716.2,0.03,0.00,0.88,-4,0,-2,28,0
'[13:02:02.240 21/01/2026]',-132048.1,-213786.8,-121469,-37031.07,-375000,-375000,-178233.3,-148684.3,0.03,0.00,0.88,-4,0,-2,28,0
'[13:02:02.244 21/01/2026]',-132116.6,-213888.3,-121561.6,-37049.76,-375000,-375000,-177930.7,-148590.7,0.03,0.00,0.88,-4,0,-2,28,0
'[13:02:02.248 21/01/2026]',-132161,-213931.2,-121614.5,-37111.45,-375000,-375000,-177910.2,-148604.6,0.03,0.00,0.88,-4,0,-2,28,0
'[13:02:02.252 21/01/2026]',-132088.6,-213850.4,-121537.3,-37105.55,-375000,-375000,-178228.2,-148711.9,0.03,0.00,0.88,-4,0,-2,28,0
'[13:02:02.256 21/01/2026]',-132025,-213784,-121475,-37044.75,-375000,-375000,-178273.1,-148699.8,0.03,0.00,0.88,-4,0,-2,28,0
'[13:02:02.260 21/01/2026]',-132091.9,-213859.1,-121553.4,-37052.35,-375000,-375000,-177972.5,-148601.2,0.03,0.00,0.88,-4,0,-2,28,0
'[13:02:02.264 21/01/2026]',-132160,-213936.4,-121610.6,-37108.68,-375000,-375000,-177868.9,-148588.5,0.03,0.00,0.88,-4,0,-2,28,0
'[13:02:02.268 21/01/2026]',-132111.9,-213872.1,-121537.9,-37124.68,-375000,-375000,-178181.3,-148704.9,0.02,0.00,0.88,-4,0,-2,28,0
'[13:02:02.272 21/01/2026]',-132031.3,-213779.6,-121456,-37054.63,-375000,-375000,-178300.6,-148719.2,0.02,0.00,0.88,-4,0,-2,28,0
'[13:02:02.276 21/01/2026]',-132074.9,-213850.6,-121522.9,-37040.28,-375000,-375000,-178019.8,-148622.4,0.02,0.00,0.88,-4,0,-2,28,0
'[13:02:02.280 21/01/2026]',-132145.5,-213934.3,-121607.6,-37092.85,-375000,-375000,-177844.7,-148580.3,0.02,0.00,0.88,-4,0,-2,28,0
'[13:02:02.284 21/01/2026]',-132116.5,-213877.8,-121553.8,-37111.32,-375000,-375000,-178099.9,-148674.5,0.02,0.00,0.88,-4,0,-2,28,0
'[13:02:02.288 21/01/2026]',-132029.4,-213784.2,-121454.3,-37057.31,-375000,-375000,-178294.8,-148717.1,0.02,0.00,0.88,-4,0,-2,28,0
'[13:02:02.292 21/01/2026]',-132063.3,-213833.9,-121506.9,-37030.63,-375000,-375000,-178069.4,-148632.4,0.02,0.00,0.88,-4,0,-2,28,0
'[13:02:02.296 21/01/2026]',-132150.7,-213924.8,-121598.4,-37074.03,-375000,-375000,-177849,-148573.4,0.02,0.00,0.88,-4,0,-2,28,0
'[13:02:02.300 21/01/2026]',-132120.8,-213907.8,-121557.5,-37106.58,-375000,-375000,-178047.4,-148656.4,0.02,0.00,0.88,-4,0,-2,28,0
'[13:02:02.304 21/01/2026]',-132027.5,-213792.6,-121456.5,-37058.61,-375000,-375000,-178296,-148719.9,0.02,0.00,0.89,-4,0,-2,28,0
'[13:02:02.308 21/01/2026]',-132039.6,-213803.8,-121480.4,-37019.23,-375000,-375000,-178119.4,-148645.7,0.02,0.00,0.89,-4,0,-2,28,0
'[13:02:02.312 21/01/2026]',-132142.2,-213918.8,-121599,-37066.79,-375000,-375000,-177862.8,-148581.5,0.02,0.00,0.89,-4,0,-2,28,0
'[13:02:02.316 21/01/2026]',-132150.5,-213922.7,-121591.7,-37109.08,-375000,-375000,-178002.7,-148647.9,0.02,0.00,0.89,-4,0,-2,28,0
'[13:02:02.320 21/01/2026]',-132047.9,-213815,-121472.7,-37068.27,-375000,-375000,-178278.5,-148719.3,0.02,0.00,0.89,-4,0,-2,28,0
'[13:02:02.324 21/01/2026]',-132031.3,-213801,-121473.8,-37016.54,-375000,-375000,-178171.8,-148663.9,0.02,0.00,0.89,-4,0,-2,28,0
'[13:02:02.328 21/01/2026]',-132122,-213900.4,-121584.4,-37044.21,-375000,-375000,-177874.3,-148577.9,0.02,0.00,0.89,-4,0,-2,28,0
'[13:02:02.332 21/01/2026]',-132148.6,-213922.8,-121600.7,-37094.37,-375000,-375000,-177935.8,-148616.5,0.02,0.00,0.89,-4,0,-2,28,0
'[13:02:02.336 21/01/2026]',-132057.5,-213816.7,-121485.5,-37068.89,-375000,-375000,-178244.7,-148710.4,0.02,0.00,0.89,-4,0,-2,28,0
'[13:02:02.340 21/01/2026]',-132025.5,-213779.8,-121441.7,-37011.85,-375000,-375000,-178214.8,-148675.7,0.03,0.00,0.88,-4,0,-2,28,0
'[13:02:02.344 21/01/2026]',-132114.9,-213887.7,-121555.7,-37036.57,-375000,-375000,-177912.5,-148586.9,0.03,0.00,0.88,-4,0,-2,28,0
'[13:02:02.348 21/01/2026]',-132153.9,-213935.6,-121607.4,-37097.41,-375000,-375000,-177895.3,-148601.4,0.03,0.00,0.88,-4,0,-2,28,0
'[13:02:02.352 21/01/2026]',-132076.1,-213845.1,-121516.4,-37093.43,-375000,-375000,-178208.6,-148703.9,0.03,0.00,0.88,-4,0,-2,28,0
'[13:02:02.356 21/01/2026]',-132024.9,-213788.4,-121454.5,-37033.75,-375000,-375000,-178250.5,-148695.9,0.03,0.00,0.88,-4,0,-2,28,0
'[13:02:02.360 21/01/2026]',-132100.8,-213864.8,-121548.6,-37038.14,-375000,-375000,-177955.1,-148605.3,0.03,0.00,0.88,-4,0,-2,28,0
'[13:02:02.364 21/01/2026]',-132158.6,-213945.7,-121616.6,-37093.97,-375000,-375000,-177864.1,-148597.3,0.03,0.00,0.88,-4,0,-2,28,0
'[13:02:02.368 21/01/2026]',-132094.4,-213878.4,-121535.5,-37095.36,-375000,-375000,-178151.9,-148692.7,0.03,0.00,0.88,-4,0,-2,28,0
'[13:02:02.372 21/01/2026]',-132017.8,-213790.6,-121447.5,-37034.56,-375000,-375000,-178271.1,-148703.1,0.03,0.00,0.88,-4,0,-2,28,0
'[13:02:02.376 21/01/2026]',-132079.4,-213856.8,-121520.2,-37035.68,-375000,-375000,-178006.3,-148616.7,0.03,0.00,0.88,-4,0,-2,28,0
'[13:02:02.380 21/01/2026]',-132172.8,-213945.7,-121610.1,-37094.06,-375000,-375000,-177850.5,-148587.7,0.03,0.00,0.88,-4,0,-2,28,0
'[13:02:02.384 21/01/2026]',-132136.7,-213888.6,-121560.2,-37109.75,-375000,-375000,-178103.7,-148682.5,0.03,0.00,0.88,-4,0,-2,28,0
'[13:02:02.388 21/01/2026]',-132046,-213793.5,-121464.9,-37047.3,-375000,-375000,-178286.1,-148717.2,0.03,0.00,0.88,-4,0,-2,28,0
'[13:02:02.392 21/01/2026]',-132065.2,-213839.5,-121508.2,-37026.2,-375000,-375000,-178053.5,-148631.1,0.03,0.00,0.88,-4,0,-2,28,0
'[13:02:02.396 21/01/2026]',-132154.5,-213943.5,-121610.8,-37082.7,-375000,-375000,-177840.4,-148583.3,0.03,0.00,0.88,-4,0,-2,28,0
'[13:02:02.400 21/01/2026]',-132139.3,-213911.2,-121580.4,-37107.74,-375000,-375000,-178039.9,-148662.4,0.03,0.00,0.88,-4,0,-2,28,0
'[13:02:02.404 21/01/2026]',-132048.1,-213807.3,-121466.8,-37067.73,-375000,-375000,-178290,-148725.4,0.03,0.00,0.88,-4,0,-2,28,0
'[13:02:02.408 21/01/2026]',-132063.1,-213833.3,-121502.1,-37036.44,-375000,-375000,-178113.1,-148651.9,0.03,0.00,0.88,-4,0,-2,28,0
'[13:02:02.412 21/01/2026]',-132159.2,-213934.3,-121626.4,-37088.07,-375000,-375000,-177858,-148585,0.02,0.00,0.88,-4,0,-2,28,0
'[13:02:02.416 21/01/2026]',-132160,-213939.9,-121613,-37130.71,-375000,-375000,-177999.1,-148651.6,0.02,0.00,0.88,-4,0,-2,28,0
'[13:02:02.420 21/01/2026]',-132063.9,-213834.5,-121499.7,-37089.68,-375000,-375000,-178276.6,-148726.7,0.02,0.00,0.88,-4,0,-2,28,0
'[13:02:02.424 21/01/2026]',-132052.2,-213824.9,-121492.5,-37039.3,-375000,-375000,-178161.7,-148667.6,0.02,0.00,0.88,-4,0,-2,28,0
'[13:02:02.428 21/01/2026]',-132142,-213918.2,-121591.3,-37070.5,-375000,-375000,-177865.4,-148579.8,0.02,0.00,0.88,-4,0,-2,28,0
'[13:02:02.432 21/01/2026]',-132159.7,-213931.8,-121605.5,-37121.69,-375000,-375000,-177935.8,-148627,0.02,0.00,0.88,-4,0,-2,28,0
'[13:02:02.436 21/01/2026]',-132076.9,-213842,-121504.2,-37098.04,-375000,-375000,-178247.2,-148725.7,0.02,0.00,0.88,-4,0,-2,28,0
'[13:02:02.440 21/01/2026]',-132051,-213818.8,-121471.8,-37044.04,-375000,-375000,-178204.2,-148688.5,0.02,0.00,0.88,-4,0,-2,28,0
'[13:02:02.444 21/01/2026]',-132142.4,-213922.2,-121583.9,-37066.88,-375000,-375000,-177904.3,-148602.1,0.02,0.00,0.88,-4,0,-2,28,0
'[13:02:02.448 21/01/2026]',-132178.6,-213961.1,-121635.2,-37114.18,-375000,-375000,-177891.3,-148616.9,0.02,0.00,0.88,-4,0,-2,28,0
'[13:02:02.452 21/01/2026]',-132104.8,-213872.5,-121544.4,-37105.46,-375000,-375000,-178201.1,-148721.2,0.02,0.00,0.88,-4,0,-2,28,0
'[13:02:02.456 21/01/2026]',-132049.5,-213811.1,-121476.9,-37048.82,-375000,-375000,-178247.8,-148710.6,0.02,0.00,0.88,-4,0,-2,28,0
'[13:02:02.460 21/01/2026]',-132127.9,-213896.2,-121571.4,-37061.92,-375000,-375000,-177956.3,-148624.2,0.02,0.00,0.88,-4,0,-2,28,0
'[13:02:02.464 21/01/2026]',-132176.5,-213954,-121625.6,-37113.55,-375000,-375000,-177861.4,-148607.8,0.02,0.00,0.88,-4,0,-2,28,0
'[13:02:02.468 21/01/2026]',-132103.5,-213882,-121540.4,-37108.95,-375000,-375000,-178147,-148699.9,0.02,0.00,0.88,-4,0,-2,28,0
'[13:02:02.472 21/01/2026]',-132032.5,-213793.2,-121459.8,-37044.62,-375000,-375000,-178259.6,-148710.1,0.02,0.00,0.88,-4,0,-2,28,0
'[13:02:02.476 21/01/2026]',-132100.1,-213868.2,-121544,-37052.22,-375000,-375000,-177992.7,-148627.4,0.02,0.00,0.88,-4,0,-2,28,0
'[13:02:02.480 21/01/2026]',-132180.6,-213954.1,-121630.4,-37109.08,-375000,-375000,-177832,-148589.1,0.02,0.00,0.88,-4,0,-2,28,0
'[13:02:02.484 21/01/2026]',-132140.9,-213914.4,-121569.2,-37125.89,-375000,-375000,-178092.9,-148684.9,0.03,0.00,0.88,-4,0,-2,28,0
'[13:02:02.488 21/01/2026]',-132043.9,-213831.4,-121464.1,-37064.42,-375000,-375000,-178273.5,-148721.8,0.03,0.00,0.88,-4,0,-2,28,0
'[13:02:02.492 21/01/2026]',-132077.2,-213860.5,-121522,-37035.41,-375000,-375000,-178032.6,-148634.9,0.03,0.00,0.88,-4,0,-2,28,0
'[13:02:02.496 21/01/2026]',-132174,-213936.9,-121631.8,-37088.7,-375000,-375000,-177817.2,-148579.8,0.03,0.00,0.88,-4,0,-2,28,0
'[13:02:02.500 21/01/2026]',-132160.6,-213902.8,-121587.3,-37110.73,-375000,-375000,-178017.3,-148659.3,0.03,0.00,0.88,-4,0,-2,28,0
'[13:02:02.504 21/01/2026]',-132066.5,-213807.2,-121474.6,-37056.11,-375000,-375000,-178250.3,-148712.5,0.03,0.00,0.88,-4,0,-2,28,0
'[13:02:02.508 21/01/2026]',-132076.2,-213816.9,-121482,-37014.49,-375000,-375000,-178062.5,-148628.5,0.03,0.00,0.88,-4,0,-2,28,0
'[13:02:02.512 21/01/2026]',-132175.6,-213930.9,-121594.3,-37061.38,-375000,-375000,-177807.4,-148566.2,0.03,0.00,0.88,-4,0,-2,28,0
'[13:02:02.516 21/01/2026]',-132187,-213947.5,-121599.1,-37114.09,-375000,-375000,-177949.3,-148629.8,0.03,0.00,0.88,-4,0,-2,28,0
'[13:02:02.520 21/01/2026]',-132103.9,-213848.9,-121512.7,-37091.78,-375000,-375000,-178253.4,-148723.5,0.03,0.02,0.88,-4,0,-2,28,0
'[13:02:02.524 21/01/2026]',-132084.7,-213825.6,-121510.1,-37037.96,-375000,-375000,-178133.1,-148662.3,0.03,0.02,0.88,-4,0,-2,28,0
'[13:02:02.528 21/01/2026]',-132178.3,-213920.1,-121614.7,-37072.2,-375000,-375000,-177846.9,-148584.9,0.03,0.02,0.88,-4,0,-2,28,0
'[13:02:02.532 21/01/2026]',-132193.8,-213945.9,-121622.1,-37117.44,-375000,-375000,-177913.1,-148623.5,0.03,0.02,0.88,-4,0,-2,28,0
'[13:02:02.536 21/01/2026]',-132109.6,-213856.7,-121517.4,-37093.12,-375000,-375000,-178232.7,-148725.4,0.03,0.02,0.88,-4,0,-2,28,0
'[13:02:02.540 21/01/2026]',-132068.5,-213814.7,-121482.9,-37039.57,-375000,-375000,-178189.7,-148687.7,0.03,0.02,0.88,-4,0,-2,28,0
'[13:02:02.544 21/01/2026]',-132155.9,-213905.7,-121581.9,-37055.93,-375000,-375000,-177885.5,-148594.7,0.03,0.02,0.88,-4,0,-2,28,0
'[13:02:02.548 21/01/2026]',-132197.3,-213959.1,-121623.6,-37106.8,-375000,-375000,-177880.9,-148610.8,0.03,0.02,0.88,-4,0,-2,28,0
'[13:02:02.552 21/01/2026]',-132115.3,-213870.8,-121523.2,-37092.85,-375000,-375000,-178189.9,-148706.4,0.03,0.02,0.88,-4,0,-2,28,0
'[13:02:02.556 21/01/2026]',-132060.8,-213801.8,-121470.6,-37035.9,-375000,-375000,-178224.4,-148691.9,0.02,0.00,0.88,-4,0,-2,28,0
'[13:02:02.560 21/01/2026]',-132146.6,-213892.3,-121570.2,-37055.35,-375000,-375000,-177933.8,-148610.2,0.02,0.00,0.88,-4,0,-2,28,0
'[13:02:02.564 21/01/2026]',-132216.2,-213966.9,-121627.8,-37113.02,-375000,-375000,-177862.5,-148613.8,0.02,0.00,0.88,-4,0,-2,28,0
'[13:02:02.568 21/01/2026]',-132152.8,-213887.5,-121554.5,-37116.59,-375000,-375000,-178159.8,-148718,0.02,0.00,0.88,-4,0,-2,28,0
'[13:02:02.572 21/01/2026]',-132074.6,-213799.8,-121479.1,-37054.81,-375000,-375000,-178268.3,-148720,0.02,0.00,0.88,-4,0,-2,28,0
'[13:02:02.576 21/01/2026]',-132111.7,-213876.1,-121545.4,-37041.93,-375000,-375000,-177993.8,-148629.4,0.02,0.00,0.88,-4,0,-2,28,0
'[13:02:02.580 21/01/2026]',-132178,-213951.3,-121638.3,-37098.35,-375000,-375000,-177847.1,-148602.5,0.02,0.00,0.88,-4,0,-2,28,0
'[13:02:02.584 21/01/2026]',-132163.2,-213907.2,-121591.9,-37113.68,-375000,-375000,-178106.1,-148685.9,0.02,0.00,0.88,-4,0,-2,28,0
'[13:02:02.588 21/01/2026]',-132093.3,-213820.2,-121504.3,-37063.62,-375000,-375000,-178281,-148720.3,0.02,0.00,0.88,-4,0,-2,28,0
'[13:02:02.592 21/01/2026]',-132123.8,-213847.7,-121550.4,-37041.62,-375000,-375000,-178038.4,-148630.8,0.02,0.00,0.88,-4,0,-2,28,0
'[13:02:02.596 21/01/2026]',-132205.2,-213943.4,-121643.9,-37096.21,-375000,-375000,-177837.5,-148587.3,0.02,0.00,0.88,-4,0,-2,28,0
'[13:02:02.600 21/01/2026]',-132186,-213928.4,-121610.7,-37130.63,-375000,-375000,-178048.5,-148671.4,0.02,0.00,0.88,-4,0,-2,28,0
'[13:02:02.604 21/01/2026]',-132103.5,-213828.7,-121500.9,-37085.88,-375000,-375000,-178290,-148731.6,0.02,0.00,0.88,-4,0,-2,28,0
'[13:02:02.608 21/01/2026]',-132120.4,-213840.9,-121526.8,-37044.57,-375000,-375000,-178096.6,-148653.2,0.02,0.00,0.88,-4,0,-2,28,0
'[13:02:02.612 21/01/2026]',-132194.4,-213939.7,-121627.8,-37091.64,-375000,-375000,-177839.7,-148583,0.02,0.00,0.88,-4,0,-2,28,0
'[13:02:02.616 21/01/2026]',-132186.7,-213934.7,-121616,-37132.5,-375000,-375000,-177990.2,-148650.9,0.02,0.00,0.88,-4,0,-2,28,0
'[13:02:02.620 21/01/2026]',-132104.9,-213825.7,-121510.6,-37084.67,-375000,-375000,-178276.3,-148733.4,0.02,0.00,0.88,-4,0,-2,28,0
'[13:02:02.624 21/01/2026]',-132096.7,-213817.5,-121511.1,-37032.64,-375000,-375000,-178154.8,-148670.3,0.02,0.00,0.88,-4,0,-2,28,0
'[13:02:02.628 21/01/2026]',-132175.7,-213922.4,-121609.9,-37064.82,-375000,-375000,-177856.9,-148581.6,0.02,0.00,0.89,-4,0,-2,28,0
'[13:02:02.632 21/01/2026]',-132184.3,-213942,-121619.1,-37120.3,-375000,-375000,-177939,-148632,0.02,0.00,0.89,-4,0,-2,28,0
'[13:02:02.636 21/01/2026]',-132107.6,-213847.2,-121521.2,-37099.02,-375000,-375000,-178250.7,-148731.7,0.02,0.00,0.89,-4,0,-2,28,0
'[13:02:02.640 21/01/2026]',-132079.3,-213812.3,-121497.7,-37047.66,-375000,-375000,-178198,-148689.3,0.02,0.00,0.89,-4,0,-2,28,0
'[13:02:02.644 21/01/2026]',-132164.2,-213908.8,-121606.5,-37063.93,-375000,-375000,-177890.1,-148596.7,0.02,0.00,0.89,-4,0,-2,28,0
'[13:02:02.648 21/01/2026]',-132204.6,-213947,-121642.2,-37114.94,-375000,-375000,-177886,-148613.8,0.02,0.00,0.89,-4,0,-2,28,0
'[13:02:02.652 21/01/2026]',-132132.4,-213871.7,-121553.7,-37113.77,-375000,-375000,-178208.9,-148723,0.02,0.00,0.89,-4,0,-2,28,0
'[13:02:02.656 21/01/2026]',-132089.1,-213815.4,-121503.6,-37056.82,-375000,-375000,-178240,-148708.9,0.02,0.00,0.89,-4,0,-2,28,0
'[13:02:02.660 21/01/2026]',-132168,-213906.6,-121596,-37060,-375000,-375000,-177930.3,-148612.1,0.02,0.00,0.89,-4,0,-2,28,0
'[13:02:02.664 21/01/2026]',-132218.7,-213967.4,-121648.6,-37115.03,-375000,-375000,-177860.1,-148605.9,0.02,0.00,0.88,-4,0,-2,28,0
'[13:02:02.668 21/01/2026]',-132158.6,-213889.3,-121565.7,-37115.38,-375000,-375000,-178153.2,-148703,0.02,0.00,0.88,-4,0,-2,28,0
'[13:02:02.672 21/01/2026]',-132080.7,-213809.3,-121464.5,-37052.08,-375000,-375000,-178253.7,-148710.7,0.02,0.00,0.88,-4,0,-2,28,0
'[13:02:02.676 21/01/2026]',-132124.4,-213873.1,-121543.6,-37047.52,-375000,-375000,-177968.7,-148613.8,0.02,0.00,0.88,-4,0,-2,28,0
'[13:02:02.680 21/01/2026]',-132203.1,-213953.8,-121650.9,-37106.18,-375000,-375000,-177830,-148589.5,0.02,0.00,0.88,-4,0,-2,28,0
'[13:02:02.684 21/01/2026]',-132169,-213907.6,-121586.4,-37120.34,-375000,-375000,-178097,-148685.9,0.02,0.00,0.88,-4,0,-2,28,0
'[13:02:02.688 21/01/2026]',-132089.8,-213815.3,-121491.5,-37063.13,-375000,-375000,-178267.6,-148722,0.02,0.00,0.88,-4,0,-2,28,0
'[13:02:02.692 21/01/2026]',-132123.3,-213863.5,-121542.8,-37038.09,-375000,-375000,-178016.3,-148628.3,0.02,0.00,0.88,-4,0,-2,28,0
'[13:02:02.696 21/01/2026]',-132219,-213971.5,-121654.6,-37110.42,-375000,-375000,-177828.4,-148593.3,0.02,0.00,0.88,-4,0,-2,28,0
'[13:02:02.700 21/01/2026]',-132194.4,-213938,-121610.5,-37141.27,-375000,-375000,-178044,-148675.8,0.02,0.00,0.88,-4,0,-2,28,0
'[13:02:02.704 21/01/2026]',-132093.9,-213831,-121507.7,-37089.1,-375000,-375000,-178275.1,-148728.7,0.02,0.00,0.88,-4,0,-2,28,0
'[13:02:02.708 21/01/2026]',-132113.6,-213862.3,-121544,-37052.8,-375000,-375000,-178083.1,-148650.4,0.02,0.00,0.88,-4,0,-2,28,0
'[13:02:02.712 21/01/2026]',-132205.6,-213959.3,-121642.2,-37095.58,-375000,-375000,-177824.5,-148584.4,0.02,0.00,0.88,-4,0,-2,28,0
'[13:02:02.716 21/01/2026]',-132205.1,-213952.1,-121623.6,-37126.69,-375000,-375000,-177975.5,-148645.8,0.02,0.00,0.88,-4,0,-2,28,0
'[13:02:02.720 21/01/2026]',-132109.3,-213841.4,-121517.1,-37085.97,-375000,-375000,-178251.8,-148721,0.02,0.00,0.88,-4,0,-2,28,0
'[13:02:02.724 21/01/2026]',-132094.5,-213833.6,-121517,-37042.29,-375000,-375000,-178116.8,-148653.7,0.02,0.00,0.88,-4,0,-2,28,0
'[13:02:02.728 21/01/2026]',-132181.2,-213933.2,-121616.6,-37078.46,-375000,-375000,-177827.4,-148570.1,0.02,0.00,0.88,-4,0,-2,28,0
'[13:02:02.732 21/01/2026]',-132193.8,-213937.9,-121610.3,-37115.38,-375000,-375000,-177905,-148608.2,0.02,0.00,0.88,-4,0,-2,28,0
'[13:02:02.736 21/01/2026]',-132106.6,-213831.4,-121502.8,-37081.27,-375000,-375000,-178212.6,-148693.4,0.02,-0.02,0.88,-4,0,-2,28,0
'[13:02:02.740 21/01/2026]',-132066.9,-213800.6,-121484.5,-37019.63,-375000,-375000,-178154.2,-148651.2,0.02,-0.02,0.88,-4,0,-2,28,0
'[13:02:02.744 21/01/2026]',-132146.5,-213903.7,-121589.2,-37042.02,-375000,-375000,-177851.1,-148566.7,0.02,-0.02,0.88,-4,0,-2,28,0
'[13:02:02.748 21/01/2026]',-132193.8,-213949.4,-121633.7,-37102.2,-375000,-375000,-177868.6,-148603.5,0.02,-0.02,0.88,-4,0,-2,28,0
'[13:02:02.752 21/01/2026]',-132138.6,-213879.5,-121558.5,-37112.79,-375000,-375000,-178192.7,-148713.6,0.02,-0.02,0.88,-4,0,-2,28,0
'[13:02:02.756 21/01/2026]',-132108.1,-213841,-121510.1,-37062.86,-375000,-375000,-178221.1,-148706.9,0.02,-0.02,0.88,-4,0,-2,28,0
'[13:02:02.760 21/01/2026]',-132183.1,-213934.8,-121604.5,-37070.99,-375000,-375000,-177916,-148611.6,0.02,-0.02,0.88,-4,0,-2,28,0
'[13:02:02.764 21/01/2026]',-132235.1,-213983.3,-121656.1,-37123.16,-375000,-375000,-177844.6,-148599.4,0.02,-0.02,0.88,-4,0,-2,28,0
'[13:02:02.768 21/01/2026]',-132166.4,-213907.2,-121573,-37124.41,-375000,-375000,-178148.8,-148704.5,0.02,-0.02,0.88,-4,0,-2,28,0
'[13:02:02.772 21/01/2026]',-132103.6,-213831.4,-121501.7,-37064.82,-375000,-375000,-178241.6,-148709.9,0.03,0.00,0.88,-4,0,-2,28,0
'[13:02:02.776 21/01/2026]',-132168.2,-213913.7,-121574.4,-37069.52,-375000,-375000,-177976.5,-148628,0.03,0.00,0.88,-4,0,-2,28,0
'[13:02:02.780 21/01/2026]',-132236.8,-214007,-121659.9,-37120.17,-375000,-375000,-177830.6,-148601,0.03,0.00,0.88,-4,0,-2,28,0
'[13:02:02.784 21/01/2026]',-132187.4,-213946.6,-121601.8,-37127.36,-375000,-375000,-178101.5,-148699.7,0.03,0.00,0.88,-4,0,-2,28,0
'[13:02:02.788 21/01/2026]',-132108.5,-213838.5,-121504.9,-37074.84,-375000,-375000,-178266.2,-148725.2,0.03,0.00,0.88,-4,0,-2,28,0
'[13:02:02.792 21/01/2026]',-132132.8,-213866.5,-121551.9,-37051.68,-375000,-375000,-178012.3,-148629.3,0.03,0.00,0.88,-4,0,-2,28,0
'[13:02:02.796 21/01/2026]',-132211.3,-213966.8,-121652,-37101.61,-375000,-375000,-177809.7,-148586.4,0.03,0.00,0.88,-4,0,-2,28,0
'[13:02:02.800 21/01/2026]',-132198.2,-213950.1,-121625.5,-37133.8,-375000,-375000,-178035.6,-148679.4,0.03,0.00,0.88,-4,0,-2,28,0
'[13:02:02.804 21/01/2026]',-132116.1,-213848.3,-121525,-37081.86,-375000,-375000,-178264.7,-148732.9,0.03,0.00,0.88,-4,0,-2,28,0
'[13:02:02.808 21/01/2026]',-132142.8,-213873.7,-121548.1,-37046,-375000,-375000,-178062.9,-148655.4,0.03,0.00,0.88,-4,0,0,28,0
'[13:02:02.812 21/01/2026]',-132229.7,-213980.9,-121647,-37095.31,-375000,-375000,-177817.1,-148598.7,0.03,0.00,0.88,-4,0,0,28,0
'[13:02:02.816 21/01/2026]',-132223.9,-213972.6,-121645.4,-37143.77,-375000,-375000,-177994.4,-148679.4,0.03,0.00,0.88,-4,0,0,28,0
'[13:02:02.820 21/01/2026]',-132129.4,-213869.6,-121534.6,-37101.39,-375000,-375000,-178256.9,-148743.8,0.03,0.00,0.88,-4,0,0,28,0
'[13:02:02.824 21/01/2026]',-132119,-213859.5,-121527.6,-37048.33,-375000,-375000,-178105.9,-148661.7,0.03,0.00,0.88,-4,0,0,28,0
'[13:02:02.828 21/01/2026]',-132211.1,-213965,-121646.2,-37087.85,-375000,-375000,-177824.5,-148587.7,0.03,0.00,0.88,-4,0,0,28,0
'[13:02:02.832 21/01/2026]',-132236,-213988.4,-121666.4,-37141.54,-375000,-375000,-177918.8,-148646,0.03,0.00,0.88,-4,0,0,28,0
'[13:02:02.836 21/01/2026]',-132139.8,-213878.5,-121549.9,-37111.36,-375000,-375000,-178221.1,-148733.6,0.03,0.00,0.88,-4,0,0,28,0
'[13:02:02.840 21/01/2026]',-132112.5,-213842.5,-121513.2,-37053.6,-375000,-375000,-178151.5,-148679.6,0.03,0.00,0.88,-4,0,0,28,0
'[13:02:02.844 21/01/2026]',-132192.3,-213942.2,-121612.2,-37076.58,-375000,-375000,-177848.9,-148591.3,0.03,0.00,0.88,-4,0,-2,28,0
'[13:02:02.848 21/01/2026]',-132229.8,-213993.9,-121655.8,-37135.19,-375000,-375000,-177873.1,-148627.5,0.03,0.00,0.88,-4,0,-2,28,0
'[13:02:02.852 21/01/2026]',-132157.2,-213898.3,-121560.2,-37119.45,-375000,-375000,-178187.9,-148729.1,0.03,0.00,0.88,-4,0,-2,28,0
'[13:02:02.856 21/01/2026]',-132115.2,-213851,-121516,-37064.06,-375000,-375000,-178217,-148716.6,0.03,0.00,0.88,-4,0,-2,28,0
'[13:02:02.860 21/01/2026]',-132187.8,-213936.3,-121609.4,-37073.72,-375000,-375000,-177906.8,-148615.8,0.03,0.00,0.88,-4,0,-2,28,0
'[13:02:02.864 21/01/2026]',-132247.4,-213996.3,-121672.6,-37130.76,-375000,-375000,-177837.9,-148615.6,0.03,0.00,0.88,-4,0,-2,28,0
'[13:02:02.868 21/01/2026]',-132176.6,-213925.8,-121581.4,-37130.98,-375000,-375000,-178141.3,-148718.8,0.03,0.00,0.88,-4,0,-2,28,0
'[13:02:02.872 21/01/2026]',-132108.6,-213850.4,-121509.8,-37069.65,-375000,-375000,-178236.4,-148724.9,0.03,0.00,0.88,-4,0,-2,28,0
'[13:02:02.876 21/01/2026]',-132170.4,-213918.6,-121597.1,-37064.64,-375000,-375000,-177949.7,-148627.5,0.03,0.00,0.88,-4,0,-2,28,0
'[13:02:02.880 21/01/2026]',-132245,-214002.5,-121678.3,-37135.37,-375000,-375000,-177827.5,-148612.3,0.02,0.00,0.88,-4,0,-2,28,0
'[13:02:02.884 21/01/2026]',-132193.1,-213944.1,-121611.2,-37147.52,-375000,-375000,-178104.8,-148712.7,0.02,0.00,0.88,-4,0,-2,28,0
'[13:02:02.888 21/01/2026]',-132109.8,-213848.1,-121508.9,-37078.37,-375000,-375000,-178252.1,-148730,0.02,0.00,0.88,-4,0,-2,28,0
'[13:02:02.892 21/01/2026]',-132151.3,-213896.8,-121555.9,-37057.94,-375000,-375000,-177999.8,-148639.9,0.02,0.00,0.88,-4,0,-2,28,0
'[13:02:02.896 21/01/2026]',-132227.2,-213985.8,-121649.7,-37108.59,-375000,-375000,-177800.8,-148593.1,0.02,0.00,0.88,-4,0,-2,28,0
'[13:02:02.900 21/01/2026]',-132202.9,-213955.1,-121618,-37139.93,-375000,-375000,-178028,-148679.2,0.02,0.00,0.88,-4,0,-2,28,0
'[13:02:02.904 21/01/2026]',-132123.4,-213858.7,-121516.9,-37084.09,-375000,-375000,-178246.5,-148726.7,0.02,0.00,0.88,-4,0,-2,28,0
'[13:02:02.908 21/01/2026]',-132142.3,-213877.5,-121548.2,-37047.88,-375000,-375000,-178043.3,-148642.3,0.02,0.00,0.88,-4,0,-2,28,0
'[13:02:02.912 21/01/2026]',-132234.3,-213983.8,-121663.9,-37103.85,-375000,-375000,-177801.6,-148585,0.02,0.00,0.88,-4,0,-2,28,0
'[13:02:02.916 21/01/2026]',-132223.8,-213976.9,-121649,-37140.28,-375000,-375000,-177965.3,-148652.7,0.03,0.00,0.89,-4,0,-2,28,0
'[13:02:02.920 21/01/2026]',-132127.7,-213865.8,-121536.4,-37094.2,-375000,-375000,-178231.4,-148721,0.03,0.00,0.89,-4,0,-2,28,0
'[13:02:02.924 21/01/2026]',-132124.3,-213859.7,-121540.2,-37053.02,-375000,-375000,-178097.1,-148662.2,0.03,0.00,0.89,-4,0,-2,28,0
'[13:02:02.928 21/01/2026]',-132205.5,-213963.5,-121638.1,-37094.06,-375000,-375000,-177820.5,-148585.9,0.03,0.00,0.89,-4,0,-2,28,0
'[13:02:02.932 21/01/2026]',-132220.4,-213975.2,-121643.1,-37131.75,-375000,-375000,-177909.3,-148631,0.03,0.00,0.89,-4,0,-2,28,0
'[13:02:02.936 21/01/2026]',-132145.3,-213879.9,-121541.5,-37101.97,-375000,-375000,-178208.5,-148723.3,0.03,0.00,0.89,-4,0,-2,28,0
'[13:02:02.940 21/01/2026]',-132118.6,-213851.7,-121525.1,-37058.3,-375000,-375000,-178142.2,-148677.3,0.03,0.00,0.89,-4,0,-2,28,0
'[13:02:02.944 21/01/2026]',-132202.4,-213945.4,-121633.8,-37084.14,-375000,-375000,-177847.3,-148595.3,0.03,0.00,0.89,-4,0,-2,28,0
'[13:02:02.948 21/01/2026]',-132237,-213981.9,-121663.1,-37132.68,-375000,-375000,-177865.8,-148622.5,0.03,0.00,0.89,-4,0,-2,28,0
'[13:02:02.952 21/01/2026]',-132164.5,-213899.8,-121560.6,-37126.11,-375000,-375000,-178183.8,-148721.3,0.03,0.00,0.88,-4,0,-2,28,0
'[13:02:02.956 21/01/2026]',-132118,-213848.3,-121512.9,-37064.73,-375000,-375000,-178194.3,-148699.8,0.03,0.00,0.88,-4,0,-2,28,0
'[13:02:02.960 21/01/2026]',-132192.6,-213946.1,-121620.1,-37073.23,-375000,-375000,-177898.1,-148615.2,0.03,0.00,0.88,-4,0,-2,28,0
'[13:02:02.964 21/01/2026]',-132248.3,-214002.8,-121686.3,-37139.16,-375000,-375000,-177842.2,-148619.3,0.03,0.00,0.88,-4,0,-2,28,0
'[13:02:02.968 21/01/2026]',-132193.8,-213927.6,-121604.1,-37138.41,-375000,-375000,-178142.9,-148720.5,0.03,0.00,0.88,-4,0,-2,28,0
'[13:02:02.972 21/01/2026]',-132119,-213847.3,-121526.7,-37069.74,-375000,-375000,-178216,-148707.6,0.03,0.00,0.88,-4,0,-2,28,0
'[13:02:02.976 21/01/2026]',-132166.7,-213919.8,-121602.3,-37061.07,-375000,-375000,-177917.8,-148605.6,0.03,0.00,0.88,-4,0,-2,28,0
'[13:02:02.980 21/01/2026]',-132245.4,-213999.9,-121684,-37120.39,-375000,-375000,-177791.3,-148586.4,0.03,0.00,0.88,-4,0,-2,28,0
'[13:02:02.984 21/01/2026]',-132206.2,-213947,-121611.4,-37136.13,-375000,-375000,-178075.8,-148689.7,0.03,0.00,0.88,-4,0,-2,28,0
'[13:02:02.988 21/01/2026]',-132121,-213844.8,-121509.8,-37071.3,-375000,-375000,-178232.7,-148714.3,0.03,0.00,0.89,-4,0,-2,28,0
'[13:02:02.992 21/01/2026]',-132158.8,-213889.1,-121567.6,-37051.64,-375000,-375000,-177976.6,-148625.7,0.03,0.00,0.89,-4,0,-2,28,0
'[13:02:02.996 21/01/2026]',-132248.8,-213995.1,-121685.6,-37122.18,-375000,-375000,-177797.3,-148599.3,0.03,0.00,0.89,-4,0,-2,28,0
'[13:02:03.000 21/01/2026]',-132217.7,-213974.7,-121651,-37160.85,-375000,-375000,-178038.3,-148697.1,0.03,0.00,0.89,-4,0,-2,28,0
'[13:02:03.004 21/01/2026]',-132141.1,-213874.9,-121549.2,-37111.76,-375000,-375000,-178260.8,-148754,0.03,0.00,0.89,-4,0,-2,28,0
'[13:02:03.008 21/01/2026]',-132170.5,-213908.4,-121581.6,-37079.13,-375000,-375000,-178053.5,-148672.7,0.03,0.00,0.89,-4,0,-2,28,0
'[13:02:03.012 21/01/2026]',-132252,-214004.8,-121685.7,-37126.29,-375000,-375000,-177813.5,-148607.2,0.03,0.00,0.89,-4,0,-2,28,0
'[13:02:03.016 21/01/2026]',-132247.1,-213991.2,-121669.8,-37157.09,-375000,-375000,-177982.4,-148677.2,0.03,0.00,0.89,-4,0,-2,28,0
'[13:02:03.020 21/01/2026]',-132160.5,-213886.6,-121544.6,-37112.43,-375000,-375000,-178254.5,-148749.1,0.03,0.00,0.89,-4,0,-2,28,0
'[13:02:03.024 21/01/2026]',-132149.9,-213883.1,-121548.9,-37068.09,-375000,-375000,-178112.4,-148685.8,0.03,0.00,0.88,-4,0,-2,28,0
'[13:02:03.028 21/01/2026]',-132233.1,-213983.3,-121668.2,-37110.96,-375000,-375000,-177839.2,-148613.7,0.03,0.00,0.88,-4,0,-2,28,0
'[13:02:03.032 21/01/2026]',-132249,-214003,-121677.4,-37156.29,-375000,-375000,-177936.7,-148659.5,0.03,0.00,0.88,-4,0,-2,28,0
'[13:02:03.036 21/01/2026]',-132171.8,-213906.7,-121569.1,-37125.26,-375000,-375000,-178238.6,-148747.1,0.03,0.00,0.88,-4,0,-2,28,0
'[13:02:03.040 21/01/2026]',-132138.8,-213878.2,-121542.9,-37079.35,-375000,-375000,-178168.5,-148707.8,0.03,0.00,0.88,-4,0,-2,28,0
'[13:02:03.044 21/01/2026]',-132216.5,-213981.9,-121659.7,-37105.77,-375000,-375000,-177862,-148611.8,0.03,0.00,0.88,-4,0,-2,28,0
'[13:02:03.048 21/01/2026]',-132267.8,-214014,-121686.7,-37162.1,-375000,-375000,-177891,-148642,0.03,0.00,0.88,-4,0,-2,28,0
'[13:02:03.052 21/01/2026]',-132189.4,-213918.6,-121588.3,-37142.21,-375000,-375000,-178197.7,-148740.1,0.03,0.00,0.88,-4,0,-2,28,0
'[13:02:03.056 21/01/2026]',-132137.9,-213861.7,-121528.7,-37072.69,-375000,-375000,-178192.1,-148704.2,0.03,0.00,0.88,-4,0,-2,28,0
'[13:02:03.060 21/01/2026]',-132212,-213959.9,-121638.2,-37096.7,-375000,-375000,-177903.7,-148618.4,0.03,0.00,0.88,-4,0,-2,28,0
'[13:02:03.064 21/01/2026]',-132269.2,-214042.6,-121707.2,-37163.17,-375000,-375000,-177855.4,-148632.2,0.03,0.00,0.88,-4,0,-2,28,0
'[13:02:03.068 21/01/2026]',-132203.9,-213956,-121620.8,-37152.8,-375000,-375000,-178156,-148732.8,0.03,0.00,0.88,-4,0,-2,28,0
'[13:02:03.072 21/01/2026]',-132134,-213870,-121551,-37084.14,-375000,-375000,-178227.7,-148723.3,0.03,0.00,0.88,-4,0,-2,28,0
'[13:02:03.076 21/01/2026]',-132198,-213943.2,-121636.1,-37085.21,-375000,-375000,-177946.2,-148631.3,0.03,0.00,0.88,-4,0,-2,28,0
'[13:02:03.080 21/01/2026]',-132265.2,-214018,-121691.8,-37142.52,-375000,-375000,-177824,-148613,0.03,0.00,0.88,-4,0,-2,28,0
'[13:02:03.084 21/01/2026]',-132214.2,-213963.4,-121619.6,-37147.3,-375000,-375000,-178102,-148713.1,0.03,0.00,0.88,-4,0,-2,28,0
'[13:02:03.088 21/01/2026]',-132138.9,-213871.4,-121534.6,-37088.02,-375000,-375000,-178249.4,-148733.7,0.03,0.00,0.88,-4,0,-2,28,0
'[13:02:03.092 21/01/2026]',-132184.6,-213927.1,-121606,-37079.4,-375000,-375000,-177998,-148646.1,0.03,0.00,0.88,-4,0,-2,28,0
'[13:02:03.096 21/01/2026]',-132262.3,-214017.4,-121700.4,-37138.72,-375000,-375000,-177819.2,-148609.5,0.02,0.00,0.88,-4,0,-2,28,0
'[13:02:03.100 21/01/2026]',-132233,-213986.3,-121650.1,-37161.65,-375000,-375000,-178060.4,-148703.9,0.02,0.00,0.88,-4,0,-2,28,0
'[13:02:03.104 21/01/2026]',-132157,-213889.3,-121552.5,-37114.94,-375000,-375000,-178272.9,-148757.3,0.02,0.00,0.88,-4,0,-2,28,0
'[13:02:03.108 21/01/2026]',-132162.1,-213909.8,-121575.6,-37090.57,-375000,-375000,-178058.1,-148675.6,0.02,0.00,0.88,-4,0,-2,28,0
'[13:02:03.112 21/01/2026]',-132259.6,-214017,-121679.1,-37141.58,-375000,-375000,-177821.6,-148623.7,0.02,0.00,0.88,-4,0,-2,28,0
'[13:02:03.116 21/01/2026]',-132260.7,-214004.9,-121671.2,-37168.76,-375000,-375000,-177995.9,-148690.5,0.02,0.00,0.88,-4,0,-2,28,0
'[13:02:03.120 21/01/2026]',-132163.5,-213903.4,-121577.5,-37119.27,-375000,-375000,-178255.2,-148756.7,0.02,0.00,0.88,-4,0,-2,28,0
'[13:02:03.124 21/01/2026]',-132164.5,-213900.7,-121582.4,-37077.48,-375000,-375000,-178109.1,-148691.6,0.02,0.00,0.88,-4,0,-2,28,0
'[13:02:03.128 21/01/2026]',-132255.4,-214013.3,-121690.3,-37128.3,-375000,-375000,-177841.8,-148626.4,0.02,0.00,0.88,-4,0,-2,28,0
'[13:02:03.132 21/01/2026]',-132262.3,-214029.3,-121701,-37183.51,-375000,-375000,-177962.3,-148694.6,0.03,0.00,0.88,-4,0,-2,28,0
'[13:02:03.136 21/01/2026]',-132180.2,-213923.2,-121579.7,-37143.77,-375000,-375000,-178255.9,-148779.7,0.03,0.00,0.88,-4,0,-2,28,0
'[13:02:03.140 21/01/2026]',-132154.3,-213897.2,-121561.2,-37088.52,-375000,-375000,-178169,-148729.4,0.03,0.00,0.88,-4,0,-2,28,0
'[13:02:03.144 21/01/2026]',-132240.3,-213999,-121675.1,-37120.93,-375000,-375000,-177870,-148642.8,0.03,0.00,0.88,-4,0,-2,28,0
'[13:02:03.148 21/01/2026]',-132296.5,-214066,-121729.4,-37202.82,-375000,-375000,-177924.3,-148699.4,0.03,0.00,0.88,-4,0,-2,28,0
'[13:02:03.152 21/01/2026]',-132211.7,-213972.2,-121627.9,-37189.05,-375000,-375000,-178238.8,-148800,0.03,0.00,0.88,-4,0,-2,28,0
'[13:02:03.156 21/01/2026]',-132176.8,-213924.7,-121583.7,-37130.85,-375000,-375000,-178242.8,-148775.7,0.03,0.00,0.88,-4,0,-2,28,0
'[13:02:03.160 21/01/2026]',-132253.3,-214014.1,-121679.1,-37137.73,-375000,-375000,-177934,-148673.2,0.03,0.00,0.88,-4,0,-2,28,0
'[13:02:03.164 21/01/2026]',-132298.5,-214061.7,-121736.1,-37190.89,-375000,-375000,-177881.8,-148675.4,0.03,0.00,0.88,-4,0,-2,28,0
'[13:02:03.168 21/01/2026]',-132233.3,-213982.9,-121652.4,-37189.05,-375000,-375000,-178198.9,-148785.2,0.02,0.00,0.88,-4,0,-2,28,0
'[13:02:03.172 21/01/2026]',-132167,-213911.3,-121578,-37126.2,-375000,-375000,-178284.8,-148791.9,0.02,0.00,0.88,-4,0,-2,28,0
'[13:02:03.176 21/01/2026]',-132220.1,-213974.3,-121648.6,-37119.81,-375000,-375000,-177983.7,-148690.4,0.02,0.00,0.88,-4,0,-2,28,0
'[13:02:03.180 21/01/2026]',-132282.8,-214046.9,-121713,-37168,-375000,-375000,-177852.7,-148659,0.02,0.00,0.88,-4,0,-2,28,0
'[13:02:03.184 21/01/2026]',-132240.6,-213995.5,-121664.7,-37179.98,-375000,-375000,-178139.5,-148763.6,0.02,0.00,0.88,-4,0,-2,28,0
'[13:02:03.188 21/01/2026]',-132164.7,-213906.7,-121575.9,-37124.37,-375000,-375000,-178283.9,-148787.1,0.02,0.00,0.88,-4,0,-2,28,0
'[13:02:03.192 21/01/2026]',-132212.7,-213966.1,-121631,-37111.58,-375000,-375000,-178019.8,-148696.9,0.02,0.00,0.88,-4,0,-2,28,0
'[13:02:03.196 21/01/2026]',-132292.8,-214055.6,-121713.1,-37161.2,-375000,-375000,-177836.6,-148654.5,0.02,0.00,0.88,-4,0,-2,28,0
'[13:02:03.200 21/01/2026]',-132259.8,-214013.1,-121672.3,-37183.64,-375000,-375000,-178079.2,-148747.5,0.02,0.00,0.88,-4,0,-2,28,0
'[13:02:03.204 21/01/2026]',-132167,-213896.2,-121562.7,-37133.71,-375000,-375000,-178292.5,-148793.7,0.03,0.00,0.88,-4,0,-2,28,0
'[13:02:03.208 21/01/2026]',-132184.6,-213931,-121592.3,-37100.81,-375000,-375000,-178072.8,-148708.1,0.03,0.00,0.88,-4,0,-2,28,0
'[13:02:03.212 21/01/2026]',-132268.7,-214045.2,-121701.7,-37156.11,-375000,-375000,-177839.1,-148649.5,0.03,0.00,0.88,-4,0,-2,28,0
'[13:02:03.216 21/01/2026]',-132247.8,-214022.4,-121679.3,-37195.22,-375000,-375000,-178024.5,-148726.3,0.03,0.00,0.88,-4,0,-2,28,0
'[13:02:03.220 21/01/2026]',-132170.6,-213923.6,-121580.2,-37149.76,-375000,-375000,-178288.7,-148797.3,0.03,0.00,0.88,-4,0,-2,28,0
'[13:02:03.224 21/01/2026]',-132192.4,-213922.7,-121608.9,-37101.39,-375000,-375000,-178131.3,-148722.6,0.03,0.00,0.88,-4,0,-2,28,0
'[13:02:03.228 21/01/2026]',-132280.8,-214027.5,-121718.6,-37146.72,-375000,-375000,-177858,-148650.1,0.03,0.00,0.88,-4,0,-2,28,0
'[13:02:03.232 21/01/2026]',-132287.3,-214042.9,-121710.5,-37188.61,-375000,-375000,-177969.6,-148707.1,0.03,0.00,0.88,-4,0,-2,28,0
'[13:02:03.236 21/01/2026]',-132193.2,-213939.2,-121591.9,-37149.67,-375000,-375000,-178262.6,-148791.4,0.03,0.00,0.88,-4,0,-2,28,0
'[13:02:03.240 21/01/2026]',-132176.9,-213915.2,-121573.1,-37096.56,-375000,-375000,-178172.4,-148737.5,0.02,0.00,0.89,-4,0,-2,28,0
'[13:02:03.244 21/01/2026]',-132262.9,-214020.4,-121680.3,-37122.71,-375000,-375000,-177871,-148648.5,0.02,0.00,0.89,-4,0,-2,28,0
'[13:02:03.248 21/01/2026]',-132294.7,-214053.5,-121709.4,-37179.62,-375000,-375000,-177914.8,-148688.5,0.02,0.00,0.89,-4,0,-2,28,0
'[13:02:03.252 21/01/2026]',-132206.8,-213951.7,-121606.6,-37159.95,-375000,-375000,-178230.9,-148787.8,0.02,0.00,0.89,-4,0,-2,28,0
'[13:02:03.256 21/01/2026]',-132151.5,-213896.6,-121563.5,-37107.16,-375000,-375000,-178218,-148756.3,0.02,0.00,0.89,-4,0,-2,28,0
'[13:02:03.260 21/01/2026]',-132232.7,-213997.5,-121659.2,-37131.88,-375000,-375000,-177923.8,-148673.1,0.02,0.00,0.89,-4,0,-2,28,0
'[13:02:03.264 21/01/2026]',-132298,-214065.1,-121716.8,-37196.39,-375000,-375000,-177892.9,-148691.3,0.02,0.00,0.89,-4,0,-2,28,0
'[13:02:03.268 21/01/2026]',-132225.7,-213982.5,-121632.8,-37181.95,-375000,-375000,-178194.3,-148782.9,0.02,0.00,0.89,-4,0,-2,28,0
'[13:02:03.272 21/01/2026]',-132167.3,-213913.8,-121568.8,-37119.14,-375000,-375000,-178256,-148774.5,0.02,0.00,0.89,-4,0,-2,28,0
'[13:02:03.276 21/01/2026]',-132236,-213996.4,-121661.5,-37129.02,-375000,-375000,-177978.6,-148691,0.02,0.00,0.88,-4,0,-2,28,0
'[13:02:03.280 21/01/2026]',-132306.3,-214070.1,-121726.5,-37178.46,-375000,-375000,-177854.7,-148663.1,0.02,0.00,0.88,-4,0,-2,28,0
'[13:02:03.284 21/01/2026]',-132260.5,-214005,-121661.2,-37191.25,-375000,-375000,-178137.4,-148763.8,0.02,0.00,0.88,-4,0,-2,28,0
'[13:02:03.288 21/01/2026]',-132178.6,-213912,-121565.8,-37130.98,-375000,-375000,-178278.7,-148784.9,0.02,0.00,0.88,-4,0,-2,28,0
'[13:02:03.292 21/01/2026]',-132214.5,-213961.7,-121607.2,-37104.66,-375000,-375000,-178004.4,-148683.5,0.02,0.00,0.88,-4,0,-2,28,0
'[13:02:03.296 21/01/2026]',-132291.3,-214063.4,-121721.3,-37170.05,-375000,-375000,-177830.3,-148654.3,0.02,0.00,0.88,-4,0,-2,28,0
'[13:02:03.300 21/01/2026]',-132263.1,-214022.3,-121678.7,-37191.56,-375000,-375000,-178066.4,-148742.9,0.02,0.00,0.88,-4,0,-2,28,0
'[13:02:03.304 21/01/2026]',-132181.7,-213914.9,-121577.9,-37131.88,-375000,-375000,-178270,-148786.1,0.02,0.00,0.88,-4,0,-2,28,0
'[13:02:03.308 21/01/2026]',-132200.2,-213947.6,-121627,-37107.88,-375000,-375000,-178049.7,-148702.7,0.02,0.00,0.88,-4,0,-2,28,0
'[13:02:03.312 21/01/2026]',-132269.8,-214041.7,-121717.8,-37159.64,-375000,-375000,-177829,-148646.7,0.02,0.00,0.88,-4,0,-2,28,0
'[13:02:03.316 21/01/2026]',-132277,-214025.7,-121695.1,-37191.83,-375000,-375000,-178022.3,-148725.6,0.02,0.00,0.88,-4,0,-2,28,0
'[13:02:03.320 21/01/2026]',-132185.3,-213917.2,-121583.4,-37138.54,-375000,-375000,-178276.1,-148789.9,0.02,0.00,0.88,-4,0,-2,28,0
'[13:02:03.324 21/01/2026]',-132173.6,-213910.8,-121588.7,-37088.96,-375000,-375000,-178109.9,-148711.3,0.02,0.00,0.88,-4,0,-2,28,0
'[13:02:03.328 21/01/2026]',-132255.2,-214019.5,-121677,-37127.99,-375000,-375000,-177841.8,-148636.3,0.02,0.00,0.88,-4,0,-2,28,0
'[13:02:03.332 21/01/2026]',-132254,-214018.4,-121663.9,-37169.61,-375000,-375000,-177957.2,-148691.9,0.02,0.00,0.88,-4,0,-2,28,0
'[13:02:03.336 21/01/2026]',-132180,-213916.1,-121579.5,-37139.25,-375000,-375000,-178251.4,-148782.3,0.02,0.00,0.88,-4,0,-2,28,0
'[13:02:03.340 21/01/2026]',-132176.2,-213916.6,-121583.5,-37099.74,-375000,-375000,-178164.5,-148734.9,0.02,0.00,0.88,-4,0,-2,28,0
'[13:02:03.344 21/01/2026]',-132279.5,-214038.7,-121713.5,-37151.01,-375000,-375000,-177894.8,-148678.5,0.02,0.00,0.88,-4,0,-2,28,0
'[13:02:03.348 21/01/2026]',-132314.2,-214077.9,-121755.2,-37216.05,-375000,-375000,-177950.5,-148725.5,0.03,0.00,0.89,-4,0,-2,28,0
'[13:02:03.352 21/01/2026]',-132238.8,-213983.6,-121650.5,-37193.88,-375000,-375000,-178256.7,-148818.2,0.03,0.00,0.89,-4,0,-2,28,0
'[13:02:03.356 21/01/2026]',-132194.5,-213941.1,-121596.1,-37128.88,-375000,-375000,-178226.9,-148781.2,0.03,0.00,0.89,-4,0,-2,28,0
'[13:02:03.360 21/01/2026]',-132268.5,-214025.7,-121678.9,-37140.86,-375000,-375000,-177915.7,-148679.3,0.03,0.00,0.89,-4,0,-2,28,0
'[13:02:03.364 21/01/2026]',-132304.6,-214062.1,-121728.6,-37193.04,-375000,-375000,-177882.9,-148686.1,0.03,0.00,0.89,-4,0,-2,28,0
'[13:02:03.368 21/01/2026]',-132240,-213984.5,-121644.5,-37182.17,-375000,-375000,-178185.9,-148784.9,0.03,0.00,0.89,-4,0,-2,28,0
'[13:02:03.372 21/01/2026]',-132173.3,-213917,-121570.8,-37118.51,-375000,-375000,-178249.2,-148779.5,0.03,0.00,0.89,-4,0,-2,28,0
'[13:02:03.376 21/01/2026]',-132238.2,-213988.8,-121653.3,-37124.05,-375000,-375000,-177961.7,-148685.6,0.03,0.00,0.89,-4,0,-2,28,0
'[13:02:03.380 21/01/2026]',-132292.7,-214055,-121715.5,-37176.58,-375000,-375000,-177849.3,-148663.9,0.03,0.00,0.89,-4,0,-2,28,0
'[13:02:03.384 21/01/2026]',-132247,-214004.8,-121664.3,-37190.04,-375000,-375000,-178136.1,-148772.3,0.03,0.00,0.88,-4,0,-2,28,0
'[13:02:03.388 21/01/2026]',-132185.9,-213930.7,-121585.9,-37138.76,-375000,-375000,-178284.6,-148797.8,0.03,0.00,0.88,-4,0,-2,28,0
'[13:02:03.392 21/01/2026]',-132232.8,-213984.3,-121649.6,-37122,-375000,-375000,-178017.9,-148705.3,0.03,0.00,0.88,-4,0,-2,28,0
'[13:02:03.396 21/01/2026]',-132301.8,-214062.2,-121734.5,-37175.15,-375000,-375000,-177836.4,-148661.3,0.03,0.00,0.88,-4,0,-2,28,0
'[13:02:03.400 21/01/2026]',-132264.7,-214020.5,-121674,-37196.3,-375000,-375000,-178082,-148753.3,0.03,0.00,0.88,-4,0,-2,28,0
'[13:02:03.404 21/01/2026]',-132179.5,-213924,-121573.6,-37144.48,-375000,-375000,-178287.3,-148800.3,0.03,0.00,0.88,-4,0,-2,28,0
'[13:02:03.408 21/01/2026]',-132195.9,-213955,-121618.8,-37109.13,-375000,-375000,-178061,-148712.8,0.03,0.00,0.88,-4,0,-2,28,0
'[13:02:03.412 21/01/2026]',-132286.9,-214051.3,-121720.9,-37158.57,-375000,-375000,-177823.9,-148648.9,0.03,0.00,0.88,-4,0,-2,28,0
'[13:02:03.416 21/01/2026]',-132271.6,-214032.7,-121686.3,-37192.45,-375000,-375000,-178008.3,-148723.9,0.03,0.00,0.88,-4,0,-2,28,0
'[13:02:03.420 21/01/2026]',-132189.6,-213935.9,-121586.4,-37155.97,-375000,-375000,-178274.6,-148798,0.03,0.00,0.88,-4,0,-2,28,0
'[13:02:03.424 21/01/2026]',-132203.3,-213944.6,-121609.1,-37115.25,-375000,-375000,-178106.5,-148723,0.03,0.00,0.88,-4,0,-2,28,0
'[13:02:03.428 21/01/2026]',-132280.2,-214047,-121713.1,-37155.62,-375000,-375000,-177835.7,-148646.2,0.03,0.00,0.88,-4,0,-2,28,0
'[13:02:03.432 21/01/2026]',-132291.3,-214053.8,-121707.4,-37194.96,-375000,-375000,-177954.3,-148707.5,0.03,0.00,0.88,-4,0,-2,28,0
'[13:02:03.436 21/01/2026]',-132205.7,-213949.7,-121597.6,-37158.48,-375000,-375000,-178246.4,-148794.7,0.03,0.00,0.88,-4,0,-2,28,0
'[13:02:03.440 21/01/2026]',-132180.8,-213921.8,-121582.5,-37103.58,-375000,-375000,-178148.2,-148735.8,0.03,0.00,0.88,-4,0,-2,28,0
'[13:02:03.444 21/01/2026]',-132260.7,-214008.4,-121683.9,-37136.71,-375000,-375000,-177857.7,-148652.5,0.03,0.00,0.88,-4,0,-2,28,0
'[13:02:03.448 21/01/2026]',-132276.7,-214035.8,-121706.9,-37182.66,-375000,-375000,-177904,-148689.1,0.03,0.00,0.88,-4,0,-2,28,0
'[13:02:03.452 21/01/2026]',-132215,-213974,-121622,-37173.59,-375000,-375000,-178228.1,-148797.6,0.03,0.00,0.88,-4,0,-2,28,0
'[13:02:03.456 21/01/2026]',-132174.5,-213946.5,-121586.2,-37122.54,-375000,-375000,-178197.2,-148761.1,0.02,0.00,0.88,-4,0,-2,28,0
'[13:02:03.460 21/01/2026]',-132247,-214031.7,-121689.5,-37144.66,-375000,-375000,-177891.8,-148669.5,0.02,0.00,0.88,-4,0,-2,28,0
'[13:02:03.464 21/01/2026]',-132293.3,-214073.4,-121732.3,-37192.59,-375000,-375000,-177859.6,-148675.4,0.02,0.00,0.88,-4,0,-2,28,0
'[13:02:03.468 21/01/2026]',-132214.2,-213975.9,-121630.9,-37168.58,-375000,-375000,-178160.8,-148771.2,0.02,0.00,0.88,-4,0,-2,28,0
'[13:02:03.472 21/01/2026]',-132151.9,-213906.9,-121558,-37103.71,-375000,-375000,-178211.9,-148755.4,0.02,0.00,0.88,-4,0,-2,28,0
'[13:02:03.476 21/01/2026]',-132212,-213981.9,-121638.8,-37110.69,-375000,-375000,-177922.7,-148660.2,0.02,0.00,0.88,-4,0,-2,28,0
'[13:02:03.480 21/01/2026]',-132264.8,-214041.2,-121694.1,-37163.66,-375000,-375000,-177817.2,-148646.6,0.02,0.00,0.88,-4,0,-2,28,0
'[13:02:03.484 21/01/2026]',-132217.8,-213978.7,-121625.8,-37171.26,-375000,-375000,-178114.7,-148755.6,0.02,0.00,0.88,-4,0,-2,28,0
'[13:02:03.488 21/01/2026]',-132160,-213908.9,-121556.3,-37116.5,-375000,-375000,-178251,-148780.2,0.02,0.00,0.88,-4,0,-2,28,0
'[13:02:03.492 21/01/2026]',-132203.3,-213965,-121618.4,-37103.31,-375000,-375000,-177971.2,-148677.1,0.02,0.02,0.89,-4,0,-2,28,0
'[13:02:03.496 21/01/2026]',-132264.3,-214050.1,-121720.1,-37154.59,-375000,-375000,-177794.6,-148639.6,0.02,0.02,0.89,-4,0,-2,28,0
'[13:02:03.500 21/01/2026]',-132235.6,-214002.3,-121672.3,-37177.75,-375000,-375000,-178050.9,-148741,0.02,0.02,0.89,-4,0,-2,28,0
'[13:02:03.504 21/01/2026]',-132157.5,-213897.8,-121571.3,-37117.93,-375000,-375000,-178240.9,-148779,0.02,0.02,0.89,-4,0,-2,28,0
'[13:02:03.508 21/01/2026]',-132187,-213947.4,-121607.2,-37095.36,-375000,-375000,-178020,-148696,0.02,0.02,0.89,-4,0,-2,28,0
'[13:02:03.512 21/01/2026]',-132271.5,-214053.5,-121708.3,-37151.1,-375000,-375000,-177796.4,-148645,0.02,0.02,0.89,-4,0,-2,28,0
'[13:02:03.516 21/01/2026]',-132251.8,-214028,-121682,-37190.35,-375000,-375000,-178001.2,-148734,0.02,0.02,0.89,-4,0,-2,28,0
'[13:02:03.520 21/01/2026]',-132159.3,-213910.8,-121565.8,-37141.4,-375000,-375000,-178252.9,-148788.8,0.02,0.02,0.89,-4,0,-2,28,0
'[13:02:03.524 21/01/2026]',-132164.6,-213915.9,-121578.8,-37092.14,-375000,-375000,-178079.3,-148712.5,0.02,0.02,0.89,-4,0,-2,28,0
'[13:02:03.528 21/01/2026]',-132252,-214017.3,-121679.4,-37132.73,-375000,-375000,-177811.5,-148639.9,0.03,0.00,0.89,-4,0,-2,28,0
'[13:02:03.532 21/01/2026]',-132253.9,-214018.7,-121670.5,-37170.91,-375000,-375000,-177936.2,-148696.7,0.03,0.00,0.89,-4,0,-2,28,0
'[13:02:03.536 21/01/2026]',-132164.4,-213912.5,-121572.3,-37136.3,-375000,-375000,-178231.2,-148784.4,0.03,0.00,0.89,-4,0,-2,28,0
'[13:02:03.540 21/01/2026]',-132145.6,-213902.7,-121571.7,-37089.68,-375000,-375000,-178135.2,-148734,0.03,0.00,0.89,-4,0,-2,28,0
'[13:02:03.544 21/01/2026]',-132234.6,-214007.3,-121670.6,-37112.79,-375000,-375000,-177834.6,-148641.7,0.03,0.00,0.89,-4,0,-2,28,0
'[13:02:03.548 21/01/2026]',-132263.5,-214037.1,-121688.2,-37164.56,-375000,-375000,-177891.8,-148684.6,0.03,0.00,0.89,-4,0,-2,28,0
'[13:02:03.552 21/01/2026]',-132178.7,-213933,-121585.7,-37148.42,-375000,-375000,-178213.1,-148784.7,0.03,0.00,0.89,-4,0,-2,28,0
'[13:02:03.556 21/01/2026]',-132136.5,-213880.4,-121554.9,-37090.44,-375000,-375000,-178176.9,-148747.1,0.03,0.00,0.89,-4,0,-2,28,0
'[13:02:03.560 21/01/2026]',-132217.8,-213984.3,-121665,-37111.05,-375000,-375000,-177868.3,-148649.7,0.03,0.00,0.89,-4,0,-2,28,0
'[13:02:03.564 21/01/2026]',-132270.1,-214040.4,-121710.4,-37163.57,-375000,-375000,-177843.1,-148663,0.03,0.00,0.88,-4,0,-2,28,0
'[13:02:03.568 21/01/2026]',-132206.4,-213952.9,-121614,-37157.36,-375000,-375000,-178158.4,-148767.9,0.03,0.00,0.88,-4,0,-2,28,0
'[13:02:03.572 21/01/2026]',-132150.7,-213891,-121548.6,-37104.97,-375000,-375000,-178212.7,-148759.4,0.03,0.00,0.88,-4,0,-2,28,0
'[13:02:03.576 21/01/2026]',-132212.5,-213981,-121640.4,-37113.37,-375000,-375000,-177919.8,-148664.8,0.03,0.00,0.88,-4,0,-2,28,0
'[13:02:03.580 21/01/2026]',-132271.4,-214046.6,-121707.1,-37163.44,-375000,-375000,-177814.7,-148647.6,0.03,0.00,0.88,-4,0,-2,28,0
'[13:02:03.584 21/01/2026]',-132217.2,-213968.1,-121636,-37166.21,-375000,-375000,-178109,-148756.9,0.03,0.00,0.88,-4,0,-2,28,0
'[13:02:03.588 21/01/2026]',-132137.1,-213880.9,-121548.5,-37105.59,-375000,-375000,-178230.1,-148770.3,0.03,0.00,0.88,-4,0,-2,28,0
'[13:02:03.592 21/01/2026]',-132177.8,-213946.5,-121602,-37090.35,-375000,-375000,-177964.3,-148683.8,0.03,0.00,0.88,-4,0,-2,28,0
'[13:02:03.596 21/01/2026]',-132268.8,-214031.8,-121701.5,-37152.04,-375000,-375000,-177798.7,-148652.6,0.03,0.00,0.88,-4,0,-2,28,0
'[13:02:03.600 21/01/2026]',-132244.1,-213987.6,-121659.9,-37177.25,-375000,-375000,-178060.1,-148753.4,0.02,0.00,0.88,-4,0,-2,28,0
'[13:02:03.604 21/01/2026]',-132150.3,-213898.1,-121559,-37120.75,-375000,-375000,-178259.5,-148797.2,0.02,0.00,0.88,-4,0,-2,28,0
'[13:02:03.608 21/01/2026]',-132184.9,-213942.1,-121608.2,-37095,-375000,-375000,-178031.4,-148712,0.02,0.00,0.88,-4,0,-2,28,0
'[13:02:03.612 21/01/2026]',-132267.7,-214033.5,-121700.2,-37144.08,-375000,-375000,-177812.6,-148656.3,0.02,0.00,0.88,-4,0,-2,28,0
'[13:02:03.616 21/01/2026]',-132236,-213994.6,-121653.7,-37167.2,-375000,-375000,-178003.2,-148725.6,0.02,0.00,0.88,-4,0,-2,28,0
'[13:02:03.620 21/01/2026]',-132146.1,-213893.6,-121550,-37119.23,-375000,-375000,-178250.1,-148790,0.02,0.00,0.88,-4,0,-2,28,0
'[13:02:03.624 21/01/2026]',-132168.6,-213919.8,-121583.6,-37087.4,-375000,-375000,-178076.6,-148719.6,0.02,0.00,0.88,-4,0,-2,28,0
'[13:02:03.628 21/01/2026]',-132264.1,-214029.1,-121699.7,-37143.5,-375000,-375000,-177826.1,-148653.2,0.02,0.00,0.88,-4,0,-2,28,0
'[13:02:03.632 21/01/2026]',-132270.2,-214034.6,-121692.2,-37184.5,-375000,-375000,-177958.1,-148709.9,0.02,0.00,0.88,-4,0,-2,28,0
'[13:02:03.636 21/01/2026]',-132172.6,-213925.5,-121573.9,-37142.65,-375000,-375000,-178247.5,-148791.3,0.02,0.00,0.88,-4,0,-2,28,0
'[13:02:03.640 21/01/2026]',-132152.5,-213911.6,-121563.3,-37089.05,-375000,-375000,-178137.9,-148739.1,0.02,0.00,0.88,-4,0,-2,28,0
'[13:02:03.644 21/01/2026]',-132234.8,-214005.2,-121665.1,-37116.28,-375000,-375000,-177842.4,-148651.1,0.02,0.00,0.88,-4,0,-2,28,0
'[13:02:03.648 21/01/2026]',-132262.4,-214033.8,-121688.7,-37163.39,-375000,-375000,-177898.1,-148688.8,0.02,0.00,0.88,-4,0,-2,28,0
'[13:02:03.652 21/01/2026]',-132175,-213929.8,-121587.1,-37140.82,-375000,-375000,-178217.6,-148786.8,0.02,0.00,0.88,-4,0,-2,28,0
'[13:02:03.656 21/01/2026]',-132141.4,-213889.1,-121537.7,-37085.25,-375000,-375000,-178183.2,-148748.3,0.02,0.00,0.88,-4,0,-2,28,0
