'Time and date','Fp1','Fp2','F3','Fz','F4','P3','Pz','P4','AccX','AccY','AccZ','GyroX','GyroY','GyroZ','Battery','Event'
'[hh:mm:ss.mmm dd/mm/yyyy]','uV','uV','uV','uV','uV','uV','uV','uV','G','G','G','Deg/s','Deg/s','Deg/s','%','Button'
'[13:17:00.000 21/01/2026]',-125020.4,-199738,-89020.91,-580.8771,-375000,-375000,-151035.2,-220172.4,0.02,0.00,0.89,-4,0,-2,5,0
'[13:17:00.004 21/01/2026]',-125015.7,-199718.8,-89019.17,-573.2775,-375000,-375000,-151033.1,-220139.7,0.02,0.00,0.89,-4,0,-2,5,0
'[13:17:00.008 21/01/2026]',-125025.8,-199668.9,-89027.62,-575.7362,-375000,-375000,-151038.2,-219908.6,0.02,0.00,0.89,-4,0,-2,5,0
'[13:17:00.012 21/01/2026]',-125025.2,-199680.7,-89023.28,-580.6536,-375000,-375000,-151030.1,-219901.9,0.02,0.00,0.89,-4,0,-2,5,0
'[13:17:00.016 21/01/2026]',-125014.8,-199723.4,-89017.52,-583.3805,-375000,-375000,-151023.4,-220054.3,0.02,0.00,0.89,-4,0,-2,5,0
'[13:17:00.020 21/01/2026]',-125008,-199717.7,-89012.34,-573.1434,-375000,-375000,-151014,-220069.9,0.02,0.00,0.89,-4,0,-2,5,0
'[13:17:00.024 21/01/2026]',-125020.6,-199669.5,-89027.17,-574.1716,-375000,-375000,-151027.3,-219781.9,0.02,0.00,0.89,-4,0,-2,5,0
'[13:17:00.028 21/01/2026]',-125017.3,-199671.8,-89020.6,-581.8159,-375000,-375000,-151021.9,-219921.5,0.02,0.00,0.89,-4,0,-2,5,0
'[13:17:00.032 21/01/2026]',-125015.5,-199721.8,-89018.28,-584.5875,-375000,-375000,-151023,-220052,0.02,0.00,0.89,-4,0,-2,5,0
'[13:17:00.036 21/01/2026]',-124998.8,-199728.3,-89005.58,-574.261,-375000,-375000,-151012.9,-220132.4,0.03,0.00,0.89,-4,0,-2,5,0
'[13:17:00.040 21/01/2026]',-125009.8,-199676.3,-89016.89,-572.9199,-375000,-375000,-151023.8,-219983.5,0.03,0.00,0.89,-4,0,-2,5,0
'[13:17:00.044 21/01/2026]',-125024.5,-199666.6,-89017.56,-581.3688,-375000,-375000,-151024.1,-219937.3,0.03,0.00,0.89,-4,0,-2,5,0
'[13:17:00.048 21/01/2026]',-125020.3,-199710.3,-89011.7,-585.571,-375000,-375000,-151022.9,-220078.1,0.03,0.00,0.89,-4,0,-2,5,0
'[13:17:00.052 21/01/2026]',-125003.1,-199728.9,-88994.77,-576.1385,-375000,-375000,-151005.7,-220223.7,0.03,0.00,0.89,-4,0,-2,5,0
'[13:17:00.056 21/01/2026]',-125018.2,-199685.9,-89012.87,-572.607,-375000,-375000,-151020.5,-219993.6,0.03,0.00,0.89,-4,0,-2,5,0
'[13:17:00.060 21/01/2026]',-125020.8,-199662.6,-89013.18,-581.6371,-375000,-375000,-151018.2,-220025.6,0.03,0.00,0.89,-4,0,-2,5,0
'[13:17:00.064 21/01/2026]',-125013.5,-199694.1,-89006.34,-578.8655,-375000,-375000,-151015.3,-220213.5,0.03,0.00,0.89,-4,0,-2,5,0
'[13:17:00.068 21/01/2026]',-125002.8,-199722.1,-88995.13,-570.9083,-375000,-375000,-151005.9,-220294.1,0.03,0.00,0.89,-4,0,-2,5,0
'[13:17:00.072 21/01/2026]',-124997.9,-199676.8,-88997.98,-559.8218,-375000,-375000,-151006.5,-220139.6,0.03,0.00,0.88,-4,0,-2,5,0
'[13:17:00.076 21/01/2026]',-125016.7,-199666.2,-89013.72,-575.915,-375000,-375000,-151016.5,-220104.8,0.03,0.00,0.88,-4,0,-2,5,0
'[13:17:00.080 21/01/2026]',-125018.2,-199696.6,-89010.37,-576.5409,-375000,-375000,-151014,-220200.8,0.03,0.00,0.88,-4,0,-2,5,0
'[13:17:00.084 21/01/2026]',-125003.9,-199730.5,-89000.8,-570.1483,-375000,-375000,-151007.2,-220304.5,0.03,0.00,0.88,-4,0,-2,5,0
'[13:17:00.088 21/01/2026]',-125004.5,-199701.4,-89009.78,-564.2474,-375000,-375000,-151010.7,-220138.7,0.03,0.00,0.88,-4,0,-2,5,0
'[13:17:00.092 21/01/2026]',-125023.2,-199666.6,-89025.84,-578.329,-375000,-375000,-151023.2,-219934.2,0.03,0.00,0.88,-4,0,-2,5,0
'[13:17:00.096 21/01/2026]',-125010.4,-199675.1,-89006.88,-570.7294,-375000,-375000,-151009.8,-220058.7,0.03,0.00,0.88,-4,0,-2,5,0
'[13:17:00.100 21/01/2026]',-125001.1,-199717.8,-88997.09,-564.5604,-375000,-375000,-151004.9,-220175.4,0.03,0.00,0.88,-4,0,-2,5,0
'[13:17:00.104 21/01/2026]',-124992.2,-199698.9,-88991.81,-552.9374,-375000,-375000,-150996.2,-220144,0.03,0.00,0.88,-4,0,-2,5,0
'[13:17:00.108 21/01/2026]',-125002.4,-199653.6,-89002.14,-558.9277,-375000,-375000,-151006.3,-219946.3,0.03,0.02,0.88,-4,0,-2,5,0
'[13:17:00.112 21/01/2026]',-125009.1,-199668,-88999.46,-567.5107,-375000,-375000,-151009.9,-219958.9,0.03,0.02,0.88,-4,0,-2,5,0
'[13:17:00.116 21/01/2026]',-125001.1,-199713.3,-88989.76,-563.8898,-375000,-375000,-151006.1,-220107.8,0.03,0.02,0.88,-4,0,-2,5,0
'[13:17:00.120 21/01/2026]',-124990.5,-199706.8,-88985.6,-553.4292,-375000,-375000,-151001,-220120.1,0.03,0.02,0.88,-4,0,-2,5,0
'[13:17:00.124 21/01/2026]',-125014,-199667.5,-89018.05,-570.0142,-375000,-375000,-151032.8,-219861.4,0.03,0.02,0.88,-4,0,-2,5,0
'[13:17:00.128 21/01/2026]',-125009.1,-199668.6,-89010.81,-578.9102,-375000,-375000,-151029.4,-219992.3,0.03,0.02,0.88,-4,0,-2,5,0
'[13:17:00.132 21/01/2026]',-125006.1,-199710.1,-89000.09,-572.3387,-375000,-375000,-151022,-220125.3,0.03,0.02,0.88,-4,0,-2,5,0
'[13:17:00.136 21/01/2026]',-124998.3,-199717.1,-88995.34,-563.8898,-375000,-375000,-151014.2,-220175.3,0.03,0.02,0.88,-4,0,-2,5,0
'[13:17:00.140 21/01/2026]',-125002.4,-199662.8,-89008.63,-559.1065,-375000,-375000,-151022.5,-219950.5,0.03,0.02,0.88,-4,0,-2,5,0
'[13:17:00.144 21/01/2026]',-125009.7,-199654.4,-89008.8,-563.6663,-375000,-375000,-151017.9,-219873.3,0.02,0.00,0.88,-4,0,-2,5,0
'[13:17:00.148 21/01/2026]',-125012.9,-199704.8,-89010.41,-571.7129,-375000,-375000,-151022.5,-219979.3,0.02,0.00,0.88,-4,0,-2,5,0
'[13:17:00.152 21/01/2026]',-125008.6,-199729.3,-89002.54,-570.64,-375000,-375000,-151016.6,-220112.5,0.02,0.00,0.88,-4,0,-2,5,0
'[13:17:00.156 21/01/2026]',-125020.5,-199685,-89017.38,-566.2591,-375000,-375000,-151030.6,-219866.8,0.02,0.00,0.88,-4,0,-2,5,0
'[13:17:00.160 21/01/2026]',-125021.5,-199668.2,-89019.3,-580.9218,-375000,-375000,-151028.8,-219876.4,0.02,0.00,0.88,-4,0,-2,5,0
'[13:17:00.164 21/01/2026]',-125018.8,-199702.5,-89018.37,-582.9781,-375000,-375000,-151029.7,-220028.9,0.02,0.00,0.88,-4,0,-2,5,0
'[13:17:00.168 21/01/2026]',-125017.8,-199735.8,-89015.2,-582.3524,-375000,-375000,-151028.5,-220111.8,0.02,0.00,0.88,-4,0,-2,5,0
'[13:17:00.172 21/01/2026]',-125019.8,-199704.9,-89022.16,-582.2182,-375000,-375000,-151037.9,-220009,0.02,0.00,0.88,-4,0,-2,5,0
'[13:17:00.176 21/01/2026]',-125031.7,-199676,-89029.19,-588.6108,-375000,-375000,-151046.7,-219868.1,0.02,0.00,0.88,-4,0,-2,5,0
'[13:17:00.180 21/01/2026]',-125030.3,-199706.2,-89025.52,-592.053,-375000,-375000,-151041.2,-219964.6,0.02,0.00,0.88,-4,0,-2,5,0
'[13:17:00.184 21/01/2026]',-125018.5,-199749.4,-89020.34,-592.6788,-375000,-375000,-151035.5,-220163.4,0.02,0.00,0.88,-4,0,-2,5,0
'[13:17:00.188 21/01/2026]',-125017.4,-199721.4,-89025.07,-586.5544,-375000,-375000,-151040.2,-220067.8,0.02,0.00,0.88,-4,0,-2,5,0
'[13:17:00.192 21/01/2026]',-125034.9,-199689.8,-89033.56,-600.8596,-375000,-375000,-151050.4,-219928.3,0.02,0.00,0.88,-4,0,-2,5,0
'[13:17:00.196 21/01/2026]',-125023.9,-199699,-89015.69,-595.5845,-375000,-375000,-151035.5,-220085.5,0.02,0.00,0.88,-4,0,-2,5,0
'[13:17:00.200 21/01/2026]',-125014.5,-199740.8,-89008.48,-590.399,-375000,-375000,-151029.5,-220219.3,0.02,0.00,0.88,-4,0,-2,5,0
'[13:17:00.204 21/01/2026]',-125000.1,-199724.9,-89005.63,-577.9714,-375000,-375000,-151020.3,-220275.2,0.02,0.00,0.88,-4,0,-2,5,0
'[13:17:00.208 21/01/2026]',-125005.6,-199676.9,-89009.47,-576.0045,-375000,-375000,-151026.1,-220133.4,0.02,0.00,0.88,-4,0,-2,5,0
'[13:17:00.212 21/01/2026]',-125008.9,-199687,-89003.7,-581.9947,-375000,-375000,-151027.3,-220165.8,0.02,0.00,0.88,-4,0,-2,5,0
'[13:17:00.216 21/01/2026]',-125002.1,-199729.1,-88997.31,-583.0229,-375000,-375000,-151027.8,-220318.8,0.03,0.00,0.88,-4,0,-2,5,0
'[13:17:00.220 21/01/2026]',-124997.5,-199723.1,-88995.03,-574.0822,-375000,-375000,-151029.1,-220318.9,0.03,0.00,0.88,-4,0,-2,5,0
'[13:17:00.224 21/01/2026]',-125016.6,-199678.1,-89016.09,-576.9432,-375000,-375000,-151046.2,-220025.2,0.03,0.00,0.88,-4,0,-2,5,0
'[13:17:00.228 21/01/2026]',-125014.5,-199682.3,-89008.76,-583.0676,-375000,-375000,-151036.4,-220144.3,0.03,0.00,0.88,-4,0,-2,5,0
'[13:17:00.232 21/01/2026]',-125007.5,-199726.8,-89004.29,-581.2347,-375000,-375000,-151032.6,-220283.3,0.03,0.00,0.88,-4,0,-2,5,0
'[13:17:00.236 21/01/2026]',-124995.6,-199729.9,-88997.76,-572.7411,-375000,-375000,-151022.7,-220339.7,0.03,0.00,0.88,-4,0,-2,5,0
'[13:17:00.240 21/01/2026]',-125009.1,-199681.6,-89008.31,-572.9646,-375000,-375000,-151031.9,-220132,0.03,0.00,0.88,-4,0,-2,5,0
'[13:17:00.244 21/01/2026]',-125006.3,-199668.6,-88999.55,-572.1599,-375000,-375000,-151028.3,-220017.3,0.03,0.00,0.88,-4,0,-2,5,0
'[13:17:00.248 21/01/2026]',-124998.2,-199706.7,-88989.13,-571.5341,-375000,-375000,-151026.1,-220132.9,0.03,0.00,0.88,-4,0,-2,5,0
'[13:17:00.252 21/01/2026]',-124983.5,-199722.5,-88980.46,-566.1249,-375000,-375000,-151016.5,-220256.6,0.03,0.02,0.89,-4,0,-2,5,0
'[13:17:00.256 21/01/2026]',-124991.8,-199673.4,-89001.16,-560.6264,-375000,-375000,-151033.2,-219977.5,0.03,0.02,0.89,-4,0,-2,5,0
'[13:17:00.260 21/01/2026]',-125007.2,-199661.8,-89007.73,-581.6371,-375000,-375000,-151041.7,-219962.2,0.03,0.02,0.89,-4,0,-2,5,0
'[13:17:00.264 21/01/2026]',-125005.5,-199697.7,-89002.14,-584.6322,-375000,-375000,-151037.3,-220081.9,0.03,0.02,0.89,-4,0,-2,5,0
'[13:17:00.268 21/01/2026]',-124999.2,-199738.5,-88999.23,-591.0695,-375000,-375000,-151031.7,-220304.3,0.03,0.02,0.89,-4,0,-2,5,0
'[13:17:00.272 21/01/2026]',-125012.1,-199715.1,-89015.28,-594.9587,-375000,-375000,-151045.9,-220288.1,0.03,0.02,0.89,-4,0,-2,5,0
'[13:17:00.276 21/01/2026]',-125025.9,-199683.9,-89026.64,-599.5185,-375000,-375000,-151064,-220034.6,0.03,0.02,0.89,-4,0,-2,5,0
'[13:17:00.280 21/01/2026]',-125017.6,-199713.3,-89019.22,-600.4572,-375000,-375000,-151054.7,-220116.8,0.03,0.02,0.89,-4,0,-2,5,0
'[13:17:00.284 21/01/2026]',-125011.5,-199756.5,-89014.97,-602.0666,-375000,-375000,-151045.6,-220328.4,0.03,0.02,0.89,-4,0,-2,5,0
'[13:17:00.288 21/01/2026]',-125011.2,-199722.5,-89016.36,-590.0861,-375000,-375000,-151045.4,-220217.4,0.02,-0.02,0.88,-4,0,-2,5,0
'[13:17:00.292 21/01/2026]',-125021.3,-199677.3,-89022.39,-593.7517,-375000,-375000,-151052.5,-219929,0.02,-0.02,0.88,-4,0,-2,5,0
'[13:17:00.296 21/01/2026]',-125012.9,-199698.5,-89009.29,-593.6176,-375000,-375000,-151040.9,-220111.2,0.02,-0.02,0.88,-4,0,-2,5,0
'[13:17:00.300 21/01/2026]',-125009.9,-199745.2,-89003.88,-593.0812,-375000,-375000,-151040.7,-220293.5,0.02,-0.02,0.88,-4,0,-2,5,0
'[13:17:00.304 21/01/2026]',-125008.3,-199719.8,-88999.15,-582.6653,-375000,-375000,-151032.6,-220237.7,0.02,-0.02,0.88,-4,0,-2,5,0
'[13:17:00.308 21/01/2026]',-125016.5,-199674.3,-89011.84,-584.0958,-375000,-375000,-151039.6,-219951.8,0.02,-0.02,0.88,-4,0,-2,5,0
'[13:17:00.312 21/01/2026]',-125015.9,-199689.8,-89012.87,-586.9121,-375000,-375000,-151034.6,-219929,0.02,-0.02,0.88,-4,0,-2,5,0
'[13:17:00.316 21/01/2026]',-125009.5,-199735,-89011.88,-586.2415,-375000,-375000,-151033.3,-220071.4,0.02,-0.02,0.88,-4,0,-2,5,0
'[13:17:00.320 21/01/2026]',-125003.1,-199727.9,-89009.43,-578.8655,-375000,-375000,-151029.7,-220091.8,0.02,-0.02,0.88,-4,0,-2,5,0
'[13:17:00.324 21/01/2026]',-125022.1,-199686,-89022.3,-582.0841,-375000,-375000,-151043.9,-219781.8,0.02,0.00,0.88,-4,0,-2,5,0
'[13:17:00.328 21/01/2026]',-125013.3,-199688.3,-89008.63,-585.8839,-375000,-375000,-151034.6,-219937,0.02,0.00,0.88,-4,0,-2,5,0
'[13:17:00.332 21/01/2026]',-125009.8,-199735.5,-89007.73,-585.7945,-375000,-375000,-151038.6,-220115.5,0.02,0.00,0.88,-4,0,-2,5,0
'[13:17:00.336 21/01/2026]',-125003.2,-199744.8,-89000.66,-579.8043,-375000,-375000,-151032.3,-220208,0.02,0.00,0.88,-4,0,-2,5,0
'[13:17:00.340 21/01/2026]',-125009.8,-199691.5,-89009.43,-576.8985,-375000,-375000,-151040.7,-220022.5,0.02,0.00,0.88,-4,0,-2,5,0
'[13:17:00.344 21/01/2026]',-125011.5,-199675.5,-89005.27,-576.4067,-375000,-375000,-151033.8,-219930.4,0.02,0.00,0.88,-4,0,-2,5,0
'[13:17:00.348 21/01/2026]',-125007,-199715.7,-89002.45,-575.1551,-375000,-375000,-151034.7,-220058.3,0.02,0.00,0.88,-4,0,-2,5,0
'[13:17:00.352 21/01/2026]',-124999.6,-199737.4,-88995.88,-570.3718,-375000,-375000,-151028.2,-220202,0.02,0.00,0.88,-4,0,-2,5,0
'[13:17:00.356 21/01/2026]',-125014.1,-199690.3,-89010.09,-568.4048,-375000,-375000,-151043.5,-219907.3,0.02,0.00,0.88,-4,0,-2,5,0
'[13:17:00.360 21/01/2026]',-125013.2,-199668,-89001.47,-574.9763,-375000,-375000,-151037.8,-219789.8,0.02,0.00,0.89,-4,0,-2,5,0
'[13:17:00.364 21/01/2026]',-125007.9,-199710.6,-88998.07,-577.6584,-375000,-375000,-151036.6,-220027.8,0.02,0.00,0.89,-4,0,-2,5,0
'[13:17:00.368 21/01/2026]',-125008.2,-199746.4,-88998.12,-579.1784,-375000,-375000,-151035.4,-220255.3,0.02,0.00,0.89,-4,0,-2,5,0
'[13:17:00.372 21/01/2026]',-125007.6,-199710.4,-89005.13,-575.6021,-375000,-375000,-151036.5,-220273,0.02,0.00,0.89,-4,0,-2,5,0
'[13:17:00.376 21/01/2026]',-125013.5,-199665.4,-89005.9,-573.2328,-375000,-375000,-151036.5,-220001.2,0.02,0.00,0.89,-4,0,-2,5,0
'[13:17:00.380 21/01/2026]',-125012.5,-199698.6,-88999.5,-577.3903,-375000,-375000,-151028.6,-220078.5,0.02,0.00,0.89,-4,0,-2,5,0
'[13:17:00.384 21/01/2026]',-125007.7,-199744.5,-88996.77,-580.743,-375000,-375000,-151027.8,-220248.6,0.02,0.00,0.89,-4,0,-2,5,0
'[13:17:00.388 21/01/2026]',-125008.2,-199713.7,-88998.12,-566.7061,-375000,-375000,-151027.2,-220119.2,0.02,0.00,0.89,-4,0,-2,5,0
'[13:17:00.392 21/01/2026]',-125014.5,-199675.1,-89005.49,-569.8801,-375000,-375000,-151032.5,-219866.4,0.02,0.00,0.89,-4,0,-2,5,0
'[13:17:00.396 21/01/2026]',-124999,-199691.9,-88994.32,-570.5059,-375000,-375000,-151018.8,-220053.5,0.03,0.00,0.88,-4,0,-2,5,0
'[13:17:00.400 21/01/2026]',-124997.9,-199736.6,-88989.09,-567.8237,-375000,-375000,-151014.8,-220231.3,0.03,0.00,0.88,-4,0,-2,5,0
'[13:17:00.404 21/01/2026]',-124998.5,-199720,-88991.14,-561.9229,-375000,-375000,-151016,-220218.8,0.03,0.00,0.88,-4,0,-2,5,0
'[13:17:00.408 21/01/2026]',-125010.5,-199678.8,-89005.67,-568.1813,-375000,-375000,-151029.3,-219965.6,0.03,0.00,0.88,-4,0,-2,5,0
'[13:17:00.412 21/01/2026]',-125010.7,-199691.8,-89001.07,-575.9597,-375000,-375000,-151029.3,-219957.7,0.03,0.00,0.88,-4,0,-2,5,0
'[13:17:00.416 21/01/2026]',-125004,-199736.5,-88994.09,-574.3504,-375000,-375000,-151025.2,-220112.1,0.03,0.00,0.88,-4,0,-2,5,0
'[13:17:00.420 21/01/2026]',-124997.3,-199728.3,-88992.75,-561.4311,-375000,-375000,-151017.5,-220140,0.03,0.00,0.88,-4,0,-2,5,0
'[13:17:00.424 21/01/2026]',-125011.6,-199681.5,-89010.32,-561.5652,-375000,-375000,-151035.3,-219793.5,0.03,0.00,0.88,-4,0,-2,5,0
'[13:17:00.428 21/01/2026]',-125003.3,-199673,-88991.73,-560.2688,-375000,-375000,-151017.2,-219896,0.03,0.00,0.88,-4,0,-2,5,0
'[13:17:00.432 21/01/2026]',-125006.9,-199718.8,-88992.3,-560.3135,-375000,-375000,-151016,-220069.6,0.02,0.00,0.88,-4,0,-2,5,0
'[13:17:00.436 21/01/2026]',-124994.8,-199728.3,-88987.12,-555.5302,-375000,-375000,-151011.8,-220172,0.02,0.00,0.88,-4,0,-2,5,0
'[13:17:00.440 21/01/2026]',-125010,-199687.3,-89005.76,-561.4311,-375000,-375000,-151027,-219983.2,0.02,0.00,0.88,-4,0,-2,5,0
'[13:17:00.444 21/01/2026]',-125020.4,-199682.8,-89013,-569.4777,-375000,-375000,-151030.5,-219894.7,0.02,0.00,0.88,-4,0,-2,5,0
'[13:17:00.448 21/01/2026]',-125010,-199717.5,-89005.9,-567.4214,-375000,-375000,-151026.8,-220040,0.02,0.00,0.88,-4,0,-2,5,0
'[13:17:00.452 21/01/2026]',-125003.2,-199740.3,-89000.35,-565.9908,-375000,-375000,-151020,-220194.5,0.02,0.00,0.88,-4,0,-2,5,0
'[13:17:00.456 21/01/2026]',-125019.2,-199696.7,-89017.97,-565.0074,-375000,-375000,-151037.8,-219854.8,0.02,0.00,0.88,-4,0,-2,5,0
'[13:17:00.460 21/01/2026]',-125016.1,-199681.5,-89006.03,-576.0491,-375000,-375000,-151029.8,-219825.3,0.02,0.00,0.88,-4,0,-2,5,0
'[13:17:00.464 21/01/2026]',-125003,-199715.5,-88993.29,-569.5671,-375000,-375000,-151018.8,-220050.2,0.02,0.00,0.88,-4,0,-2,5,0
'[13:17:00.468 21/01/2026]',-124999.6,-199746.8,-88993.73,-571.847,-375000,-375000,-151012.5,-220266.5,0.02,0.00,0.88,-4,0,-2,5,0
'[13:17:00.472 21/01/2026]',-125007,-199704.4,-89006.16,-569.4777,-375000,-375000,-151019,-220104.7,0.02,0.00,0.88,-4,0,-2,5,0
'[13:17:00.476 21/01/2026]',-125015.9,-199679.5,-89008.84,-573.9481,-375000,-375000,-151021.2,-219952,0.02,0.00,0.88,-4,0,-2,5,0
'[13:17:00.480 21/01/2026]',-125007,-199704.8,-88997.58,-566.6167,-375000,-375000,-151017.3,-220035.4,0.02,0.00,0.88,-4,0,-2,5,0
'[13:17:00.484 21/01/2026]',-124996.5,-199740.2,-88992.48,-563.4427,-375000,-375000,-151015.9,-220230.3,0.02,0.00,0.88,-4,0,-2,5,0
'[13:17:00.488 21/01/2026]',-125000,-199709.3,-88999.59,-556.6031,-375000,-375000,-151022.8,-220146.6,0.02,0.00,0.88,-4,0,-2,5,0
'[13:17:00.492 21/01/2026]',-125010.7,-199671.6,-88999.86,-559.5535,-375000,-375000,-151026.5,-219889.5,0.02,0.00,0.88,-4,0,-2,5,0
'[13:17:00.496 21/01/2026]',-125000.3,-199689.4,-88981.66,-558.883,-375000,-375000,-151014.2,-220072.5,0.02,0.00,0.88,-4,0,-2,5,0
'[13:17:00.500 21/01/2026]',-124997.6,-199732.7,-88986.59,-562.8616,-375000,-375000,-151012.3,-220251.5,0.02,0.00,0.88,-4,0,-2,5,0
'[13:17:00.504 21/01/2026]',-124996.8,-199716.9,-88998.7,-559.5089,-375000,-375000,-151014.8,-220241.2,0.03,0.00,0.88,-4,0,-2,5,0
'[13:17:00.508 21/01/2026]',-125007.5,-199672.4,-89006.7,-556.6031,-375000,-375000,-151022.7,-219992.6,0.03,0.00,0.88,-4,0,-2,5,0
'[13:17:00.512 21/01/2026]',-125005.9,-199684.1,-88999.15,-559.9112,-375000,-375000,-151021.8,-219980,0.03,0.00,0.88,-4,0,-2,5,0
'[13:17:00.516 21/01/2026]',-125001.4,-199733.1,-88994.23,-564.0239,-375000,-375000,-151018.6,-220174.9,0.03,0.00,0.88,-4,0,-2,5,0
'[13:17:00.520 21/01/2026]',-124997.7,-199723.8,-88995.44,-558.7489,-375000,-375000,-151017.1,-220206.2,0.03,0.00,0.88,-4,0,-2,5,0
'[13:17:00.524 21/01/2026]',-125016,-199678.5,-89017.52,-564.6945,-375000,-375000,-151037.5,-219838.6,0.03,0.00,0.88,-4,0,-2,5,0
'[13:17:00.528 21/01/2026]',-125012.4,-199689.6,-89010.45,-577.7479,-375000,-375000,-151031,-219938.7,0.03,0.00,0.88,-4,0,-2,5,0
'[13:17:00.532 21/01/2026]',-125004.4,-199735.3,-89005.27,-578.8655,-375000,-375000,-151027.2,-220158,0.03,0.00,0.88,-4,0,-2,5,0
'[13:17:00.536 21/01/2026]',-125001.1,-199736.5,-88999.86,-574.8422,-375000,-375000,-151019.4,-220276.8,0.03,0.00,0.88,-4,0,-2,5,0
'[13:17:00.540 21/01/2026]',-125007.4,-199683.1,-89006.79,-573.4564,-375000,-375000,-151027.3,-220023,0.03,0.02,0.88,-4,0,-2,5,0
'[13:17:00.544 21/01/2026]',-125018.3,-199681.6,-89013,-585.7051,-375000,-375000,-151035.7,-219915.2,0.03,0.02,0.88,-4,0,-2,5,0
'[13:17:00.548 21/01/2026]',-125019.9,-199734.8,-89013.27,-594.8693,-375000,-375000,-151039.7,-220080.5,0.03,0.02,0.88,-4,0,-2,5,0
'[13:17:00.552 21/01/2026]',-125013.9,-199759.4,-89009.38,-593.9305,-375000,-375000,-151033.3,-220236.7,0.03,0.02,0.88,-4,0,-2,5,0
'[13:17:00.556 21/01/2026]',-125031.5,-199718.2,-89029.41,-593.9305,-375000,-375000,-151052.1,-219915.7,0.03,0.02,0.88,-4,0,-2,5,0
'[13:17:00.560 21/01/2026]',-125024,-199698.3,-89025.79,-602.4689,-375000,-375000,-151050.1,-219840.1,0.03,0.02,0.88,-4,0,-2,5,0
'[13:17:00.564 21/01/2026]',-125009.6,-199726.1,-89016.31,-597.9091,-375000,-375000,-151041.5,-220086.5,0.03,0.02,0.88,-4,0,-2,5,0
'[13:17:00.568 21/01/2026]',-125005.1,-199754.8,-89013.67,-598.6691,-375000,-375000,-151038.7,-220274.6,0.03,0.02,0.88,-4,0,-2,5,0
'[13:17:00.572 21/01/2026]',-125010,-199714.6,-89024.05,-596.0763,-375000,-375000,-151046.8,-220129.6,0.03,0.02,0.88,-4,0,-2,5,0
'[13:17:00.576 21/01/2026]',-125025,-199691.1,-89032.18,-601.8878,-375000,-375000,-151051.9,-219911.3,0.02,-0.02,0.89,-4,0,-2,5,0
'[13:17:00.580 21/01/2026]',-125025.7,-199733.1,-89027.94,-608.0121,-375000,-375000,-151053.2,-220046.3,0.02,-0.02,0.89,-4,0,-2,5,0
'[13:17:00.584 21/01/2026]',-125016.3,-199767.1,-89018.55,-602.8265,-375000,-375000,-151048,-220202.3,0.02,-0.02,0.89,-4,0,-2,5,0
'[13:17:00.588 21/01/2026]',-125026.9,-199734.4,-89034.41,-596.9704,-375000,-375000,-151055.5,-220059.8,0.02,-0.02,0.89,-4,0,-2,5,0
'[13:17:00.592 21/01/2026]',-125028.8,-199690,-89037.37,-600.2337,-375000,-375000,-151056.3,-219776.3,0.02,-0.02,0.89,-4,0,-2,5,0
'[13:17:00.596 21/01/2026]',-125011.2,-199708.6,-89019.35,-598.1774,-375000,-375000,-151042.8,-219961.5,0.02,-0.02,0.89,-4,0,-2,5,0
'[13:17:00.600 21/01/2026]',-125008.2,-199751.7,-89011.88,-594.5117,-375000,-375000,-151038.4,-220132.3,0.02,-0.02,0.89,-4,0,-2,5,0
'[13:17:00.604 21/01/2026]',-125004,-199727.2,-89013.18,-586.6885,-375000,-375000,-151037.3,-220107.6,0.02,-0.02,0.89,-4,0,-2,5,0
'[13:17:00.608 21/01/2026]',-125021.3,-199689.2,-89029.09,-594.7352,-375000,-375000,-151051.3,-219868.3,0.02,-0.02,0.89,-4,0,-2,5,0
'[13:17:00.612 21/01/2026]',-125019.7,-199703.7,-89019.71,-594.0646,-375000,-375000,-151047.8,-219841.8,0.02,0.00,0.88,-4,0,-2,5,0
'[13:17:00.616 21/01/2026]',-125018.6,-199754.5,-89017.34,-595.4058,-375000,-375000,-151050.1,-220018.4,0.02,0.00,0.88,-4,0,-2,5,0
'[13:17:00.620 21/01/2026]',-125008.5,-199742,-89015.46,-584.2299,-375000,-375000,-151037.1,-220078.5,0.02,0.00,0.88,-4,0,-2,5,0
'[13:17:00.624 21/01/2026]',-125029.2,-199696.4,-89038.3,-590.846,-375000,-375000,-151056.8,-219725,0.02,0.00,0.88,-4,0,-2,5,0
'[13:17:00.628 21/01/2026]',-125028.2,-199705.4,-89027.94,-602.4242,-375000,-375000,-151050.2,-219825.8,0.02,0.00,0.88,-4,0,-2,5,0
'[13:17:00.632 21/01/2026]',-125024.8,-199749.8,-89020.55,-601.6642,-375000,-375000,-151050.6,-220015.1,0.02,0.00,0.88,-4,0,-2,5,0
'[13:17:00.636 21/01/2026]',-125013.3,-199750.6,-89013.59,-593.9305,-375000,-375000,-151044.2,-220124.6,0.02,0.00,0.88,-4,0,-2,5,0
'[13:17:00.640 21/01/2026]',-125022.8,-199699.6,-89025.3,-589.9519,-375000,-375000,-151053.4,-219900.9,0.02,0.00,0.88,-4,0,-2,5,0
'[13:17:00.644 21/01/2026]',-125028.8,-199695.9,-89025.84,-594.3776,-375000,-375000,-151053.9,-219783.1,0.02,0.00,0.88,-4,0,-2,5,0
'[13:17:00.648 21/01/2026]',-125021.9,-199737.5,-89021.14,-593.7517,-375000,-375000,-151049.4,-219925.8,0.03,0.00,0.88,-4,0,-2,5,0
'[13:17:00.652 21/01/2026]',-125011.5,-199755.8,-89015.91,-585.3475,-375000,-375000,-151040.6,-220055.8,0.03,0.00,0.88,-4,0,-2,5,0
'[13:17:00.656 21/01/2026]',-125028.3,-199716.2,-89038.26,-588.7002,-375000,-375000,-151055.7,-219833.4,0.03,0.00,0.88,-4,0,-2,5,0
'[13:17:00.660 21/01/2026]',-125033.8,-199698.1,-89036.65,-600.7255,-375000,-375000,-151053.6,-219722.9,0.03,0.00,0.88,-4,0,-2,5,0
'[13:17:00.664 21/01/2026]',-125020.5,-199735,-89020.38,-596.0316,-375000,-375000,-151044.9,-219968.8,0.03,0.00,0.88,-4,0,-2,5,0
'[13:17:00.668 21/01/2026]',-125009,-199758.4,-89006.92,-585.2581,-375000,-375000,-151033.1,-220199.2,0.03,0.00,0.88,-4,0,-2,5,0
'[13:17:00.672 21/01/2026]',-125015.3,-199717.6,-89018.55,-578.5526,-375000,-375000,-151042.5,-220065.1,0.03,0.00,0.88,-4,0,-2,5,0
'[13:17:00.676 21/01/2026]',-125029.7,-199693.3,-89030.66,-588.6555,-375000,-375000,-151053.9,-219844.8,0.03,0.00,0.88,-4,0,-2,5,0
'[13:17:00.680 21/01/2026]',-125025.7,-199721.5,-89020.2,-588.1638,-375000,-375000,-151045.1,-219917,0.03,0.00,0.88,-4,0,-2,5,0
'[13:17:00.684 21/01/2026]',-125013.3,-199754.5,-89007.82,-586.1074,-375000,-375000,-151037,-220114.8,0.02,0.00,0.89,-4,0,-2,5,0
'[13:17:00.688 21/01/2026]',-125013.1,-199718.4,-89018.01,-578.329,-375000,-375000,-151048.4,-219991.8,0.02,0.00,0.89,-4,0,-2,5,0
'[13:17:00.692 21/01/2026]',-125031.2,-199690,-89030.08,-589.5943,-375000,-375000,-151058,-219688.7,0.02,0.00,0.89,-4,0,-2,5,0
'[13:17:00.696 21/01/2026]',-125020.4,-199713.7,-89013.27,-589.192,-375000,-375000,-151044.2,-219881.1,0.02,0.00,0.89,-4,0,-2,5,0
'[13:17:00.700 21/01/2026]',-125006.9,-199750.5,-89004.29,-581.9053,-375000,-375000,-151036.1,-220112.2,0.02,0.00,0.89,-4,0,-2,5,0
'[13:17:00.704 21/01/2026]',-125006.4,-199730,-89013,-579.9384,-375000,-375000,-151043.3,-220119,0.02,0.00,0.89,-4,0,-2,5,0
'[13:17:00.708 21/01/2026]',-125024.2,-199692.3,-89028.47,-591.1589,-375000,-375000,-151065.6,-219871.5,0.02,0.00,0.89,-4,0,-2,5,0
'[13:17:00.712 21/01/2026]',-125030.1,-199711.7,-89024.85,-601.3066,-375000,-375000,-151068,-219880.5,0.02,0.00,0.89,-4,0,-2,5,0
'[13:17:00.716 21/01/2026]',-125023.3,-199756.2,-89019.13,-602.8712,-375000,-375000,-151060.6,-220107.8,0.02,0.00,0.89,-4,0,-2,5,0
'[13:17:00.720 21/01/2026]',-125019.6,-199747.8,-89021.32,-595.9869,-375000,-375000,-151058.9,-220164.7,0.03,0.00,0.88,-4,0,-2,5,0
'[13:17:00.724 21/01/2026]',-125041.3,-199707.2,-89040.95,-598.535,-375000,-375000,-151076.5,-219831.2,0.03,0.00,0.88,-4,0,-2,5,0
'[13:17:00.728 21/01/2026]',-125027.4,-199709.8,-89022.13,-601.0831,-375000,-375000,-151055.2,-219957,0.03,0.00,0.88,-4,0,-2,5,0
'[13:17:00.732 21/01/2026]',-125019.1,-199753.7,-89015.15,-602.4689,-375000,-375000,-151051.1,-220185.2,0.03,0.00,0.88,-4,0,-2,5,0
'[13:17:00.736 21/01/2026]',-125006.3,-199752.9,-89009.92,-594.4222,-375000,-375000,-151041.1,-220320.6,0.03,0.00,0.88,-4,0,-2,5,0
'[13:17:00.740 21/01/2026]',-125013.6,-199702.1,-89020.91,-590.8907,-375000,-375000,-151045,-220094.9,0.03,0.00,0.88,-4,0,-2,5,0
'[13:17:00.744 21/01/2026]',-125020.1,-199699,-89021.95,-598.1774,-375000,-375000,-151045.2,-219948.9,0.03,0.00,0.88,-4,0,-2,5,0
'[13:17:00.748 21/01/2026]',-125012.2,-199736.4,-89012.34,-593.5282,-375000,-375000,-151042.3,-220042,0.03,0.00,0.88,-4,0,-2,5,0
'[13:17:00.752 21/01/2026]',-124999.1,-199740,-89001.34,-578.1502,-375000,-375000,-151028.2,-220120.3,0.03,0.00,0.88,-4,0,-2,5,0
'[13:17:00.756 21/01/2026]',-125016.4,-199704.9,-89024.8,-581.1006,-375000,-375000,-151046.2,-219871.8,0.02,0.00,0.89,-4,0,-2,5,0
'[13:17:00.760 21/01/2026]',-125018.5,-199691.2,-89019.4,-589.4155,-375000,-375000,-151039.1,-219801,0.02,0.00,0.89,-4,0,-2,5,0
'[13:17:00.764 21/01/2026]',-125006.6,-199720.5,-89004.24,-578.9548,-375000,-375000,-151029.4,-219999,0.02,0.00,0.89,-4,0,-2,5,0
'[13:17:00.768 21/01/2026]',-125006.4,-199754.2,-89005.09,-581.9947,-375000,-375000,-151030.5,-220220.1,0.02,0.00,0.89,-4,0,-2,5,0
'[13:17:00.772 21/01/2026]',-125013.8,-199716.5,-89020.47,-583.5593,-375000,-375000,-151043.7,-220167.9,0.02,0.00,0.89,-4,0,-2,5,0
'[13:17:00.776 21/01/2026]',-125021.7,-199681.6,-89025.79,-582.9781,-375000,-375000,-151046.6,-219918.5,0.02,0.00,0.89,-4,0,-2,5,0
'[13:17:00.780 21/01/2026]',-125020.1,-199718.8,-89019.8,-585.5263,-375000,-375000,-151045,-219965.4,0.02,0.00,0.89,-4,0,-2,5,0
'[13:17:00.784 21/01/2026]',-125006.8,-199746.7,-89006.16,-576.4962,-375000,-375000,-151039.2,-220107.9,0.02,0.00,0.89,-4,0,-2,5,0
'[13:17:00.788 21/01/2026]',-125010.4,-199713.2,-89015.33,-566.4826,-375000,-375000,-151043.9,-219955.7,0.02,0.00,0.89,-4,0,-2,5,0
'[13:17:00.792 21/01/2026]',-125030.2,-199687.7,-89032.09,-581.5923,-375000,-375000,-151057,-219677.2,0.02,0.00,0.88,-4,0,-2,5,0
'[13:17:00.796 21/01/2026]',-125021.8,-199708.9,-89018.01,-584.7663,-375000,-375000,-151046.2,-219891.5,0.02,0.00,0.88,-4,0,-2,5,0
'[13:17:00.800 21/01/2026]',-125017.5,-199754.5,-89012.78,-585.4816,-375000,-375000,-151045,-220122.3,0.02,0.00,0.88,-4,0,-2,5,0
'[13:17:00.804 21/01/2026]',-125015.4,-199727.9,-89014.57,-577.122,-375000,-375000,-151040.1,-220131.2,0.02,0.00,0.88,-4,0,-2,5,0
'[13:17:00.808 21/01/2026]',-125018.8,-199681.4,-89021.72,-576.228,-375000,-375000,-151042,-219882.1,0.02,0.00,0.88,-4,0,-2,5,0
'[13:17:00.812 21/01/2026]',-125021.5,-199702.1,-89013.54,-583.4252,-375000,-375000,-151042.5,-219905.7,0.02,0.00,0.88,-4,0,-2,5,0
'[13:17:00.816 21/01/2026]',-125016.4,-199748.3,-89011.48,-588.7002,-375000,-375000,-151040.8,-220174,0.02,0.00,0.88,-4,0,-2,5,0
'[13:17:00.820 21/01/2026]',-125013.6,-199738.1,-89019.13,-582.8888,-375000,-375000,-151037,-220243.8,0.02,0.00,0.88,-4,0,-2,5,0
'[13:17:00.824 21/01/2026]',-125030.1,-199694.2,-89038.44,-584.1852,-375000,-375000,-151051.1,-219875,0.02,0.00,0.88,-4,0,-2,5,0
'[13:17:00.828 21/01/2026]',-125022.1,-199700.8,-89021.09,-590.1754,-375000,-375000,-151035.6,-219976.5,0.03,0.00,0.88,-4,0,-2,5,0
'[13:17:00.832 21/01/2026]',-125019.8,-199746.7,-89016.76,-594.02,-375000,-375000,-151039.2,-220176.4,0.03,0.00,0.88,-4,0,-2,5,0
'[13:17:00.836 21/01/2026]',-125014.6,-199749.8,-89014.92,-589.7731,-375000,-375000,-151036.5,-220227.8,0.03,0.00,0.88,-4,0,-2,5,0
'[13:17:00.840 21/01/2026]',-125023.8,-199703.5,-89027.76,-588.2532,-375000,-375000,-151040.4,-220016.1,0.03,0.00,0.88,-4,0,-2,5,0
'[13:17:00.844 21/01/2026]',-125027.3,-199697.7,-89024.36,-596.7916,-375000,-375000,-151041.6,-219911.7,0.03,0.00,0.88,-4,0,-2,5,0
'[13:17:00.848 21/01/2026]',-125020,-199743.4,-89019.84,-601.3066,-375000,-375000,-151045.8,-220096.8,0.03,0.00,0.88,-4,0,-2,5,0
'[13:17:00.852 21/01/2026]',-125012.9,-199759.4,-89013.63,-595.1823,-375000,-375000,-151039.2,-220305.6,0.03,0.00,0.88,-4,0,-2,5,0
'[13:17:00.856 21/01/2026]',-125030.3,-199710.3,-89029.41,-589.6837,-375000,-375000,-151054.9,-219963,0.03,0.00,0.88,-4,0,-2,5,0
'[13:17:00.860 21/01/2026]',-125024.5,-199691.3,-89017.92,-592.8577,-375000,-375000,-151042.8,-219799.9,0.03,0.00,0.88,-4,0,-2,5,0
'[13:17:00.864 21/01/2026]',-125013.2,-199730,-89009.74,-592.5894,-375000,-375000,-151036.2,-219987.6,0.02,0.00,0.88,-4,0,-2,5,0
'[13:17:00.868 21/01/2026]',-125007.8,-199758.7,-89008.17,-589.5049,-375000,-375000,-151033.3,-220179.6,0.02,0.00,0.88,-4,0,-2,5,0
'[13:17:00.872 21/01/2026]',-125007.8,-199705.7,-89012.73,-576.6303,-375000,-375000,-151040.2,-220003.9,0.02,0.00,0.88,-4,0,-2,5,0
'[13:17:00.876 21/01/2026]',-125017,-199680.5,-89015.82,-582.4417,-375000,-375000,-151043.9,-219781.1,0.02,0.00,0.88,-4,0,-2,5,0
'[13:17:00.880 21/01/2026]',-125008.3,-199715.3,-89008.76,-585.124,-375000,-375000,-151035.5,-219946.4,0.02,0.00,0.88,-4,0,-2,5,0
'[13:17:00.884 21/01/2026]',-124998.1,-199735.8,-89005.54,-576.9432,-375000,-375000,-151032.3,-220100.3,0.02,0.00,0.88,-4,0,-2,5,0
'[13:17:00.888 21/01/2026]',-124993.5,-199694,-89007.19,-563.5768,-375000,-375000,-151033.5,-219969,0.02,0.00,0.88,-4,0,-2,5,0
'[13:17:00.892 21/01/2026]',-125005.1,-199670.9,-89009.6,-574.8868,-375000,-375000,-151039.9,-219795.9,0.02,0.00,0.88,-4,0,-2,5,0
'[13:17:00.896 21/01/2026]',-124995,-199690,-88997.89,-575.2444,-375000,-375000,-151029.5,-219996.6,0.02,0.00,0.88,-4,0,-2,5,0
'[13:17:00.900 21/01/2026]',-124991.8,-199726.2,-88997.85,-571.6235,-375000,-375000,-151023,-220174.6,0.03,0.00,0.89,-4,0,-2,5,0
'[13:17:00.904 21/01/2026]',-125001.5,-199713.8,-89009.29,-575.8703,-375000,-375000,-151030,-220164.6,0.03,0.00,0.89,-4,0,-2,5,0
'[13:17:00.908 21/01/2026]',-125017.3,-199682.6,-89024.18,-587.0462,-375000,-375000,-151045,-219929.4,0.03,0.00,0.89,-4,0,-2,5,0
'[13:17:00.912 21/01/2026]',-125017.4,-199703.9,-89020.91,-593.1259,-375000,-375000,-151045.9,-219921.9,0.03,0.00,0.89,-4,0,-2,5,0
'[13:17:00.916 21/01/2026]',-125014.3,-199750.9,-89021.05,-600.6808,-375000,-375000,-151047,-220117.2,0.03,0.00,0.89,-4,0,-2,5,0
'[13:17:00.920 21/01/2026]',-125012.1,-199746.7,-89024.54,-597.9539,-375000,-375000,-151042.8,-220232,0.03,0.00,0.89,-4,0,-2,5,0
'[13:17:00.924 21/01/2026]',-125032.4,-199703.3,-89040.59,-599.5632,-375000,-375000,-151056.6,-219858.8,0.03,0.00,0.89,-4,0,-2,5,0
'[13:17:00.928 21/01/2026]',-125022.5,-199707.8,-89024.63,-604.7935,-375000,-375000,-151041.3,-219946.7,0.03,0.00,0.89,-4,0,-2,5,0
'[13:17:00.932 21/01/2026]',-125013.7,-199748.4,-89018.5,-599.9655,-375000,-375000,-151035.3,-220164.5,0.03,0.00,0.89,-4,0,-2,5,0
'[13:17:00.936 21/01/2026]',-125003.9,-199743.5,-89007.68,-587.7167,-375000,-375000,-151025,-220263,0.03,0.00,0.88,-4,0,-2,5,0
'[13:17:00.940 21/01/2026]',-125009.9,-199691.9,-89016.09,-582.3076,-375000,-375000,-151036.1,-219974.5,0.03,0.00,0.88,-4,0,-2,5,0
'[13:17:00.944 21/01/2026]',-125016.7,-199701.5,-89016.76,-594.1987,-375000,-375000,-151042,-219896.4,0.03,0.00,0.88,-4,0,-2,5,0
'[13:17:00.948 21/01/2026]',-125013.7,-199747.3,-89016.09,-597.328,-375000,-375000,-151044.2,-220106.7,0.03,0.00,0.88,-4,0,-2,5,0
'[13:17:00.952 21/01/2026]',-125008.3,-199757.8,-89012.42,-588.5661,-375000,-375000,-151038.3,-220244.2,0.03,0.00,0.88,-4,0,-2,5,0
'[13:17:00.956 21/01/2026]',-125026.8,-199716.1,-89032.8,-588.4767,-375000,-375000,-151055.2,-219935.9,0.03,0.00,0.88,-4,0,-2,5,0
'[13:17:00.960 21/01/2026]',-125030.6,-199706.7,-89028.38,-600.4125,-375000,-375000,-151052.2,-219827.7,0.03,0.00,0.88,-4,0,-2,5,0
'[13:17:00.964 21/01/2026]',-125024.4,-199735.4,-89012.65,-596.0316,-375000,-375000,-151046,-219998.2,0.03,0.00,0.88,-4,0,-2,5,0
'[13:17:00.968 21/01/2026]',-125016.1,-199759.8,-89003.62,-589.9519,-375000,-375000,-151038.3,-220133,0.03,0.00,0.88,-4,0,-2,5,0
'[13:17:00.972 21/01/2026]',-125021.8,-199721.4,-89018.59,-588.4767,-375000,-375000,-151042.9,-219985.4,0.03,0.00,0.88,-4,0,-2,5,0
'[13:17:00.976 21/01/2026]',-125029.5,-199701.2,-89030.08,-601.7537,-375000,-375000,-151050,-219828.8,0.03,0.00,0.88,-4,0,-2,5,0
'[13:17:00.980 21/01/2026]',-125030.9,-199738.1,-89031.51,-609.7109,-375000,-375000,-151055.3,-219911.9,0.03,0.00,0.88,-4,0,-2,5,0
'[13:17:00.984 21/01/2026]',-125021.2,-199771.8,-89023.2,-608.3698,-375000,-375000,-151052.2,-220089.4,0.03,0.00,0.88,-4,0,-2,5,0
'[13:17:00.988 21/01/2026]',-125017.9,-199729.7,-89027.84,-600.2337,-375000,-375000,-151056.7,-219960.3,0.03,0.00,0.88,-4,0,-2,5,0
'[13:17:00.992 21/01/2026]',-125032.6,-199701.3,-89038.8,-610.3814,-375000,-375000,-151064.8,-219666.6,0.03,0.00,0.88,-4,0,-2,5,0
'[13:17:00.996 21/01/2026]',-125021.9,-199726.5,-89022.88,-611.499,-375000,-375000,-151050.9,-219951.4,0.03,0.00,0.88,-4,0,-2,5,0
'[13:17:01.000 21/01/2026]',-125014.9,-199757.8,-89020.96,-604.9276,-375000,-375000,-151051,-220111.7,0.03,0.00,0.88,-4,0,-2,5,0
'[13:17:01.004 21/01/2026]',-125013.3,-199733.3,-89024.13,-597.8644,-375000,-375000,-151049.2,-220031.5,0.03,0.00,0.88,-4,0,-2,5,0
'[13:17:01.008 21/01/2026]',-125026.4,-199695.1,-89033.43,-601.9772,-375000,-375000,-151060.6,-219820.3,0.03,0.00,0.88,-4,0,-2,5,0
'[13:17:01.012 21/01/2026]',-125030.4,-199714,-89029.05,-604.257,-375000,-375000,-151061.2,-219751.6,0.03,0.00,0.88,-4,0,-2,5,0
'[13:17:01.016 21/01/2026]',-125029.4,-199768.6,-89026.59,-611.0519,-375000,-375000,-151059.3,-219983.4,0.03,0.00,0.88,-4,0,-2,5,0
'[13:17:01.020 21/01/2026]',-125020.7,-199750.6,-89027.71,-603.3182,-375000,-375000,-151058.3,-220030.2,0.03,0.00,0.88,-4,0,-2,5,0
'[13:17:01.024 21/01/2026]',-125026.2,-199699.1,-89035.49,-606.224,-375000,-375000,-151078.5,-219618.5,0.03,0.00,0.88,-4,0,-2,5,0
'[13:17:01.028 21/01/2026]',-125009,-199696.8,-89014.84,-608.4592,-375000,-375000,-151065.9,-219695.1,0.03,0.00,0.88,-4,0,-2,5,0
'[13:17:01.032 21/01/2026]',-125038,-199762.5,-89033.34,-613.3765,-375000,-375000,-151060.5,-219927,0.03,0.00,0.88,-4,0,-2,5,0
'[13:17:01.036 21/01/2026]',-125038.9,-199758,-89039.65,-606.3134,-375000,-375000,-151056.6,-220016.9,0.03,0.00,0.88,-4,0,-2,5,0
'[13:17:01.040 21/01/2026]',-125036.5,-199697.1,-89051.9,-610.5602,-375000,-375000,-151076.2,-219799.9,0.03,0.00,0.88,-4,0,-2,5,0
'[13:17:01.044 21/01/2026]',-125052.6,-199707.2,-89051.36,-619.5457,-375000,-375000,-151076,-219666.3,0.02,0.00,0.88,-4,0,-2,5,0
'[13:17:01.048 21/01/2026]',-125051.6,-199756.4,-89042.82,-623.1219,-375000,-375000,-151076,-219746.3,0.02,0.00,0.88,-4,0,-2,5,0
'[13:17:01.052 21/01/2026]',-125045.2,-199771.3,-89043.22,-624.1054,-375000,-375000,-151072.8,-219878.5,0.02,0.00,0.88,-4,0,-2,5,0
'[13:17:01.056 21/01/2026]',-125056.4,-199721.3,-89065.71,-618.3834,-375000,-375000,-151090.2,-219514.8,0.02,0.00,0.88,-4,0,-2,5,0
'[13:17:01.060 21/01/2026]',-125053.4,-199704.7,-89049.62,-620.7079,-375000,-375000,-151079.7,-219408.1,0.02,0.00,0.88,-4,0,-2,5,0
'[13:17:01.064 21/01/2026]',-125035.3,-199738.7,-89018.1,-611.9013,-375000,-375000,-151064.6,-219691.5,0.02,0.00,0.88,-4,0,-2,5,0
'[13:17:01.068 21/01/2026]',-125015.1,-199758.1,-89018.32,-606.224,-375000,-375000,-151056.3,-219842.2,0.02,0.00,0.88,-4,0,-2,5,0
'[13:17:01.072 21/01/2026]',-125023.5,-199710.4,-89041.39,-598.7585,-375000,-375000,-151054.5,-219664.8,0.02,0.00,0.88,-4,0,-2,5,0
'[13:17:01.076 21/01/2026]',-125034.9,-199686.2,-89039.24,-598.5797,-375000,-375000,-151054.3,-219542.3,0.02,0.00,0.88,-4,0,-2,5,0
'[13:17:01.080 21/01/2026]',-125021.8,-199724.3,-89019.17,-602.4689,-375000,-375000,-151060.1,-219653,0.02,0.00,0.88,-4,0,-2,5,0
'[13:17:01.084 21/01/2026]',-125005.8,-199755.4,-89007.64,-597.7303,-375000,-375000,-151051.5,-219848.4,0.02,0.00,0.88,-4,0,-2,5,0
'[13:17:01.088 21/01/2026]',-124995.2,-199712,-88994.23,-581.4136,-375000,-375000,-151049.2,-219706.3,0.02,0.00,0.88,-4,0,-2,5,0
'[13:17:01.092 21/01/2026]',-125011.2,-199684.3,-89016.98,-593.26,-375000,-375000,-151055.8,-219563.4,0.02,0.00,0.88,-4,0,-2,5,0
'[13:17:01.096 21/01/2026]',-125005,-199697,-89023.02,-591.6954,-375000,-375000,-151044.5,-219750.5,0.02,0.00,0.88,-4,0,-2,5,0
'[13:17:01.100 21/01/2026]',-125004.2,-199738.1,-89009.12,-588.9238,-375000,-375000,-151032.6,-220100.7,0.02,0.00,0.88,-4,0,-2,5,0
'[13:17:01.104 21/01/2026]',-125001.6,-199705.3,-89009.47,-576.2726,-375000,-375000,-151026.1,-220133.1,0.02,0.00,0.88,-4,0,-2,5,0
'[13:17:01.108 21/01/2026]',-125015.7,-199671.3,-89013.36,-585.2581,-375000,-375000,-151040.7,-219930,0.02,0.00,0.88,-4,0,-2,5,0
'[13:17:01.112 21/01/2026]',-125018.6,-199690.7,-89005.36,-590.5331,-375000,-375000,-151039.4,-219976.1,0.02,0.00,0.88,-4,0,-2,5,0
'[13:17:01.116 21/01/2026]',-125007.6,-199729.3,-89020.38,-590.4883,-375000,-375000,-151040.4,-220165,0.02,0.00,0.88,-4,0,-2,5,0
'[13:17:01.120 21/01/2026]',-125000.7,-199712.2,-89016.04,-580.8771,-375000,-375000,-151032.3,-220239.2,0.02,0.00,0.88,-4,0,-2,5,0
'[13:17:01.124 21/01/2026]',-125015.2,-199680.2,-89023.02,-589.5943,-375000,-375000,-151053.6,-219929.5,0.02,0.00,0.88,-4,0,-2,5,0
'[13:17:01.128 21/01/2026]',-125012.7,-199698.5,-89019.04,-604.5699,-375000,-375000,-151047.5,-220175.8,0.02,0.00,0.88,-4,0,-2,5,0
'[13:17:01.132 21/01/2026]',-125020.9,-199744.7,-89029.32,-611.0967,-375000,-375000,-151049.9,-220376.2,0.02,0.00,0.88,-4,0,-2,5,0
'[13:17:01.136 21/01/2026]',-125011.2,-199740,-89020.16,-594.1541,-375000,-375000,-151032.4,-220391.4,0.02,0.00,0.88,-4,0,-2,5,0
'[13:17:01.140 21/01/2026]',-125020.1,-199687,-89032.54,-590.1307,-375000,-375000,-151046.1,-220097,0.02,0.00,0.88,-4,0,-2,5,0
'[13:17:01.144 21/01/2026]',-125025.2,-199683.5,-89032.13,-600.0996,-375000,-375000,-151053.1,-220038.4,0.02,0.00,0.88,-4,0,-2,5,0
'[13:17:01.148 21/01/2026]',-125019.6,-199719,-89023.59,-597.6856,-375000,-375000,-151048.9,-220178.8,0.02,0.00,0.88,-4,0,-2,5,0
'[13:17:01.152 21/01/2026]',-125008.9,-199730.3,-89021.36,-594.3329,-375000,-375000,-151046.3,-220325.5,0.03,0.00,0.89,-4,0,-2,5,0
'[13:17:01.156 21/01/2026]',-125029.6,-199695.9,-89039.47,-595.674,-375000,-375000,-151064,-220165.5,0.03,0.00,0.89,-4,0,-2,5,0
'[13:17:01.160 21/01/2026]',-125043,-199692.9,-89046.89,-609.4874,-375000,-375000,-151062.7,-220105.4,0.03,0.00,0.89,-4,0,-2,5,0
'[13:17:01.164 21/01/2026]',-125036.9,-199732.7,-89042.24,-611.946,-375000,-375000,-151054.6,-220404.5,0.03,0.00,0.89,-4,0,-2,5,0
'[13:17:01.168 21/01/2026]',-125026.2,-199754.7,-89037.1,-607.878,-375000,-375000,-151049.7,-220634.4,0.03,0.00,0.89,-4,0,-2,5,0
'[13:17:01.172 21/01/2026]',-125031,-199707.3,-89043.49,-601.4407,-375000,-375000,-151054.8,-220534.9,0.03,0.00,0.89,-4,0,-2,5,0
'[13:17:01.176 21/01/2026]',-125042,-199679.2,-89044.02,-602.6477,-375000,-375000,-151055.6,-220356.8,0.03,0.00,0.89,-4,0,-2,5,0
'[13:17:01.180 21/01/2026]',-125039.9,-199712.7,-89037.59,-605.9557,-375000,-375000,-151054.6,-220424.1,0.03,0.00,0.89,-4,0,-2,5,0
'[13:17:01.184 21/01/2026]',-125031,-199760.5,-89033.97,-610.9626,-375000,-375000,-151050,-220680.1,0.03,0.00,0.89,-4,0,-2,5,0
'[13:17:01.188 21/01/2026]',-125031.9,-199718.3,-89039.83,-600.8596,-375000,-375000,-151051.2,-220618.3,0.02,0.02,0.89,-4,0,-2,5,0
'[13:17:01.192 21/01/2026]',-125049.2,-199686.9,-89052.84,-612.259,-375000,-375000,-151062.4,-220294.8,0.02,0.02,0.89,-4,0,-2,5,0
'[13:17:01.196 21/01/2026]',-125037.4,-199708.4,-89035.98,-613.4659,-375000,-375000,-151054.6,-220436.3,0.02,0.02,0.89,-4,0,-2,5,0
'[13:17:01.200 21/01/2026]',-125028.7,-199747.9,-89025.97,-607.6098,-375000,-375000,-151048.1,-220618.1,0.02,0.02,0.89,-4,0,-2,5,0
'[13:17:01.204 21/01/2026]',-125029.4,-199725.6,-89034.91,-601.9772,-375000,-375000,-151039.8,-220565,0.02,0.02,0.89,-4,0,-2,5,0
'[13:17:01.208 21/01/2026]',-125034,-199679.1,-89033.66,-602.1113,-375000,-375000,-151038.2,-220257,0.02,0.02,0.89,-4,0,-2,5,0
'[13:17:01.212 21/01/2026]',-125028.5,-199695.9,-89029.9,-606.9839,-375000,-375000,-151040.3,-220207,0.02,0.02,0.89,-4,0,-2,5,0
'[13:17:01.216 21/01/2026]',-125025,-199741.8,-89024.98,-608.9509,-375000,-375000,-151036.9,-220426.4,0.02,0.02,0.89,-4,0,-2,5,0
'[13:17:01.220 21/01/2026]',-125017.4,-199727.6,-89024.13,-601.0384,-375000,-375000,-151031.1,-220598.6,0.02,0.02,0.89,-4,0,-2,5,0
'[13:17:01.224 21/01/2026]',-125042.5,-199682,-89051.41,-602.3348,-375000,-375000,-151055.1,-220224,0.03,0.00,0.88,-4,0,-2,5,0
'[13:17:01.228 21/01/2026]',-125045,-199709.1,-89045.99,-621.5573,-375000,-375000,-151056.8,-220396.5,0.03,0.00,0.88,-4,0,-2,5,0
'[13:17:01.232 21/01/2026]',-125042.8,-199759.5,-89031.11,-623.4796,-375000,-375000,-151060.3,-220619.8,0.03,0.00,0.88,-4,0,-2,5,0
'[13:17:01.236 21/01/2026]',-125030.7,-199744.2,-89021.18,-607.9227,-375000,-375000,-151040.3,-220697.3,0.03,0.00,0.88,-4,0,-2,5,0
'[13:17:01.240 21/01/2026]',-125027.4,-199681,-89033.12,-595.8528,-375000,-375000,-151029.8,-220429.1,0.03,0.00,0.88,-4,0,-2,5,0
'[13:17:01.244 21/01/2026]',-125028.4,-199680.5,-89035.89,-601.9772,-375000,-375000,-151028.4,-220298.2,0.03,0.00,0.88,-4,0,-2,5,0
'[13:17:01.248 21/01/2026]',-125030.8,-199732.2,-89032.49,-613.3765,-375000,-375000,-151038.4,-220400.5,0.03,0.00,0.88,-4,0,-2,5,0
'[13:17:01.252 21/01/2026]',-125031,-199749.7,-89033.25,-618.0704,-375000,-375000,-151043.1,-220577.5,0.03,0.00,0.88,-4,0,-2,5,0
'[13:17:01.256 21/01/2026]',-125042.7,-199704.7,-89049.16,-616.8187,-375000,-375000,-151050.4,-220384.1,0.03,0.00,0.88,-4,0,-2,5,0
'[13:17:01.260 21/01/2026]',-125047.5,-199695.3,-89048.95,-627.2346,-375000,-375000,-151051.3,-220245.9,0.03,0.00,0.88,-4,0,-2,5,0
'[13:17:01.264 21/01/2026]',-125029.1,-199724.5,-89027.53,-613.4213,-375000,-375000,-151027.1,-220410.7,0.03,0.00,0.88,-4,0,-2,5,0
'[13:17:01.268 21/01/2026]',-125008.1,-199731,-89012.34,-595.8975,-375000,-375000,-151009.8,-220537.7,0.03,0.00,0.88,-4,0,-2,5,0
'[13:17:01.272 21/01/2026]',-125014.1,-199687.2,-89021.36,-591.8295,-375000,-375000,-151026.3,-220377.8,0.03,0.00,0.88,-4,0,-2,5,0
'[13:17:01.276 21/01/2026]',-125027.6,-199672.6,-89023.91,-605.5535,-375000,-375000,-151045,-220206.3,0.03,0.00,0.88,-4,0,-2,5,0
'[13:17:01.280 21/01/2026]',-125020.5,-199705.2,-89016.4,-603.4077,-375000,-375000,-151033.2,-220278.5,0.03,0.00,0.88,-4,0,-2,5,0
'[13:17:01.284 21/01/2026]',-125010.5,-199742.1,-89011.48,-602.8712,-375000,-375000,-151021.7,-220512.3,0.03,0.00,0.88,-4,0,-2,5,0
'[13:17:01.288 21/01/2026]',-125012,-199706.1,-89016.36,-596.2998,-375000,-375000,-151027.9,-220438.3,0.03,0.00,0.88,-4,0,-2,5,0
'[13:17:01.292 21/01/2026]',-125028.9,-199673.2,-89029.09,-598.8926,-375000,-375000,-151033,-220093.9,0.03,0.00,0.88,-4,0,-2,5,0
'[13:17:01.296 21/01/2026]',-125024.4,-199706.6,-89024.89,-608.1462,-375000,-375000,-151030.2,-220301.4,0.02,0.00,0.88,-4,0,-2,5,0
'[13:17:01.300 21/01/2026]',-125020.2,-199749.9,-89022.66,-610.739,-375000,-375000,-151038.5,-220490.8,0.02,0.00,0.88,-4,0,-2,5,0
'[13:17:01.304 21/01/2026]',-125013.8,-199716.2,-89018.59,-597.8644,-375000,-375000,-151028.4,-220439.2,0.02,0.00,0.88,-4,0,-2,5,0
'[13:17:01.308 21/01/2026]',-125021.8,-199667.7,-89023.15,-595.1375,-375000,-375000,-151026.1,-220133.3,0.02,0.00,0.88,-4,0,-2,5,0
'[13:17:01.312 21/01/2026]',-125022.9,-199696.5,-89020.65,-603.7653,-375000,-375000,-151024.7,-220175.5,0.02,0.00,0.88,-4,0,-2,5,0
'[13:17:01.316 21/01/2026]',-125022.1,-199746.1,-89025.38,-615.2094,-375000,-375000,-151037.9,-220377.7,0.02,0.00,0.88,-4,0,-2,5,0
'[13:17:01.320 21/01/2026]',-125013,-199724,-89019.04,-603.6312,-375000,-375000,-151041.2,-220387.3,0.02,0.00,0.88,-4,0,-2,5,0
'[13:17:01.324 21/01/2026]',-125020.7,-199679.6,-89014.21,-596.3445,-375000,-375000,-151046.6,-220043,0.02,0.00,0.88,-4,0,-2,5,0
'[13:17:01.328 21/01/2026]',-125012.8,-199685.4,-88997.85,-595.8528,-375000,-375000,-151023.6,-220135.6,0.02,0.00,0.88,-4,0,-2,5,0
'[13:17:01.332 21/01/2026]',-125007.5,-199729.3,-89001.56,-594.5117,-375000,-375000,-151027.2,-220312.9,0.03,0.00,0.88,-4,0,-2,5,0
'[13:17:01.336 21/01/2026]',-125004.3,-199735.4,-89008.84,-593.3941,-375000,-375000,-151036.5,-220399.5,0.03,0.00,0.88,-4,0,-2,5,0
'[13:17:01.340 21/01/2026]',-125013.3,-199686.6,-89021.72,-587.4038,-375000,-375000,-151037.5,-220231.5,0.03,0.00,0.88,-4,0,-2,5,0
'[13:17:01.344 21/01/2026]',-125010.2,-199675.8,-89002.99,-579.983,-375000,-375000,-151028.9,-220129,0.03,0.00,0.88,-4,0,-2,5,0
'[13:17:01.348 21/01/2026]',-124992.3,-199720.7,-88977.95,-577.7479,-375000,-375000,-151019.8,-220368.6,0.03,0.00,0.88,-4,0,-2,5,0
'[13:17:01.352 21/01/2026]',-124976.3,-199721.5,-88966.38,-569.4777,-375000,-375000,-151002.2,-220624,0.03,0.00,0.88,-4,0,-2,5,0
'[13:17:01.356 21/01/2026]',-124994.2,-199670,-88998.7,-569.4777,-375000,-375000,-151020.1,-220323.2,0.03,0.00,0.88,-4,0,-2,5,0
'[13:17:01.360 21/01/2026]',-124995.8,-199671.5,-89004.46,-584.0511,-375000,-375000,-151026.4,-220266.5,0.03,0.00,0.88,-4,0,-2,5,0
'[13:17:01.364 21/01/2026]',-124997.4,-199712.1,-89006.43,-587.6721,-375000,-375000,-151031.3,-220471.5,0.03,0.00,0.88,-4,0,-2,5,0
'[13:17:01.368 21/01/2026]',-124999.1,-199738.8,-89008.66,-590.2202,-375000,-375000,-151030.9,-220613.5,0.02,0.00,0.88,-4,0,-2,5,0
'[13:17:01.372 21/01/2026]',-125007.1,-199692,-89016.67,-583.3805,-375000,-375000,-151039.2,-220431.3,0.02,0.00,0.88,-4,0,-2,5,0
'[13:17:01.376 21/01/2026]',-125010.5,-199669.3,-89011.44,-582.1735,-375000,-375000,-151042.7,-220221.6,0.02,0.00,0.88,-4,0,-2,5,0
'[13:17:01.380 21/01/2026]',-125007.9,-199705,-88995.13,-581.2347,-375000,-375000,-151047.3,-220302.7,0.02,0.00,0.88,-4,0,-2,5,0
'[13:17:01.384 21/01/2026]',-125006.3,-199742.4,-89000.27,-586.5992,-375000,-375000,-151043.9,-220524.9,0.02,0.00,0.88,-4,0,-2,5,0
'[13:17:01.388 21/01/2026]',-125007.3,-199696.7,-89020.6,-580.1171,-375000,-375000,-151048.3,-220304.2,0.02,0.00,0.88,-4,0,-2,5,0
'[13:17:01.392 21/01/2026]',-125016.7,-199671.1,-89028.25,-590.4883,-375000,-375000,-151058.2,-220014.4,0.02,0.00,0.88,-4,0,-2,5,0
'[13:17:01.396 21/01/2026]',-125004.7,-199707.4,-89011.84,-598.8926,-375000,-375000,-151045.3,-220481.2,0.02,0.00,0.88,-4,0,-2,5,0
'[13:17:01.400 21/01/2026]',-124995.4,-199747.1,-89002.27,-598.222,-375000,-375000,-151034,-220795,0.02,0.00,0.88,-4,0,-2,5,0
'[13:17:01.404 21/01/2026]',-125003.1,-199717.3,-89012.42,-593.5729,-375000,-375000,-151038.3,-220716,0.03,0.02,0.88,-4,0,-2,5,0
'[13:17:01.408 21/01/2026]',-125022.1,-199672.8,-89026.05,-597.2833,-375000,-375000,-151049.5,-220396.5,0.03,0.02,0.88,-4,0,-2,5,0
'[13:17:01.412 21/01/2026]',-125019.4,-199702.3,-89020.6,-607.7439,-375000,-375000,-151057.8,-220439.3,0.03,0.02,0.88,-4,0,-2,5,0
'[13:17:01.416 21/01/2026]',-125021.6,-199749.1,-89015.23,-610.9626,-375000,-375000,-151056.5,-220630.8,0.03,0.02,0.88,-4,0,-2,5,0
'[13:17:01.420 21/01/2026]',-125013.6,-199736.3,-89021.9,-610.6497,-375000,-375000,-151056.6,-220647.3,0.03,0.02,0.88,-4,0,-2,5,0
'[13:17:01.424 21/01/2026]',-125028.1,-199690.1,-89038.8,-610.6049,-375000,-375000,-151071.2,-220314.4,0.03,0.02,0.88,-4,0,-2,5,0
'[13:17:01.428 21/01/2026]',-125017.9,-199688.8,-89020.65,-611.3649,-375000,-375000,-151055.7,-220407.3,0.03,0.02,0.88,-4,0,-2,5,0
'[13:17:01.432 21/01/2026]',-125013.6,-199733.6,-89014.88,-608.8168,-375000,-375000,-151052.8,-220599.1,0.03,0.02,0.88,-4,0,-2,5,0
'[13:17:01.436 21/01/2026]',-125013.5,-199745.3,-89017.56,-605.3299,-375000,-375000,-151047,-220823.3,0.03,0.02,0.88,-4,0,-2,5,0
'[13:17:01.440 21/01/2026]',-125034.4,-199701.9,-89036.92,-610.3814,-375000,-375000,-151061.9,-220585.6,0.02,0.00,0.89,-4,0,-2,5,0
'[13:17:01.444 21/01/2026]',-125044.7,-199705.5,-89041.88,-620.3503,-375000,-375000,-151071.5,-220443.5,0.02,0.00,0.89,-4,0,-2,5,0
'[13:17:01.448 21/01/2026]',-125033.8,-199751.5,-89033.88,-616.1035,-375000,-375000,-151066.3,-220562,0.02,0.00,0.89,-4,0,-2,5,0
'[13:17:01.452 21/01/2026]',-125017.2,-199752,-89017.2,-597.4174,-375000,-375000,-151049.9,-220653.9,0.02,0.00,0.89,-4,0,-2,5,0
'[13:17:01.456 21/01/2026]',-125033.5,-199704.2,-89030.84,-597.7303,-375000,-375000,-151066,-220355.9,0.02,0.00,0.89,-4,0,-2,5,0
'[13:17:01.460 21/01/2026]',-125039.7,-199696.3,-89032.85,-609.845,-375000,-375000,-151070.5,-220198.9,0.02,0.00,0.89,-4,0,-2,5,0
'[13:17:01.464 21/01/2026]',-125023.3,-199730.8,-89023.51,-602.6924,-375000,-375000,-151052.4,-220420.7,0.02,0.00,0.89,-4,0,-2,5,0
'[13:17:01.468 21/01/2026]',-125019.6,-199761.1,-89018.91,-604.8829,-375000,-375000,-151047,-220708.5,0.02,0.00,0.89,-4,0,-2,5,0
'[13:17:01.472 21/01/2026]',-125030.6,-199708.2,-89031.87,-603.05,-375000,-375000,-151068.2,-220501.7,0.02,0.00,0.89,-4,0,-2,5,0
'[13:17:01.476 21/01/2026]',-125033.2,-199687.2,-89022.7,-600.4572,-375000,-375000,-151062.3,-220288.9,0.03,0.00,0.88,-4,0,-2,5,0
'[13:17:01.480 21/01/2026]',-125032.4,-199727.4,-89016.84,-601.8878,-375000,-375000,-151055.6,-220373.1,0.03,0.00,0.88,-4,0,-2,5,0
'[13:17:01.484 21/01/2026]',-125018.3,-199756.3,-89011.66,-592.8577,-375000,-375000,-151042.2,-220600.5,0.03,0.00,0.88,-4,0,-2,5,0
'[13:17:01.488 21/01/2026]',-125025.3,-199724,-89028.42,-590.399,-375000,-375000,-151055.8,-220503.6,0.03,0.00,0.88,-4,0,-2,5,0
'[13:17:01.492 21/01/2026]',-125037.3,-199695.4,-89038.57,-598.3115,-375000,-375000,-151068.7,-220227.2,0.03,0.00,0.88,-4,0,-2,5,0
'[13:17:01.496 21/01/2026]',-125016.3,-199711.8,-89012.38,-592.9918,-375000,-375000,-151046.9,-220479.2,0.03,0.00,0.88,-4,0,-2,5,0
'[13:17:01.500 21/01/2026]',-125015.8,-199751.5,-89010.41,-593.0364,-375000,-375000,-151044.7,-220715.9,0.03,0.00,0.88,-4,0,-2,5,0
'[13:17:01.504 21/01/2026]',-125014.9,-199724,-89011.62,-587.2697,-375000,-375000,-151051.6,-220674.5,0.03,0.00,0.88,-4,0,-2,5,0
'[13:17:01.508 21/01/2026]',-125030.6,-199679.3,-89029.32,-588.1191,-375000,-375000,-151062.7,-220360.6,0.03,0.00,0.88,-4,0,-2,5,0
'[13:17:01.512 21/01/2026]',-125031,-199709.1,-89027.3,-592.1871,-375000,-375000,-151057.7,-220427.8,0.03,0.00,0.88,-4,0,-2,5,0
'[13:17:01.516 21/01/2026]',-125017.9,-199744.5,-89013.31,-583.4699,-375000,-375000,-151042.9,-220616.5,0.03,0.00,0.88,-4,0,-2,5,0
'[13:17:01.520 21/01/2026]',-125001.8,-199709.5,-89004.77,-564.3369,-375000,-375000,-151032.4,-220546.3,0.03,0.00,0.88,-4,0,-2,5,0
'[13:17:01.524 21/01/2026]',-125018.5,-199666.2,-89020.55,-568.5389,-375000,-375000,-151053,-220103.8,0.03,0.00,0.88,-4,0,-2,5,0
'[13:17:01.528 21/01/2026]',-125010.7,-199684.9,-89005.18,-584.6769,-375000,-375000,-151044.1,-220345,0.03,0.00,0.88,-4,0,-2,5,0
'[13:17:01.532 21/01/2026]',-125000,-199725.4,-88997.22,-581.6371,-375000,-375000,-151043.1,-220581.7,0.03,0.00,0.88,-4,0,-2,5,0
'[13:17:01.536 21/01/2026]',-125000.2,-199721.3,-89001.02,-578.329,-375000,-375000,-151041.1,-220575.6,0.03,0.00,0.88,-4,0,-2,5,0
'[13:17:01.540 21/01/2026]',-125024.3,-199682.9,-89028.16,-591.0695,-375000,-375000,-151060.6,-220255.7,0.03,0.00,0.88,-4,0,-2,5,0
'[13:17:01.544 21/01/2026]',-125035.3,-199707.8,-89037.86,-613.9577,-375000,-375000,-151073.8,-220192.2,0.03,0.00,0.88,-4,0,-2,5,0
'[13:17:01.548 21/01/2026]',-125035.1,-199750.1,-89032.77,-617.4446,-375000,-375000,-151072.8,-220294.7,0.03,0.00,0.88,-4,0,-2,5,0
'[13:17:01.552 21/01/2026]',-125034.9,-199758.9,-89023.51,-613.1978,-375000,-375000,-151065.7,-220375.4,0.03,0.00,0.88,-4,0,-2,5,0
'[13:17:01.556 21/01/2026]',-125045.8,-199722.2,-89035.09,-613.0189,-375000,-375000,-151074.9,-220192.5,0.03,0.00,0.88,-4,0,-2,5,0
'[13:17:01.560 21/01/2026]',-125049.6,-199719.3,-89041.21,-625.67,-375000,-375000,-151074.1,-220130.9,0.03,0.00,0.88,-4,0,-2,5,0
'[13:17:01.564 21/01/2026]',-125032.1,-199745.3,-89027.53,-617.2657,-375000,-375000,-151064.6,-220397,0.03,0.00,0.88,-4,0,-2,5,0
'[13:17:01.568 21/01/2026]',-125019.8,-199756.9,-89015.41,-607.4757,-375000,-375000,-151054.5,-220557.3,0.03,0.00,0.88,-4,0,-2,5,0
'[13:17:01.572 21/01/2026]',-125024.5,-199709,-89027.09,-597.9539,-375000,-375000,-151059.4,-220309.7,0.03,0.00,0.88,-4,0,-2,5,0
'[13:17:01.576 21/01/2026]',-125040.4,-199698.6,-89038.75,-613.2424,-375000,-375000,-151073,-220101.1,0.03,0.00,0.88,-4,0,-2,5,0
'[13:17:01.580 21/01/2026]',-125026.2,-199735.8,-89017.16,-614.4941,-375000,-375000,-151063.8,-220456.9,0.03,0.00,0.88,-4,0,-2,5,0
'[13:17:01.584 21/01/2026]',-125010.3,-199755.9,-89003.34,-600.7701,-375000,-375000,-151052.1,-220674.3,0.02,0.00,0.88,-4,0,-2,5,0
'[13:17:01.588 21/01/2026]',-125013.3,-199707.4,-89013.09,-582.71,-375000,-375000,-151053.1,-220472.2,0.02,0.00,0.88,-4,0,-2,5,0
'[13:17:01.592 21/01/2026]',-125034.4,-199692.5,-89029.32,-598.8032,-375000,-375000,-151069.6,-220138.1,0.02,0.00,0.88,-4,0,-2,5,0
'[13:17:01.596 21/01/2026]',-125025,-199725.1,-89020.24,-607.0734,-375000,-375000,-151061.3,-220408.5,0.02,0.00,0.88,-4,0,-2,5,0
'[13:17:01.600 21/01/2026]',-125015.8,-199758.2,-89016.53,-604.3464,-375000,-375000,-151052.3,-220618.7,0.02,0.00,0.88,-4,0,-2,5,0
'[13:17:01.604 21/01/2026]',-125018,-199729.1,-89018.99,-596.5681,-375000,-375000,-151056,-220509,0.02,0.00,0.88,-4,0,-2,5,0
'[13:17:01.608 21/01/2026]',-125033.9,-199697.9,-89030.66,-601.7537,-375000,-375000,-151073.2,-220141.2,0.02,0.00,0.88,-4,0,-2,5,0
'[13:17:01.612 21/01/2026]',-125022.4,-199710.1,-89020.73,-602.7371,-375000,-375000,-151055.9,-220286.8,0.02,0.00,0.88,-4,0,-2,5,0
'[13:17:01.616 21/01/2026]',-125018.2,-199746.2,-89019.22,-599.9208,-375000,-375000,-151059,-220438.8,0.02,0.00,0.88,-4,0,-2,5,0
'[13:17:01.620 21/01/2026]',-125013.2,-199735.4,-89008.94,-590.5778,-375000,-375000,-151042.4,-220453.4,0.03,0.00,0.88,-4,0,-2,5,0
'[13:17:01.624 21/01/2026]',-125028.5,-199691.3,-89018.14,-591.7401,-375000,-375000,-151056.6,-220064.8,0.03,0.00,0.88,-4,0,-2,5,0
'[13:17:01.628 21/01/2026]',-125021.3,-199710.8,-89008.27,-603.5418,-375000,-375000,-151055.3,-220140.8,0.03,0.00,0.88,-4,0,-2,5,0
'[13:17:01.632 21/01/2026]',-125018,-199755.3,-89014.43,-602.7371,-375000,-375000,-151054.3,-220398,0.03,0.00,0.88,-4,0,-2,5,0
'[13:17:01.636 21/01/2026]',-125010.7,-199740.5,-89010.95,-593.3941,-375000,-375000,-151046.4,-220482.6,0.03,0.00,0.88,-4,0,-2,5,0
'[13:17:01.640 21/01/2026]',-125015.4,-199685.4,-89018.95,-581.9947,-375000,-375000,-151055.2,-220146.9,0.03,0.00,0.88,-4,0,-2,5,0
'[13:17:01.644 21/01/2026]',-125010.9,-199683.4,-89012.16,-585.7945,-375000,-375000,-151047.7,-220097.9,0.03,0.00,0.88,-4,0,-2,5,0
'[13:17:01.648 21/01/2026]',-125006.1,-199734.3,-89007.37,-591.3824,-375000,-375000,-151037.8,-220514.4,0.03,0.00,0.88,-4,0,-2,5,0
'[13:17:01.652 21/01/2026]',-124998.4,-199739.3,-89003.7,-586.0627,-375000,-375000,-151033.5,-220608,0.03,0.00,0.88,-4,0,-2,5,0
'[13:17:01.656 21/01/2026]',-125011.7,-199688,-89016.09,-580.1171,-375000,-375000,-151042.2,-220234.7,0.02,0.00,0.88,-4,0,-2,5,0
'[13:17:01.660 21/01/2026]',-125023.5,-199688.8,-89013.98,-593.26,-375000,-375000,-151049.5,-220048.8,0.02,0.00,0.88,-4,0,-2,5,0
'[13:17:01.664 21/01/2026]',-125015.2,-199733.8,-89004.15,-597.6409,-375000,-375000,-151050.7,-220299.8,0.02,0.00,0.88,-4,0,-2,5,0
'[13:17:01.668 21/01/2026]',-125011.6,-199749,-88998.7,-589.8178,-375000,-375000,-151044.9,-220417.1,0.02,0.00,0.88,-4,0,-2,5,0
'[13:17:01.672 21/01/2026]',-125016.9,-199700.3,-89010.37,-584.0063,-375000,-375000,-151044.9,-220183.7,0.02,0.00,0.88,-4,0,-2,5,0
'[13:17:01.676 21/01/2026]',-125024.2,-199686.1,-89021.27,-595.4952,-375000,-375000,-151049.2,-219938,0.02,0.00,0.88,-4,0,-2,5,0
'[13:17:01.680 21/01/2026]',-125005.1,-199710,-89008.94,-586.1521,-375000,-375000,-151031.4,-220211.3,0.02,0.00,0.88,-4,0,-2,5,0
'[13:17:01.684 21/01/2026]',-125002,-199734.3,-89009.2,-578.0608,-375000,-375000,-151028,-220407.8,0.02,0.00,0.88,-4,0,-2,5,0
'[13:17:01.688 21/01/2026]',-125007.4,-199702.7,-89020.65,-575.1551,-375000,-375000,-151042.5,-220260.5,0.02,0.00,0.88,-4,0,-2,5,0
'[13:17:01.692 21/01/2026]',-125021.2,-199674.5,-89025.38,-581.8606,-375000,-375000,-151051.8,-219931.8,0.03,-0.02,0.88,-4,0,-2,5,0
'[13:17:01.696 21/01/2026]',-125013.8,-199711.3,-89009.25,-589.7284,-375000,-375000,-151035.5,-220186.4,0.03,-0.02,0.88,-4,0,-2,5,0
'[13:17:01.700 21/01/2026]',-125006.6,-199747.1,-89005.58,-584.4534,-375000,-375000,-151034.2,-220460.8,0.03,-0.02,0.88,-4,0,-2,5,0
'[13:17:01.704 21/01/2026]',-125009.5,-199710.9,-89011.98,-573.4116,-375000,-375000,-151039.3,-220324.5,0.03,-0.02,0.88,-4,0,-2,5,0
'[13:17:01.708 21/01/2026]',-125027.3,-199680,-89024.09,-580.6089,-375000,-375000,-151053.2,-219901.2,0.03,-0.02,0.88,-4,0,-2,5,0
'[13:17:01.712 21/01/2026]',-125009.3,-199697,-89003.44,-583.3358,-375000,-375000,-151038.5,-220035,0.03,-0.02,0.88,-4,0,-2,5,0
'[13:17:01.716 21/01/2026]',-125003.4,-199739.4,-89000.58,-581.9947,-375000,-375000,-151036.2,-220272.4,0.03,-0.02,0.88,-4,0,-2,5,0
'[13:17:01.720 21/01/2026]',-125008.1,-199725.6,-89007.55,-578.7761,-375000,-375000,-151041.2,-220314.7,0.03,-0.02,0.88,-4,0,-2,5,0
'[13:17:01.724 21/01/2026]',-125020,-199679.9,-89018.68,-580.8771,-375000,-375000,-151053.7,-219985.4,0.03,-0.02,0.88,-4,0,-2,5,0
'[13:17:01.728 21/01/2026]',-125016.2,-199690.1,-89009.78,-583.7828,-375000,-375000,-151049.2,-219976.7,0.03,0.00,0.88,-4,0,-2,5,0
'[13:17:01.732 21/01/2026]',-125017.6,-199743.7,-89014.43,-589.7284,-375000,-375000,-151051.8,-220187.5,0.03,0.00,0.88,-4,0,-2,5,0
'[13:17:01.736 21/01/2026]',-125014.4,-199735.2,-89020.7,-584.7663,-375000,-375000,-151054,-220220.4,0.03,0.00,0.88,-4,0,-2,5,0
'[13:17:01.740 21/01/2026]',-125020.8,-199682.7,-89031.38,-577.0326,-375000,-375000,-151064.1,-219849.3,0.03,0.00,0.88,-4,0,-2,5,0
'[13:17:01.744 21/01/2026]',-125007.9,-199670.3,-89003.66,-570.1483,-375000,-375000,-151030.6,-219771,0.03,0.00,0.88,-4,0,-2,5,0
'[13:17:01.748 21/01/2026]',-124996.9,-199709.9,-88996.95,-568.3154,-375000,-375000,-151026.7,-220044.9,0.03,0.00,0.88,-4,0,-2,5,0
'[13:17:01.752 21/01/2026]',-124990.7,-199709.2,-89001.78,-562.191,-375000,-375000,-151028.8,-220089.4,0.03,0.00,0.88,-4,0,-2,5,0
'[13:17:01.756 21/01/2026]',-125002.9,-199675.9,-89013.18,-570.1483,-375000,-375000,-151037.5,-219923.1,0.03,0.00,0.88,-4,0,-2,5,0
'[13:17:01.760 21/01/2026]',-125016.6,-199675.2,-89023.64,-580.3854,-375000,-375000,-151045.9,-219858.2,0.03,0.00,0.88,-4,0,-2,5,0
'[13:17:01.764 21/01/2026]',-125013.3,-199718.4,-89021.14,-584.4534,-375000,-375000,-151048.3,-220056,0.03,0.00,0.88,-4,0,-2,5,0
'[13:17:01.768 21/01/2026]',-125002.8,-199730.9,-89014.08,-583.5593,-375000,-375000,-151054.3,-220273.6,0.03,0.00,0.88,-4,0,-2,5,0
'[13:17:01.772 21/01/2026]',-124987.7,-199649.3,-89013.31,-567.779,-375000,-375000,-151064.2,-220018.3,0.03,0.00,0.88,-4,0,-2,5,0
'[13:17:01.776 21/01/2026]',-124999.4,-199640.8,-89018.45,-576.4962,-375000,-375000,-151064.3,-219817.8,0.03,0.00,0.88,-4,0,-2,5,0
'[13:17:01.780 21/01/2026]',-125045.6,-199752.7,-89025.61,-596.3892,-375000,-375000,-151040.4,-220125.6,0.03,0.00,0.88,-4,0,-2,5,0
'[13:17:01.784 21/01/2026]',-125045.9,-199795.9,-89025.88,-598.088,-375000,-375000,-151041.4,-220308.9,0.03,0.00,0.88,-4,0,-2,5,0
'[13:17:01.788 21/01/2026]',-125043,-199757.6,-89031.02,-596.0763,-375000,-375000,-151056.5,-220140,0.03,0.00,0.88,-4,0,-2,5,0
'[13:17:01.792 21/01/2026]',-125063,-199761,-89040.49,-611.7672,-375000,-375000,-151063.4,-220027.1,0.03,0.00,0.88,-4,0,-2,5,0
'[13:17:01.796 21/01/2026]',-125076.8,-199805.2,-89040.95,-619.2774,-375000,-375000,-151063.9,-220114.7,0.03,0.00,0.88,-4,0,-2,5,0
'[13:17:01.800 21/01/2026]',-125075.6,-199845.2,-89029.05,-615.0753,-375000,-375000,-151061.8,-220252.6,0.02,0.00,0.88,-4,0,-2,5,0
'[13:17:01.804 21/01/2026]',-125078.5,-199823.6,-89039.65,-611.946,-375000,-375000,-151065.7,-220262.4,0.02,0.00,0.88,-4,0,-2,5,0
'[13:17:01.808 21/01/2026]',-125103.4,-199788.4,-89059.45,-622.0043,-375000,-375000,-151081.2,-219922.2,0.02,0.00,0.88,-4,0,-2,5,0
'[13:17:01.812 21/01/2026]',-125092,-199811.8,-89047.07,-630.2297,-375000,-375000,-151068.9,-220070.8,0.02,0.00,0.88,-4,0,-2,5,0
'[13:17:01.816 21/01/2026]',-125077.1,-199844.6,-89040.85,-624.463,-375000,-375000,-151065.4,-220320.1,0.02,0.00,0.88,-4,0,-2,5,0
'[13:17:01.820 21/01/2026]',-125073.3,-199815.5,-89036.88,-610.7838,-375000,-375000,-151053.8,-220299.8,0.02,0.00,0.88,-4,0,-2,5,0
'[13:17:01.824 21/01/2026]',-125078.6,-199770,-89038.48,-604.7041,-375000,-375000,-151053.9,-220002.1,0.02,0.00,0.88,-4,0,-2,5,0
'[13:17:01.828 21/01/2026]',-125077.5,-199786.9,-89038.71,-612.0355,-375000,-375000,-151055.9,-219958,0.02,0.00,0.88,-4,0,-2,5,0
'[13:17:01.832 21/01/2026]',-125072.6,-199840.4,-89037.01,-621.5126,-375000,-375000,-151056.9,-220286.4,0.02,0.00,0.88,-4,0,-2,5,0
'[13:17:01.836 21/01/2026]',-125069.2,-199826.6,-89033.61,-615.6117,-375000,-375000,-151056.9,-220351.7,0.03,0.00,0.88,-4,0,-2,5,0
'[13:17:01.840 21/01/2026]',-125091,-199793.9,-89052.66,-624.8654,-375000,-375000,-151078.6,-220056.5,0.03,0.00,0.88,-4,0,-2,5,0
'[13:17:01.844 21/01/2026]',-125091.7,-199797.9,-89051.94,-639.0811,-375000,-375000,-151075.9,-220000.9,0.03,0.00,0.88,-4,0,-2,5,0
'[13:17:01.848 21/01/2026]',-125078.1,-199835.4,-89050.6,-640.601,-375000,-375000,-151071.7,-220241.3,0.03,0.00,0.88,-4,0,-2,5,0
'[13:17:01.852 21/01/2026]',-125066.6,-199836.5,-89047.83,-630.7215,-375000,-375000,-151066.1,-220342,0.03,0.00,0.88,-4,0,-2,5,0
'[13:17:01.856 21/01/2026]',-125085,-199786.6,-89058.51,-627.2346,-375000,-375000,-151080.7,-220092.5,0.03,0.00,0.88,-4,0,-2,5,0
'[13:17:01.860 21/01/2026]',-125091.6,-199776.6,-89061.55,-628.7993,-375000,-375000,-151082.6,-219885.5,0.03,0.00,0.88,-4,0,-2,5,0
'[13:17:01.864 21/01/2026]',-125084.7,-199822.6,-89052.61,-630.8556,-375000,-375000,-151070.7,-220036,0.03,0.00,0.88,-4,0,-2,5,0
'[13:17:01.868 21/01/2026]',-125077.3,-199845.7,-89052.34,-634.8789,-375000,-375000,-151066.7,-220366.8,0.03,0.00,0.88,-4,0,-2,5,0
'[13:17:01.872 21/01/2026]',-125085,-199796.5,-89066.29,-629.7827,-375000,-375000,-151084.1,-220152.7,0.02,0.00,0.88,-4,0,-2,5,0
'[13:17:01.876 21/01/2026]',-125103.1,-199782.3,-89073.76,-642.2103,-375000,-375000,-151095.4,-219820.9,0.02,0.00,0.88,-4,0,-2,5,0
'[13:17:01.880 21/01/2026]',-125099.4,-199822.3,-89069.77,-652.7603,-375000,-375000,-151095.5,-220001.1,0.02,0.00,0.88,-4,0,-2,5,0
'[13:17:01.884 21/01/2026]',-125089.8,-199855.5,-89061.91,-649.3182,-375000,-375000,-151091.3,-220213.7,0.02,0.00,0.88,-4,0,-2,5,0
'[13:17:01.888 21/01/2026]',-125086.7,-199815.7,-89057.21,-634.8342,-375000,-375000,-151084.4,-220117.4,0.02,0.00,0.88,-4,0,-2,5,0
'[13:17:01.892 21/01/2026]',-125084,-199782,-89051.9,-628.4863,-375000,-375000,-151078.1,-219953.2,0.02,0.00,0.88,-4,0,-2,5,0
'[13:17:01.896 21/01/2026]',-125070.1,-199807.2,-89043.18,-626.9217,-375000,-375000,-151076,-220070.7,0.02,0.00,0.88,-4,0,-2,5,0
'[13:17:01.900 21/01/2026]',-125064.4,-199835.9,-89037.68,-620.9761,-375000,-375000,-151066.6,-220245.9,0.02,0.00,0.88,-4,0,-2,5,0
'[13:17:01.904 21/01/2026]',-125069.4,-199804.5,-89040.54,-616.6846,-375000,-375000,-151069.2,-220211.8,0.02,0.00,0.88,-4,0,-2,5,0
'[13:17:01.908 21/01/2026]',-125079,-199773,-89047.07,-617.534,-375000,-375000,-151077.2,-219881.7,0.03,0.00,0.86,-4,0,-2,5,0
'[13:17:01.912 21/01/2026]',-125068.6,-199802.1,-89039.16,-624.91,-375000,-375000,-151064.9,-220146.3,0.03,0.00,0.86,-4,0,-2,5,0
'[13:17:01.916 21/01/2026]',-125056,-199829.3,-89032.9,-615.8353,-375000,-375000,-151057.4,-220349.4,0.03,0.00,0.86,-4,0,-2,5,0
'[13:17:01.920 21/01/2026]',-125056.1,-199811.5,-89031.24,-611.5884,-375000,-375000,-151063.5,-220337.6,0.03,0.00,0.86,-4,0,-2,5,0
'[13:17:01.924 21/01/2026]',-125062.8,-199771.8,-89029.95,-611.7225,-375000,-375000,-151067.5,-220107.5,0.03,0.00,0.86,-4,0,-2,5,0
'[13:17:01.928 21/01/2026]',-125061.4,-199779.3,-89030.35,-611.2755,-375000,-375000,-151063.3,-220051.7,0.03,0.00,0.86,-4,0,-2,5,0
'[13:17:01.932 21/01/2026]',-125058.3,-199820.5,-89027.09,-608.8615,-375000,-375000,-151058.8,-220192,0.03,0.00,0.86,-4,0,-2,5,0
'[13:17:01.936 21/01/2026]',-125048,-199806.3,-89020.06,-603.1841,-375000,-375000,-151047.7,-220280.8,0.03,0.00,0.86,-4,0,-2,5,0
'[13:17:01.940 21/01/2026]',-125063.9,-199765.3,-89040.72,-611.499,-375000,-375000,-151067.5,-219985.9,0.03,0.00,0.86,-4,0,-2,5,0
'[13:17:01.944 21/01/2026]',-125063.9,-199775.9,-89035.8,-621.5573,-375000,-375000,-151065.4,-219940.2,0.02,0.02,0.89,-4,0,-2,5,0
'[13:17:01.948 21/01/2026]',-125056.6,-199813.3,-89031.96,-618.7856,-375000,-375000,-151065.6,-220192.8,0.02,0.02,0.89,-4,0,-2,5,0
'[13:17:01.952 21/01/2026]',-125052.4,-199819.5,-89033.79,-613.5107,-375000,-375000,-151066.2,-220304.1,0.02,0.02,0.89,-4,0,-2,5,0
'[13:17:01.956 21/01/2026]',-125062.9,-199774.6,-89038.98,-611.5884,-375000,-375000,-151074.4,-220079.5,0.02,0.02,0.89,-4,0,-2,5,0
'[13:17:01.960 21/01/2026]',-125063.9,-199764.9,-89029.41,-615.2988,-375000,-375000,-151069.8,-219948.8,0.02,0.02,0.89,-4,0,-2,5,0
'[13:17:01.964 21/01/2026]',-125053.8,-199802.3,-89022.93,-613.3765,-375000,-375000,-151066.1,-220088.5,0.02,0.02,0.89,-4,0,-2,5,0
'[13:17:01.968 21/01/2026]',-125049.8,-199825.8,-89021.67,-612.8401,-375000,-375000,-151062.3,-220297.4,0.02,0.02,0.89,-4,0,-2,5,0
'[13:17:01.972 21/01/2026]',-125051.6,-199773,-89032.72,-604.4359,-375000,-375000,-151070.5,-220083.3,0.02,0.02,0.89,-4,0,-2,5,0
'[13:17:01.976 21/01/2026]',-125057.8,-199762.1,-89036.65,-614.2706,-375000,-375000,-151076.7,-219858.7,0.02,0.02,0.89,-4,0,-2,5,0
'[13:17:01.980 21/01/2026]',-125050.6,-199797.9,-89024.58,-613.8236,-375000,-375000,-151061.8,-220163.8,0.02,0.02,0.88,-4,0,-2,5,0
'[13:17:01.984 21/01/2026]',-125045.5,-199820.7,-89024.05,-612.9742,-375000,-375000,-151062.1,-220343,0.02,0.02,0.88,-4,0,-2,5,0
'[13:17:01.988 21/01/2026]',-125051.3,-199786.1,-89034.86,-613.0189,-375000,-375000,-151067,-220234.8,0.02,0.02,0.88,-4,0,-2,5,0
'[13:17:01.992 21/01/2026]',-125063.1,-199761.4,-89040.67,-617.534,-375000,-375000,-151069.8,-220004.9,0.02,0.02,0.88,-4,0,-2,5,0
'[13:17:01.996 21/01/2026]',-125058.7,-199787.7,-89031.96,-617.6234,-375000,-375000,-151064.6,-220078.8,0.02,0.02,0.88,-4,0,-2,5,0
'[13:17:02.000 21/01/2026]',-125043.9,-199814.3,-89020.29,-611.6778,-375000,-375000,-151056.8,-220292.7,0.02,0.02,0.88,-4,0,-2,5,0
'[13:17:02.004 21/01/2026]',-125043.7,-199778.4,-89022.7,-605.017,-375000,-375000,-151060.5,-220186.5,0.02,0.02,0.88,-4,0,-2,5,0
'[13:17:02.008 21/01/2026]',-125055.6,-199746.9,-89031.29,-604.7488,-375000,-375000,-151067.2,-219813.8,0.02,0.02,0.88,-4,0,-2,5,0
'[13:17:02.012 21/01/2026]',-125040.5,-199767.4,-89017.25,-604.2123,-375000,-375000,-151047.9,-219935.6,0.02,0.02,0.88,-4,0,-2,5,0
'[13:17:02.016 21/01/2026]',-125040.1,-199813.9,-89018.95,-612.7507,-375000,-375000,-151052.3,-220310.9,0.03,0.00,0.89,-4,0,-2,5,0
'[13:17:02.020 21/01/2026]',-125042.9,-199789.2,-89023.38,-606.9393,-375000,-375000,-151057.5,-220334,0.03,0.00,0.89,-4,0,-2,5,0
'[13:17:02.024 21/01/2026]',-125053,-199751.5,-89030.21,-609.6215,-375000,-375000,-151065.7,-220083.6,0.03,0.00,0.89,-4,0,-2,5,0
'[13:17:02.028 21/01/2026]',-125052.4,-199766.6,-89026.37,-615.0753,-375000,-375000,-151066.5,-220056.9,0.03,0.00,0.89,-4,0,-2,5,0
'[13:17:02.032 21/01/2026]',-125045.3,-199807.3,-89022.34,-619.188,-375000,-375000,-151066.9,-220251.7,0.03,0.00,0.89,-4,0,-2,5,0
'[13:17:02.036 21/01/2026]',-125041.5,-199800.7,-89022.57,-610.9626,-375000,-375000,-151061.5,-220323.5,0.03,0.00,0.89,-4,0,-2,5,0
'[13:17:02.040 21/01/2026]',-125056.6,-199752.4,-89031.55,-606.1346,-375000,-375000,-151073.7,-219943.8,0.03,0.00,0.89,-4,0,-2,5,0
'[13:17:02.044 21/01/2026]',-125056.3,-199762.6,-89021.9,-620.5738,-375000,-375000,-151064.8,-220005.3,0.03,0.00,0.89,-4,0,-2,5,0
'[13:17:02.048 21/01/2026]',-125046.5,-199796.1,-89012.82,-616.774,-375000,-375000,-151060.5,-220277.6,0.03,0.00,0.89,-4,0,-2,5,0
'[13:17:02.052 21/01/2026]',-125041,-199802.5,-89014.57,-613.7342,-375000,-375000,-151058.6,-220379.2,0.02,0.00,0.86,-4,0,-2,5,0
'[13:17:02.056 21/01/2026]',-125054.4,-199763.5,-89030.3,-614.9859,-375000,-375000,-151072,-220174.2,0.02,0.00,0.86,-4,0,-2,5,0
'[13:17:02.060 21/01/2026]',-125060.8,-199758.3,-89033.34,-620.6632,-375000,-375000,-151073.4,-220042.4,0.02,0.00,0.86,-4,0,-2,5,0
'[13:17:02.064 21/01/2026]',-125057.6,-199802.8,-89033.08,-626.7429,-375000,-375000,-151077.8,-220190.3,0.02,0.00,0.86,-4,0,-2,5,0
'[13:17:02.068 21/01/2026]',-125046.1,-199812.7,-89029.81,-617.6681,-375000,-375000,-151064.3,-220299.8,0.02,0.00,0.86,-4,0,-2,5,0
'[13:17:02.072 21/01/2026]',-125054.3,-199769.6,-89040.95,-613.1978,-375000,-375000,-151066.1,-220048.5,0.02,0.00,0.86,-4,0,-2,5,0
'[13:17:02.076 21/01/2026]',-125060,-199755.9,-89038.8,-621.7808,-375000,-375000,-151068.6,-219876.1,0.02,0.00,0.86,-4,0,-2,5,0
'[13:17:02.080 21/01/2026]',-125045.1,-199782.3,-89017.3,-619.5457,-375000,-375000,-151053.7,-220124.6,0.02,0.00,0.86,-4,0,-2,5,0
'[13:17:02.084 21/01/2026]',-125035,-199806.9,-89007.64,-613.6448,-375000,-375000,-151043.4,-220316.2,0.02,0.00,0.86,-4,0,-2,5,0
'[13:17:02.088 21/01/2026]',-125048.1,-199778.4,-89020.6,-616.1482,-375000,-375000,-151052.1,-220300.7,0.03,0.00,0.88,-4,0,-2,5,0
'[13:17:02.092 21/01/2026]',-125065.4,-199753.1,-89033.34,-622.496,-375000,-375000,-151066.6,-220055.8,0.03,0.00,0.88,-4,0,-2,5,0
'[13:17:02.096 21/01/2026]',-125053.4,-199784.4,-89021.41,-621.5573,-375000,-375000,-151059.4,-220200.1,0.03,0.00,0.88,-4,0,-2,5,0
'[13:17:02.100 21/01/2026]',-125045.4,-199821.3,-89018.91,-623.4796,-375000,-375000,-151063,-220465.8,0.03,0.00,0.88,-4,0,-2,5,0
'[13:17:02.104 21/01/2026]',-125041.1,-199780.4,-89025.16,-612.3931,-375000,-375000,-151063.2,-220330.3,0.03,0.00,0.88,-4,0,-2,5,0
'[13:17:02.108 21/01/2026]',-125058.4,-199747.4,-89043.8,-620.6632,-375000,-375000,-151079.8,-219919.4,0.03,0.00,0.88,-4,0,-2,5,0
'[13:17:02.112 21/01/2026]',-125045.9,-199766.4,-89020.73,-619.4562,-375000,-375000,-151058,-220062.8,0.03,0.00,0.88,-4,0,-2,5,0
'[13:17:02.116 21/01/2026]',-125035.2,-199804.5,-89012.42,-614.0471,-375000,-375000,-151055.6,-220401.9,0.03,0.00,0.88,-4,0,-2,5,0
'[13:17:02.120 21/01/2026]',-125041.1,-199786.7,-89027.22,-613.7789,-375000,-375000,-151066.4,-220436.6,0.03,0.00,0.88,-4,0,-2,5,0
'[13:17:02.124 21/01/2026]',-125053.3,-199747.4,-89031.29,-614.9859,-375000,-375000,-151069.6,-220100.2,0.03,-0.02,0.88,-4,0,-2,5,0
'[13:17:02.128 21/01/2026]',-125051.6,-199761.6,-89022.52,-618.9198,-375000,-375000,-151071.5,-220012.7,0.03,-0.02,0.88,-4,0,-2,5,0
'[13:17:02.132 21/01/2026]',-125040.8,-199803.3,-89017.25,-623.7477,-375000,-375000,-151069.8,-220218,0.03,-0.02,0.88,-4,0,-2,5,0
'[13:17:02.136 21/01/2026]',-125034.6,-199790.3,-89016.89,-614.5388,-375000,-375000,-151062.9,-220274.7,0.03,-0.02,0.88,-4,0,-2,5,0
'[13:17:02.140 21/01/2026]',-125048.8,-199740.4,-89029.23,-608.5933,-375000,-375000,-151066.5,-219921.4,0.03,-0.02,0.88,-4,0,-2,5,0
'[13:17:02.144 21/01/2026]',-125044.7,-199744.4,-89024,-617.8916,-375000,-375000,-151057.8,-219869.1,0.03,-0.02,0.88,-4,0,-2,5,0
'[13:17:02.148 21/01/2026]',-125026.8,-199779.7,-89005.67,-610.8284,-375000,-375000,-151042.6,-220171,0.03,-0.02,0.88,-4,0,-2,5,0
'[13:17:02.152 21/01/2026]',-125020.7,-199772.8,-88997,-599.2056,-375000,-375000,-151031.7,-220233.1,0.03,-0.02,0.88,-4,0,-2,5,0
'[13:17:02.156 21/01/2026]',-125023.3,-199717.7,-88997.49,-594.6011,-375000,-375000,-151038.9,-219937.3,0.03,-0.02,0.88,-4,0,-2,5,0
'[13:17:02.160 21/01/2026]',-125026.3,-199719,-88999.1,-603.5418,-375000,-375000,-151043.2,-219875.7,0.03,0.02,0.88,-4,0,-2,5,0
'[13:17:02.164 21/01/2026]',-125028.5,-199766.9,-89005.8,-610.292,-375000,-375000,-151047.8,-220099.2,0.03,0.02,0.88,-4,0,-2,5,0
'[13:17:02.168 21/01/2026]',-125027.6,-199790.5,-89004.24,-610.0238,-375000,-375000,-151046.6,-220308.8,0.03,0.02,0.88,-4,0,-2,5,0
'[13:17:02.172 21/01/2026]',-125044,-199755.2,-89017.56,-610.2026,-375000,-375000,-151055.9,-220053.5,0.03,0.02,0.88,-4,0,-2,5,0
'[13:17:02.176 21/01/2026]',-125056,-199741.8,-89028.07,-619.188,-375000,-375000,-151063.8,-219796.9,0.03,0.02,0.88,-4,0,-2,5,0
'[13:17:02.180 21/01/2026]',-125040.8,-199778.8,-89014.61,-618.741,-375000,-375000,-151051.4,-220128.8,0.03,0.02,0.88,-4,0,-2,5,0
'[13:17:02.184 21/01/2026]',-125030.6,-199800.1,-89007.05,-611.946,-375000,-375000,-151045.3,-220345,0.03,0.02,0.88,-4,0,-2,5,0
'[13:17:02.188 21/01/2026]',-125041.4,-199762.4,-89022.84,-612.4825,-375000,-375000,-151056.4,-220227.8,0.03,0.02,0.88,-4,0,-2,5,0
'[13:17:02.192 21/01/2026]',-125048.8,-199735.6,-89025.74,-612.9295,-375000,-375000,-151059.6,-220036.4,0.03,0.02,0.88,-4,0,-2,5,0
'[13:17:02.196 21/01/2026]',-125038.8,-199766.6,-89014.08,-609.2191,-375000,-375000,-151054.3,-220155.4,0.02,0.00,0.89,-4,0,-2,5,0
'[13:17:02.200 21/01/2026]',-125039.5,-199802.9,-89012.6,-610.5155,-375000,-375000,-151055,-220413.1,0.02,0.00,0.89,-4,0,-2,5,0
'[13:17:02.204 21/01/2026]',-125043,-199772.9,-89018.77,-607.3863,-375000,-375000,-151061.2,-220365.3,0.02,0.00,0.89,-4,0,-2,5,0
'[13:17:02.208 21/01/2026]',-125051.6,-199742,-89025.16,-612.0801,-375000,-375000,-151071.9,-220045,0.02,0.00,0.89,-4,0,-2,5,0
'[13:17:02.212 21/01/2026]',-125042.2,-199761.2,-89008.13,-618.7856,-375000,-375000,-151060.4,-220215.1,0.02,0.00,0.89,-4,0,-2,5,0
'[13:17:02.216 21/01/2026]',-125033.7,-199790.2,-89003.57,-612.3036,-375000,-375000,-151054.5,-220468.5,0.02,0.00,0.89,-4,0,-2,5,0
'[13:17:02.220 21/01/2026]',-125034.8,-199770,-89013.9,-607.5651,-375000,-375000,-151052.8,-220448.2,0.02,0.00,0.89,-4,0,-2,5,0
'[13:17:02.224 21/01/2026]',-125043.1,-199732.6,-89019.89,-607.118,-375000,-375000,-151054.2,-220165.6,0.02,0.00,0.89,-4,0,-2,5,0
'[13:17:02.228 21/01/2026]',-125037.9,-199740.6,-89009.83,-605.2405,-375000,-375000,-151053.6,-220115.7,0.02,0.00,0.89,-4,0,-2,5,0
'[13:17:02.232 21/01/2026]',-125028.7,-199782.3,-89001.42,-607.0286,-375000,-375000,-151046.4,-220334.6,0.02,0.00,0.88,-4,0,-2,5,0
'[13:17:02.236 21/01/2026]',-125027.6,-199776.8,-89005.8,-602.2007,-375000,-375000,-151040.1,-220406.1,0.02,0.00,0.88,-4,0,-2,5,0
'[13:17:02.240 21/01/2026]',-125046.6,-199734.8,-89027.13,-605.5981,-375000,-375000,-151059.4,-220066.4,0.02,0.00,0.88,-4,0,-2,5,0
'[13:17:02.244 21/01/2026]',-125049.3,-199744.8,-89020.02,-617.2657,-375000,-375000,-151062.2,-220010.5,0.02,0.00,0.88,-4,0,-2,5,0
'[13:17:02.248 21/01/2026]',-125032.3,-199781.4,-89004.2,-611.946,-375000,-375000,-151044,-220335.6,0.02,0.00,0.88,-4,0,-2,5,0
'[13:17:02.252 21/01/2026]',-125023,-199775.7,-89001.83,-600.3679,-375000,-375000,-151037.6,-220416.8,0.02,0.00,0.88,-4,0,-2,5,0
'[13:17:02.256 21/01/2026]',-125033.5,-199735.8,-89015.33,-601.4854,-375000,-375000,-151047.9,-220151.8,0.02,0.00,0.88,-4,0,-2,5,0
'[13:17:02.260 21/01/2026]',-125048.7,-199744.9,-89027.27,-617.4446,-375000,-375000,-151061.7,-220131.1,0.02,0.00,0.88,-4,0,-2,5,0
'[13:17:02.264 21/01/2026]',-125044.8,-199787.2,-89023.33,-617.8469,-375000,-375000,-151066,-220308.3,0.02,0.00,0.88,-4,0,-2,5,0
'[13:17:02.268 21/01/2026]',-125033.9,-199797.9,-89015.1,-608.7274,-375000,-375000,-151055.4,-220531.9,0.02,0.00,0.88,-4,0,-2,5,0
'[13:17:02.272 21/01/2026]',-125038.5,-199742.8,-89025.12,-600.2337,-375000,-375000,-151061.1,-220298.6,0.02,0.00,0.88,-4,0,-2,5,0
'[13:17:02.276 21/01/2026]',-125051.9,-199739,-89029.27,-611.6331,-375000,-375000,-151068.7,-220021.1,0.02,0.00,0.88,-4,0,-2,5,0
'[13:17:02.280 21/01/2026]',-125037,-199778.3,-89011.08,-612.9742,-375000,-375000,-151054.3,-220318.7,0.02,0.00,0.88,-4,0,-2,5,0
'[13:17:02.284 21/01/2026]',-125031.3,-199797.3,-89008.84,-607.6098,-375000,-375000,-151053.2,-220498.1,0.02,0.00,0.88,-4,0,-2,5,0
'[13:17:02.288 21/01/2026]',-125035.3,-199754.6,-89014.88,-600.5914,-375000,-375000,-151058.8,-220328,0.02,0.00,0.88,-4,0,-2,5,0
'[13:17:02.292 21/01/2026]',-125040.4,-199728.7,-89012.51,-599.2502,-375000,-375000,-151058.9,-220068.4,0.02,0.00,0.88,-4,0,-2,5,0
'[13:17:02.296 21/01/2026]',-125037,-199759.9,-89004.64,-600.7255,-375000,-375000,-151055.4,-220127.4,0.02,0.00,0.88,-4,0,-2,5,0
'[13:17:02.300 21/01/2026]',-125039.8,-199797.6,-89014.21,-607.5651,-375000,-375000,-151060,-220322.1,0.02,0.00,0.88,-4,0,-2,5,0
'[13:17:02.304 21/01/2026]',-125038.6,-199760.8,-89025.92,-600.6808,-375000,-375000,-151058.5,-220204.3,0.02,0.00,0.88,-4,0,-2,5,0
'[13:17:02.308 21/01/2026]',-125051.5,-199733.8,-89037.41,-606.1793,-375000,-375000,-151067.3,-219850.1,0.02,0.00,0.88,-4,0,-2,5,0
'[13:17:02.312 21/01/2026]',-125040.4,-199756.8,-89017.3,-610.4708,-375000,-375000,-151055.5,-220032.8,0.02,0.00,0.88,-4,0,-2,5,0
'[13:17:02.316 21/01/2026]',-125037.3,-199792.4,-89014.66,-607.6992,-375000,-375000,-151055.3,-220298.1,0.02,0.00,0.88,-4,0,-2,5,0
'[13:17:02.320 21/01/2026]',-125035.5,-199770.8,-89017.79,-600.5914,-375000,-375000,-151052.9,-220279.2,0.02,0.00,0.88,-4,0,-2,5,0
'[13:17:02.324 21/01/2026]',-125040.2,-199730.1,-89021.95,-600.9937,-375000,-375000,-151059.3,-220035,0.02,0.00,0.88,-4,0,-2,5,0
'[13:17:02.328 21/01/2026]',-125040.2,-199745.1,-89020.42,-603.0947,-375000,-375000,-151061.2,-220014.1,0.02,0.00,0.88,-4,0,-2,5,0
'[13:17:02.332 21/01/2026]',-125035.4,-199788.3,-89015.46,-600.7701,-375000,-375000,-151059.2,-220233.1,0.02,0.00,0.88,-4,0,-2,5,0
'[13:17:02.336 21/01/2026]',-125028.5,-199776.7,-89011.39,-592.8129,-375000,-375000,-151056.6,-220305.4,0.02,0.00,0.88,-4,0,-2,5,0
'[13:17:02.340 21/01/2026]',-125040.8,-199729.1,-89020.83,-585.9733,-375000,-375000,-151057.3,-219963.9,0.02,0.00,0.88,-4,0,-2,5,0
'[13:17:02.344 21/01/2026]',-125046.3,-199746,-89019.89,-599.742,-375000,-375000,-151058.3,-219900.9,0.02,0.00,0.88,-4,0,-2,5,0
'[13:17:02.348 21/01/2026]',-125030.1,-199781.9,-89005.76,-595.8081,-375000,-375000,-151052.4,-220189,0.02,0.00,0.88,-4,0,-2,5,0
'[13:17:02.352 21/01/2026]',-125023,-199778.5,-89003.08,-589.7731,-375000,-375000,-151047.3,-220273.8,0.02,0.00,0.88,-4,0,-2,5,0
'[13:17:02.356 21/01/2026]',-125037.3,-199738,-89021.9,-595.9422,-375000,-375000,-151059.9,-220120.8,0.02,0.00,0.88,-4,0,-2,5,0
'[13:17:02.360 21/01/2026]',-125046.4,-199735.8,-89021.67,-600.5466,-375000,-375000,-151064.7,-219981.3,0.02,0.00,0.88,-4,0,-2,5,0
'[13:17:02.364 21/01/2026]',-125039.8,-199781.9,-89013.23,-601.4854,-375000,-375000,-151054.7,-220206,0.02,0.00,0.88,-4,0,-2,5,0
'[13:17:02.368 21/01/2026]',-125032.2,-199788,-89005.18,-589.6837,-375000,-375000,-151044.9,-220330.8,0.02,0.00,0.88,-4,0,-2,5,0
'[13:17:02.372 21/01/2026]',-125039.5,-199743.9,-89019.66,-589.2814,-375000,-375000,-151058.1,-220086.9,0.02,0.00,0.88,-4,0,-2,5,0
'[13:17:02.376 21/01/2026]',-125048.7,-199733,-89020.87,-591.9189,-375000,-375000,-151054.5,-219847.5,0.03,0.00,0.89,-4,0,-2,5,0
'[13:17:02.380 21/01/2026]',-125045.6,-199778.8,-89008.48,-597.775,-375000,-375000,-151046.7,-220157,0.03,0.00,0.89,-4,0,-2,5,0
'[13:17:02.384 21/01/2026]',-125042.3,-199804.7,-89004.46,-593.707,-375000,-375000,-151045.7,-220376.7,0.03,0.00,0.89,-4,0,-2,5,0
'[13:17:02.388 21/01/2026]',-125049.8,-199762.9,-89018.01,-592.1871,-375000,-375000,-151054.6,-220238.2,0.03,0.00,0.89,-4,0,-2,5,0
'[13:17:02.392 21/01/2026]',-125063.9,-199746.7,-89034.37,-606.0005,-375000,-375000,-151070.6,-220024.2,0.03,0.00,0.89,-4,0,-2,5,0
'[13:17:02.396 21/01/2026]',-125060.5,-199781,-89026.91,-610.6943,-375000,-375000,-151068.8,-220130.8,0.03,0.00,0.89,-4,0,-2,5,0
'[13:17:02.400 21/01/2026]',-125047.1,-199811,-89011.39,-604.5699,-375000,-375000,-151058.4,-220371.5,0.03,0.00,0.89,-4,0,-2,5,0
'[13:17:02.404 21/01/2026]',-125046,-199775.1,-89017.43,-593.9752,-375000,-375000,-151057.8,-220292.5,0.03,0.00,0.89,-4,0,-2,5,0
'[13:17:02.408 21/01/2026]',-125067.9,-199745.6,-89033.79,-599.9208,-375000,-375000,-151072,-219962.6,0.03,0.00,0.89,-4,0,-2,5,0
'[13:17:02.412 21/01/2026]',-125062.8,-199773.3,-89028.34,-610.1132,-375000,-375000,-151066.5,-220166.7,0.02,0.00,0.89,-4,0,-2,5,0
'[13:17:02.416 21/01/2026]',-125050.7,-199805,-89011.44,-601.3066,-375000,-375000,-151055.5,-220431.2,0.02,0.00,0.89,-4,0,-2,5,0
'[13:17:02.420 21/01/2026]',-125048.4,-199785.2,-89013.18,-596.1657,-375000,-375000,-151060.8,-220401.3,0.02,0.00,0.89,-4,0,-2,5,0
'[13:17:02.424 21/01/2026]',-125061.7,-199751.1,-89035.35,-605.017,-375000,-375000,-151070.2,-220116.8,0.02,0.00,0.89,-4,0,-2,5,0
'[13:17:02.428 21/01/2026]',-125063.6,-199767.7,-89037.14,-607.6992,-375000,-375000,-151062.7,-220080.6,0.02,0.00,0.89,-4,0,-2,5,0
'[13:17:02.432 21/01/2026]',-125061.9,-199813.9,-89037.23,-612.7507,-375000,-375000,-151065,-220281.3,0.02,0.00,0.89,-4,0,-2,5,0
'[13:17:02.436 21/01/2026]',-125055.2,-199797.8,-89033.74,-601.5748,-375000,-375000,-151060.4,-220331.3,0.02,0.00,0.89,-4,0,-2,5,0
'[13:17:02.440 21/01/2026]',-125068.9,-199745.8,-89048.36,-600.5466,-375000,-375000,-151076,-219999.1,0.02,0.00,0.89,-4,0,-2,5,0
'[13:17:02.444 21/01/2026]',-125058.8,-199742.2,-89032.36,-603.363,-375000,-375000,-151076.5,-219884.9,0.02,0.00,0.89,-4,0,-2,5,0
'[13:17:02.448 21/01/2026]',-125063.7,-199821.1,-89025.74,-611.6331,-375000,-375000,-151069.8,-220341.7,0.02,0.00,0.88,-4,0,-2,5,0
'[13:17:02.452 21/01/2026]',-125082.7,-199849.6,-89035.27,-611.4543,-375000,-375000,-151068.2,-220448.3,0.02,0.00,0.88,-4,0,-2,5,0
'[13:17:02.456 21/01/2026]',-125090.1,-199801.8,-89047.29,-611.2755,-375000,-375000,-151075.6,-220160.3,0.02,0.00,0.88,-4,0,-2,5,0
'[13:17:02.460 21/01/2026]',-125083.1,-199800,-89046.66,-617.8916,-375000,-375000,-151072,-220065.6,0.02,0.00,0.88,-4,0,-2,5,0
'[13:17:02.464 21/01/2026]',-125075.4,-199850.3,-89046.98,-629.738,-375000,-375000,-151075.9,-220341,0.02,0.00,0.88,-4,0,-2,5,0
'[13:17:02.468 21/01/2026]',-125066.1,-199852.4,-89041.26,-620.2609,-375000,-375000,-151066.8,-220462.5,0.02,0.00,0.88,-4,0,-2,5,0
'[13:17:02.472 21/01/2026]',-125090.9,-199817.3,-89060.43,-620.8867,-375000,-375000,-151081.6,-220223.2,0.02,0.00,0.88,-4,0,-2,5,0
'[13:17:02.476 21/01/2026]',-125095.2,-199801.4,-89060.7,-622.8984,-375000,-375000,-151085.7,-219918.7,0.02,0.00,0.88,-4,0,-2,5,0
'[13:17:02.480 21/01/2026]',-125080,-199837,-89044.3,-623.6136,-375000,-375000,-151073,-220197.8,0.02,0.00,0.88,-4,0,-2,5,0
'[13:17:02.484 21/01/2026]',-125070.3,-199852.7,-89037.1,-612.9295,-375000,-375000,-151064.7,-220397.9,0.02,0.00,0.89,-4,0,-2,5,0
'[13:17:02.488 21/01/2026]',-125067.1,-199809.8,-89032.98,-604.5253,-375000,-375000,-151070,-220216.8,0.02,0.00,0.89,-4,0,-2,5,0
'[13:17:02.492 21/01/2026]',-125070.2,-199791.7,-89024.63,-608.9509,-375000,-375000,-151076.3,-220024,0.02,0.00,0.89,-4,0,-2,5,0
'[13:17:02.496 21/01/2026]',-125073.8,-199831.4,-89033.56,-620.5738,-375000,-375000,-151082.8,-220155.8,0.02,0.00,0.89,-4,0,-2,5,0
'[13:17:02.500 21/01/2026]',-125067.1,-199855.8,-89038.44,-619.5457,-375000,-375000,-151074,-220414.8,0.02,0.00,0.89,-4,0,-2,5,0
'[13:17:02.504 21/01/2026]',-125058.6,-199808.3,-89037.45,-602.8712,-375000,-375000,-151056.9,-220311.2,0.02,0.00,0.89,-4,0,-2,5,0
'[13:17:02.508 21/01/2026]',-125071.1,-199777.6,-89044.52,-602.2007,-375000,-375000,-151065.6,-219946.3,0.02,0.00,0.89,-4,0,-2,5,0
'[13:17:02.512 21/01/2026]',-125065,-199802.4,-89027.3,-610.739,-375000,-375000,-151061,-220127.3,0.02,0.00,0.89,-4,0,-2,5,0
'[13:17:02.516 21/01/2026]',-125060.2,-199839,-89024.8,-612.1696,-375000,-375000,-151059.3,-220445,0.02,0.00,0.89,-4,0,-2,5,0
'[13:17:02.520 21/01/2026]',-125063,-199818.3,-89034.41,-607.7439,-375000,-375000,-151065.7,-220421.8,0.02,0.00,0.89,-4,0,-2,5,0
'[13:17:02.524 21/01/2026]',-125070.5,-199773.9,-89040.36,-602.7371,-375000,-375000,-151068.6,-220107,0.02,0.00,0.89,-4,0,-2,5,0
'[13:17:02.528 21/01/2026]',-125065.3,-199794.7,-89036.52,-606.1346,-375000,-375000,-151069.2,-220092.3,0.02,0.00,0.89,-4,0,-2,5,0
'[13:17:02.532 21/01/2026]',-125052.4,-199833.8,-89022.16,-606.4475,-375000,-375000,-151064,-220295.2,0.02,0.00,0.89,-4,0,-2,5,0
'[13:17:02.536 21/01/2026]',-125052.1,-199818.8,-89020.6,-603.81,-375000,-375000,-151060.2,-220316.4,0.02,0.00,0.89,-4,0,-2,5,0
'[13:17:02.540 21/01/2026]',-125057.8,-199770.2,-89037.45,-601.7983,-375000,-375000,-151070.3,-219934.5,0.02,0.00,0.89,-4,0,-2,5,0
'[13:17:02.544 21/01/2026]',-125060.1,-199784.6,-89031.42,-613.1083,-375000,-375000,-151067,-219863.6,0.02,0.00,0.89,-4,0,-2,5,0
'[13:17:02.548 21/01/2026]',-125054.9,-199831.4,-89023.91,-615.3882,-375000,-375000,-151063.3,-220246.3,0.02,0.00,0.89,-4,0,-2,5,0
'[13:17:02.552 21/01/2026]',-125047.3,-199826.5,-89023.82,-607.2075,-375000,-375000,-151059.2,-220365.9,0.02,0.00,0.89,-4,0,-2,5,0
'[13:17:02.556 21/01/2026]',-125062.7,-199781.5,-89039.91,-605.777,-375000,-375000,-151066.6,-220152.9,0.03,0.00,0.88,-4,0,-2,5,0
'[13:17:02.560 21/01/2026]',-125066,-199783.1,-89041.93,-607.3416,-375000,-375000,-151070.1,-220060.5,0.03,0.00,0.88,-4,0,-2,5,0
'[13:17:02.564 21/01/2026]',-125057.1,-199818.1,-89035.98,-606.0899,-375000,-375000,-151072.2,-220254.3,0.03,0.00,0.88,-4,0,-2,5,0
'[13:17:02.568 21/01/2026]',-125047.3,-199824.2,-89026.5,-601.3513,-375000,-375000,-151062.3,-220384.3,0.03,0.00,0.88,-4,0,-2,5,0
'[13:17:02.572 21/01/2026]',-125053.6,-199776.8,-89024.45,-597.1045,-375000,-375000,-151059.8,-220148.3,0.03,0.00,0.88,-4,0,-2,5,0
'[13:17:02.576 21/01/2026]',-125067,-199772.2,-89030.88,-609.0403,-375000,-375000,-151070.6,-219924.5,0.03,0.00,0.88,-4,0,-2,5,0
'[13:17:02.580 21/01/2026]',-125058.3,-199808.2,-89024.49,-612.4378,-375000,-375000,-151064.9,-220202,0.03,0.00,0.88,-4,0,-2,5,0
'[13:17:02.584 21/01/2026]',-125047.8,-199821.2,-89019.84,-602.1113,-375000,-375000,-151055.6,-220370.4,0.03,0.00,0.88,-4,0,-2,5,0
'[13:17:02.588 21/01/2026]',-125049.6,-199776.1,-89026.68,-595.4952,-375000,-375000,-151054.8,-220181.5,0.03,0.00,0.88,-4,0,-2,5,0
'[13:17:02.592 21/01/2026]',-125056.3,-199753.2,-89032.41,-600.7701,-375000,-375000,-151056.9,-219969.8,0.02,0.00,0.88,-4,0,-2,5,0
'[13:17:02.596 21/01/2026]',-125061.9,-199790.8,-89033.84,-608.7274,-375000,-375000,-151058.9,-220064.3,0.02,0.00,0.88,-4,0,-2,5,0
'[13:17:02.600 21/01/2026]',-125056.1,-199821.6,-89027.98,-608.2803,-375000,-375000,-151054.3,-220285.3,0.02,0.00,0.88,-4,0,-2,5,0
'[13:17:02.604 21/01/2026]',-125052.6,-199783.5,-89031.11,-601.396,-375000,-375000,-151055.2,-220175.2,0.02,0.00,0.88,-4,0,-2,5,0
'[13:17:02.608 21/01/2026]',-125067,-199761.9,-89041.34,-606.7158,-375000,-375000,-151068.3,-219819.5,0.02,0.00,0.88,-4,0,-2,5,0
'[13:17:02.612 21/01/2026]',-125058.9,-199789,-89025.2,-612.3036,-375000,-375000,-151060.1,-220006.8,0.02,0.00,0.88,-4,0,-2,5,0
'[13:17:02.616 21/01/2026]',-125046.8,-199816.3,-89015.91,-602.9606,-375000,-375000,-151049.8,-220294.7,0.02,0.00,0.88,-4,0,-2,5,0
'[13:17:02.620 21/01/2026]',-125039.5,-199783.9,-89017.02,-588.7002,-375000,-375000,-151047.1,-220259.8,0.02,0.00,0.88,-4,0,-2,5,0
'[13:17:02.624 21/01/2026]',-125046.4,-199746.3,-89022.57,-588.2979,-375000,-375000,-151057.1,-220000.7,0.02,0.00,0.88,-4,0,-2,5,0
'[13:17:02.628 21/01/2026]',-125047.3,-199768.4,-89020.55,-593.1259,-375000,-375000,-151063.5,-220003.2,0.03,0.00,0.88,-4,0,-2,5,0
'[13:17:02.632 21/01/2026]',-125040.8,-199812.5,-89015.28,-594.4222,-375000,-375000,-151065.8,-220240.5,0.03,0.00,0.88,-4,0,-2,5,0
'[13:17:02.636 21/01/2026]',-125032.3,-199792.1,-89014.26,-586.1521,-375000,-375000,-151062.7,-220299.3,0.03,0.00,0.88,-4,0,-2,5,0
'[13:17:02.640 21/01/2026]',-125048,-199746.2,-89029.72,-588.432,-375000,-375000,-151072.8,-219939.9,0.03,0.00,0.88,-4,0,-2,5,0
'[13:17:02.644 21/01/2026]',-125046.6,-199758.1,-89023.33,-598.1774,-375000,-375000,-151068.5,-219896.4,0.03,0.00,0.88,-4,0,-2,5,0
'[13:17:02.648 21/01/2026]',-125032.3,-199800,-89012.51,-599.742,-375000,-375000,-151062,-220319.4,0.03,0.00,0.88,-4,0,-2,5,0
'[13:17:02.652 21/01/2026]',-125028.8,-199806.4,-89011.88,-596.2104,-375000,-375000,-151057.5,-220578.7,0.03,0.00,0.88,-4,0,-2,5,0
'[13:17:02.656 21/01/2026]',-125042.7,-199758.1,-89023.73,-596.4786,-375000,-375000,-151068.4,-220286.7,0.03,0.00,0.88,-4,0,-2,5,0
'[13:17:02.660 21/01/2026]',-125042.6,-199756.2,-89019.71,-599.1161,-375000,-375000,-151065.9,-220154.3,0.03,0.00,0.88,-4,0,-2,5,0
'[13:17:02.664 21/01/2026]',-125037.4,-199797.9,-89006.84,-595.4952,-375000,-375000,-151059.9,-220299.5,0.02,0.00,0.88,-4,0,-2,5,0
'[13:17:02.668 21/01/2026]',-125030.7,-199805.9,-88998.83,-588.1638,-375000,-375000,-151051.4,-220440,0.02,0.00,0.88,-4,0,-2,5,0
'[13:17:02.672 21/01/2026]',-125042.8,-199763.9,-89023.24,-589.0579,-375000,-375000,-151065.2,-220173.1,0.02,0.00,0.88,-4,0,-2,5,0
'[13:17:02.676 21/01/2026]',-125058.5,-199762,-89036.88,-605.1064,-375000,-375000,-151077.2,-219872.6,0.02,0.00,0.88,-4,0,-2,5,0
'[13:17:02.680 21/01/2026]',-125032.4,-199787.8,-89006.34,-599.8761,-375000,-375000,-151053.3,-220166.6,0.02,0.00,0.88,-4,0,-2,5,0
'[13:17:02.684 21/01/2026]',-125012.7,-199793.3,-88990.83,-580.9218,-375000,-375000,-151035.8,-220369.9,0.02,0.00,0.88,-4,0,-2,5,0
'[13:17:02.688 21/01/2026]',-125025.9,-199756.7,-89012.2,-580.9665,-375000,-375000,-151045.9,-220231.5,0.02,0.00,0.88,-4,0,-2,5,0
'[13:17:02.692 21/01/2026]',-125035.7,-199735.5,-89018.73,-588.0744,-375000,-375000,-151054.4,-219990.6,0.02,0.00,0.88,-4,0,-2,5,0
'[13:17:02.696 21/01/2026]',-125038.7,-199776.5,-89019.93,-601.1278,-375000,-375000,-151065.2,-220097.2,0.02,0.00,0.88,-4,0,-2,5,0
'[13:17:02.700 21/01/2026]',-125033.1,-199811.9,-89021.14,-602.6924,-375000,-375000,-151063.5,-220329.7,0.03,0.00,0.88,-4,0,-2,5,0
'[13:17:02.704 21/01/2026]',-125031.6,-199773.9,-89014.79,-586.3309,-375000,-375000,-151062.7,-220206.6,0.03,0.00,0.88,-4,0,-2,5,0
'[13:17:02.708 21/01/2026]',-125051.4,-199748.5,-89028.42,-590.7119,-375000,-375000,-151080.5,-219836.2,0.03,0.00,0.88,-4,0,-2,5,0
'[13:17:02.712 21/01/2026]',-125047.8,-199777.1,-89022.79,-598.8926,-375000,-375000,-151072.5,-219998.4,0.03,0.00,0.88,-4,0,-2,5,0
'[13:17:02.716 21/01/2026]',-125031.6,-199805,-89009.78,-591.6954,-375000,-375000,-151059.2,-220308.3,0.03,0.00,0.88,-4,0,-2,5,0
'[13:17:02.720 21/01/2026]',-125033.6,-199779.7,-89013.8,-590.6672,-375000,-375000,-151063.2,-220298.5,0.03,0.00,0.88,-4,0,-2,5,0
'[13:17:02.724 21/01/2026]',-125039.1,-199739.7,-89010.41,-587.2697,-375000,-375000,-151064.8,-220032.5,0.03,0.00,0.88,-4,0,-2,5,0
'[13:17:02.728 21/01/2026]',-125036.7,-199758.6,-89001.88,-586.8227,-375000,-375000,-151062.3,-220028.7,0.03,0.00,0.88,-4,0,-2,5,0
'[13:17:02.732 21/01/2026]',-125029.8,-199798.7,-89004.38,-587.538,-375000,-375000,-151063.6,-220281.7,0.03,0.00,0.88,-4,0,-2,5,0
'[13:17:02.736 21/01/2026]',-125023.5,-199779.1,-89005.31,-579.7148,-375000,-375000,-151061.1,-220290.7,0.03,0.00,0.88,-4,0,-2,5,0
'[13:17:02.740 21/01/2026]',-125042.5,-199745.2,-89024.89,-588.7002,-375000,-375000,-151071.2,-219975.8,0.03,0.00,0.88,-4,0,-2,5,0
'[13:17:02.744 21/01/2026]',-125042.3,-199760.3,-89013.54,-598.222,-375000,-375000,-151068.2,-219893.6,0.03,0.00,0.88,-4,0,-2,5,0
'[13:17:02.748 21/01/2026]',-125023.2,-199796,-88996.02,-588.7896,-375000,-375000,-151048.9,-220267.2,0.03,0.00,0.88,-4,0,-2,5,0
'[13:17:02.752 21/01/2026]',-125017.5,-199790.1,-89001.2,-578.5078,-375000,-375000,-151043.3,-220377.3,0.03,0.00,0.88,-4,0,-2,5,0
'[13:17:02.756 21/01/2026]',-125031.8,-199751.4,-89019.22,-582.2182,-375000,-375000,-151054.9,-220148.6,0.03,0.00,0.88,-4,0,-2,5,0
'[13:17:02.760 21/01/2026]',-125032.2,-199746.6,-89017.2,-584.4534,-375000,-375000,-151057.5,-220052.6,0.03,0.00,0.88,-4,0,-2,5,0
'[13:17:02.764 21/01/2026]',-125033.8,-199794.4,-89016.76,-593.0812,-375000,-375000,-151067.7,-220200,0.03,0.00,0.88,-4,0,-2,5,0
'[13:17:02.768 21/01/2026]',-125022.1,-199795.5,-89002.05,-586.018,-375000,-375000,-151062.7,-220307.4,0.03,0.00,0.88,-4,0,-2,5,0
'[13:17:02.772 21/01/2026]',-125031,-199746.8,-89004.73,-580.3854,-375000,-375000,-151069,-220016.1,0.02,0.00,0.89,-4,0,-2,5,0
'[13:17:02.776 21/01/2026]',-125041,-199736.5,-89011.44,-582.8441,-375000,-375000,-151070.8,-219749.9,0.02,0.00,0.89,-4,0,-2,5,0
'[13:17:02.780 21/01/2026]',-125012.5,-199759,-88987.3,-572.9646,-375000,-375000,-151046.8,-220074.6,0.02,0.00,0.89,-4,0,-2,5,0
'[13:17:02.784 21/01/2026]',-124989.4,-199764.3,-88977.33,-557.4972,-375000,-375000,-151033.3,-220278.2,0.02,0.00,0.89,-4,0,-2,5,0
'[13:17:02.788 21/01/2026]',-124990.6,-199719.1,-88987.12,-554.3232,-375000,-375000,-151041.3,-220118.2,0.02,0.00,0.89,-4,0,-2,5,0
'[13:17:02.792 21/01/2026]',-125002.6,-199697.4,-88986,-559.1065,-375000,-375000,-151045.7,-219935.8,0.02,0.00,0.89,-4,0,-2,5,0
'[13:17:02.796 21/01/2026]',-125007.9,-199736.7,-88985.64,-567.4661,-375000,-375000,-151048.5,-220064.3,0.02,0.00,0.89,-4,0,-2,5,0
'[13:17:02.800 21/01/2026]',-125008.3,-199772.1,-88992.84,-573.054,-375000,-375000,-151051.7,-220312.5,0.02,0.00,0.89,-4,0,-2,5,0
'[13:17:02.804 21/01/2026]',-125015,-199738.8,-89003.34,-566.6614,-375000,-375000,-151054.3,-220187.1,0.02,0.00,0.89,-4,0,-2,5,0
'[13:17:02.808 21/01/2026]',-125037.4,-199723.9,-89023.69,-578.642,-375000,-375000,-151075.1,-219849.6,0.03,0.00,0.88,-4,0,-2,5,0
'[13:17:02.812 21/01/2026]',-125029.4,-199759.7,-89015.91,-591.7401,-375000,-375000,-151070,-220047.8,0.03,0.00,0.88,-4,0,-2,5,0
'[13:17:02.816 21/01/2026]',-125012,-199786.8,-89000.66,-580.3854,-375000,-375000,-151055.1,-220360.9,0.03,0.00,0.88,-4,0,-2,5,0
'[13:17:02.820 21/01/2026]',-125016.7,-199760.8,-88999.77,-573.0987,-375000,-375000,-151053.7,-220316,0.03,0.00,0.88,-4,0,-2,5,0
'[13:17:02.824 21/01/2026]',-125031,-199724.9,-89011.39,-582.3076,-375000,-375000,-151064.1,-220072.4,0.03,0.00,0.88,-4,0,-2,5,0
'[13:17:02.828 21/01/2026]',-125030.6,-199749,-89013.49,-591.0695,-375000,-375000,-151065.7,-220084.3,0.03,0.00,0.88,-4,0,-2,5,0
'[13:17:02.832 21/01/2026]',-125031,-199801.5,-89018.68,-597.1939,-375000,-375000,-151071.8,-220323.1,0.03,0.00,0.88,-4,0,-2,5,0
'[13:17:02.836 21/01/2026]',-125021.4,-199774.4,-89014.34,-582.8441,-375000,-375000,-151065.8,-220337.6,0.03,0.00,0.88,-4,0,-2,5,0
'[13:17:02.840 21/01/2026]',-125032.4,-199727.5,-89015.46,-581.5923,-375000,-375000,-151072,-219971.6,0.03,0.00,0.88,-4,0,-2,5,0
'[13:17:02.844 21/01/2026]',-125024.9,-199734,-89000.17,-583.4699,-375000,-375000,-151059.4,-219941.9,0.03,0.00,0.88,-4,0,-2,5,0
'[13:17:02.848 21/01/2026]',-125014.3,-199774.7,-88988.28,-584.9898,-375000,-375000,-151052.4,-220265.9,0.03,0.00,0.88,-4,0,-2,5,0
'[13:17:02.852 21/01/2026]',-125006.4,-199771.8,-88991.41,-580.296,-375000,-375000,-151050.9,-220369.7,0.03,0.00,0.88,-4,0,-2,5,0
'[13:17:02.856 21/01/2026]',-125011.9,-199722.3,-88999.41,-572.9646,-375000,-375000,-151051,-220106.5,0.03,0.00,0.88,-4,0,-2,5,0
'[13:17:02.860 21/01/2026]',-125011.8,-199708.9,-88993.83,-569.6118,-375000,-375000,-151046,-219930.6,0.03,0.00,0.88,-4,0,-2,5,0
'[13:17:02.864 21/01/2026]',-125007.8,-199758.9,-88993.06,-576.228,-375000,-375000,-151048.2,-220131.9,0.03,0.00,0.88,-4,0,-2,5,0
'[13:17:02.868 21/01/2026]',-125003.1,-199771.8,-88992.98,-574.0822,-375000,-375000,-151043.3,-220310.4,0.03,0.00,0.88,-4,0,-2,5,0
'[13:17:02.872 21/01/2026]',-125013.8,-199731.7,-89002.59,-574.2163,-375000,-375000,-151050.3,-220176.6,0.03,0.00,0.88,-4,0,-2,5,0
'[13:17:02.876 21/01/2026]',-125028.1,-199729.7,-89010.27,-586.2863,-375000,-375000,-151071,-219927.5,0.03,0.00,0.88,-4,0,-2,5,0
'[13:17:02.880 21/01/2026]',-125015.2,-199765.9,-89000.48,-592.5,-375000,-375000,-151064.1,-220204.6,0.02,0.00,0.88,-4,0,-2,5,0
'[13:17:02.884 21/01/2026]',-125008,-199770.5,-88998.12,-578.4184,-375000,-375000,-151052.4,-220374.1,0.02,0.00,0.88,-4,0,-2,5,0
'[13:17:02.888 21/01/2026]',-125015.7,-199732.8,-89009.38,-575.9597,-375000,-375000,-151056.7,-220173.3,0.02,0.00,0.88,-4,0,-2,5,0
'[13:17:02.892 21/01/2026]',-125025.6,-199721.1,-89011.21,-582.3076,-375000,-375000,-151063.4,-219960.7,0.02,0.00,0.88,-4,0,-2,5,0
'[13:17:02.896 21/01/2026]',-125017.4,-199748.2,-89005.49,-580.5195,-375000,-375000,-151058.4,-220063,0.02,0.00,0.88,-4,0,-2,5,0
'[13:17:02.900 21/01/2026]',-125005.7,-199772.7,-88997.18,-576.228,-375000,-375000,-151048.9,-220300.4,0.02,0.00,0.88,-4,0,-2,5,0
'[13:17:02.904 21/01/2026]',-125012.2,-199744,-89006.61,-576.1385,-375000,-375000,-151061.3,-220188.9,0.02,0.00,0.88,-4,0,-2,5,0
'[13:17:02.908 21/01/2026]',-125008.7,-199689.3,-89005.58,-572.9199,-375000,-375000,-151072.4,-219830.3,0.02,0.00,0.88,-4,0,-2,5,0
'[13:17:02.912 21/01/2026]',-124985,-199698,-88988.55,-580.1171,-375000,-375000,-151068.9,-220011.3,0.02,0.00,0.88,-4,0,-2,5,0
'[13:17:02.916 21/01/2026]',-124996.3,-199776,-88994.77,-590.6672,-375000,-375000,-151066.2,-220343.7,0.02,0.00,0.88,-4,0,-2,5,0
'[13:17:02.920 21/01/2026]',-125029.2,-199795.5,-89012.51,-598.8926,-375000,-375000,-151064.8,-220320.1,0.02,0.00,0.88,-4,0,-2,5,0
'[13:17:02.924 21/01/2026]',-125044.5,-199769.8,-89017.07,-598.1774,-375000,-375000,-151066.3,-220062.2,0.02,0.00,0.88,-4,0,-2,5,0
'[13:17:02.928 21/01/2026]',-125034.5,-199787.4,-89004.29,-595.4058,-375000,-375000,-151067.7,-220041.4,0.02,0.00,0.88,-4,0,-2,5,0
'[13:17:02.932 21/01/2026]',-125013,-199822.8,-88988.2,-589.9519,-375000,-375000,-151057.6,-220244.1,0.02,0.00,0.88,-4,0,-2,5,0
'[13:17:02.936 21/01/2026]',-124992.6,-199803.6,-88979.79,-584.2299,-375000,-375000,-151058.5,-220283.5,0.02,0.00,0.88,-4,0,-2,5,0
'[13:17:02.940 21/01/2026]',-125001.3,-199761,-88993.65,-586.6885,-375000,-375000,-151073.5,-219973.7,0.02,0.00,0.88,-4,0,-2,5,0
'[13:17:02.944 21/01/2026]',-125014.3,-199777.5,-89002.41,-595.0481,-375000,-375000,-151069.6,-219854.5,0.02,0.00,0.88,-4,0,-2,5,0
'[13:17:02.948 21/01/2026]',-125008.2,-199818.7,-88997.45,-596.881,-375000,-375000,-151054.3,-220276.5,0.02,0.00,0.88,-4,0,-2,5,0
'[13:17:02.952 21/01/2026]',-124998.5,-199807.4,-88989.04,-583.6487,-375000,-375000,-151047.8,-220357.7,0.02,0.00,0.89,-4,0,-2,5,0
'[13:17:02.956 21/01/2026]',-125015.7,-199768.1,-88996.33,-582.8888,-375000,-375000,-151059.6,-220094.5,0.02,0.00,0.89,-4,0,-2,5,0
'[13:17:02.960 21/01/2026]',-125019,-199774.3,-88999.01,-589.5049,-375000,-375000,-151061.5,-220063.5,0.02,0.00,0.89,-4,0,-2,5,0
'[13:17:02.964 21/01/2026]',-125020.1,-199818.7,-89006.34,-594.9587,-375000,-375000,-151065.8,-220225.6,0.02,0.00,0.89,-4,0,-2,5,0
'[13:17:02.968 21/01/2026]',-125005.1,-199820.1,-88999.32,-587.8062,-375000,-375000,-151057.2,-220356.1,0.02,0.00,0.89,-4,0,-2,5,0
'[13:17:02.972 21/01/2026]',-125012.8,-199775.8,-89008.27,-584.4534,-375000,-375000,-151057.4,-220096.9,0.02,0.00,0.89,-4,0,-2,5,0
'[13:17:02.976 21/01/2026]',-125035.4,-199778.5,-89018.28,-592.1871,-375000,-375000,-151065.1,-219783.5,0.02,0.00,0.89,-4,0,-2,5,0
'[13:17:02.980 21/01/2026]',-125030.7,-199827.4,-88995.7,-597.5068,-375000,-375000,-151058.1,-220091,0.02,0.00,0.89,-4,0,-2,5,0
'[13:17:02.984 21/01/2026]',-125025.1,-199844.2,-88986.72,-586.2863,-375000,-375000,-151047.9,-220300.1,0.02,0.00,0.89,-4,0,-2,5,0
'[13:17:02.988 21/01/2026]',-125034.9,-199813.2,-89009.6,-584.811,-375000,-375000,-151056.4,-220116,0.02,0.00,0.88,-4,0,-2,5,0
'[13:17:02.992 21/01/2026]',-125059.5,-199815.7,-89015.33,-597.5068,-375000,-375000,-151066.9,-219917.4,0.02,0.00,0.88,-4,0,-2,5,0
'[13:17:02.996 21/01/2026]',-125067.8,-199873,-89015.87,-604.4805,-375000,-375000,-151074.9,-220054.6,0.02,0.00,0.88,-4,0,-2,5,0
'[13:17:03.000 21/01/2026]',-125081.7,-199912.3,-89026.91,-604.6594,-375000,-375000,-151071.5,-220286.3,0.02,0.00,0.88,-4,0,-2,5,0
'[13:17:03.004 21/01/2026]',-125114.2,-199885.2,-89045.32,-601.1725,-375000,-375000,-151061.7,-220160,0.02,0.00,0.88,-4,0,-2,5,0
'[13:17:03.008 21/01/2026]',-125143.3,-199875.4,-89057.04,-612.4825,-375000,-375000,-151074.6,-219818.8,0.02,0.00,0.88,-4,0,-2,5,0
'[13:17:03.012 21/01/2026]',-125164.8,-199945.8,-89057.3,-634.0295,-375000,-375000,-151069.3,-219990.5,0.02,0.00,0.88,-4,0,-2,5,0
'[13:17:03.016 21/01/2026]',-125164,-200005.7,-89051.27,-628.8439,-375000,-375000,-151056.5,-220305.1,0.02,0.00,0.88,-4,0,-2,5,0
'[13:17:03.020 21/01/2026]',-125170.3,-199988.3,-89052.7,-620.0821,-375000,-375000,-151061.9,-220254.6,0.02,0.00,0.88,-4,0,-2,5,0
'[13:17:03.024 21/01/2026]',-125195.2,-199959.3,-89051.85,-621.0209,-375000,-375000,-151065.8,-219991.3,0.02,-0.02,0.89,-4,0,-2,5,0
'[13:17:03.028 21/01/2026]',-125205.6,-199983.2,-89063.61,-627.0111,-375000,-375000,-151066.9,-219915.5,0.02,-0.02,0.89,-4,0,-2,5,0
'[13:17:03.032 21/01/2026]',-125218.2,-200056.6,-89076.44,-645.8313,-375000,-375000,-151067.3,-220249.3,0.02,-0.02,0.89,-4,0,-2,5,0
'[13:17:03.036 21/01/2026]',-125226,-200046.9,-89085.38,-642.2103,-375000,-375000,-151064.7,-220346.2,0.02,-0.02,0.89,-4,0,-2,5,0
'[13:17:03.040 21/01/2026]',-125224.6,-199996.2,-89096.77,-642.0315,-375000,-375000,-151080.3,-220056.6,0.02,-0.02,0.89,-4,0,-2,5,0
'[13:17:03.044 21/01/2026]',-125214.2,-199997.9,-89089.22,-643.9984,-375000,-375000,-151081.2,-219916.7,0.02,-0.02,0.89,-4,0,-2,5,0
'[13:17:03.048 21/01/2026]',-125195.6,-200024.8,-89065.93,-638.6787,-375000,-375000,-151065.4,-220253.5,0.02,-0.02,0.89,-4,0,-2,5,0
'[13:17:03.052 21/01/2026]',-125185.3,-200010.5,-89055.65,-626.5641,-375000,-375000,-151058,-220297.1,0.02,-0.02,0.89,-4,0,-2,5,0
'[13:17:03.056 21/01/2026]',-125166.3,-199947.8,-89054.45,-614.7177,-375000,-375000,-151060.4,-219991.1,0.02,-0.02,0.89,-4,0,-2,5,0
'[13:17:03.060 21/01/2026]',-125164.3,-199938,-89055.07,-614.4495,-375000,-375000,-151060.2,-219886.5,0.03,0.00,0.88,-4,0,-2,5,0
'[13:17:03.064 21/01/2026]',-125156,-199964.8,-89050.42,-612.3931,-375000,-375000,-151059.6,-220110.9,0.03,0.00,0.88,-4,0,-2,5,0
'[13:17:03.068 21/01/2026]',-125135.3,-199950.3,-89041.79,-602.5136,-375000,-375000,-151050.2,-220255.5,0.03,0.00,0.88,-4,0,-2,5,0
'[13:17:03.072 21/01/2026]',-125140.8,-199896.3,-89058.11,-600.949,-375000,-375000,-151064.7,-220004.2,0.03,0.00,0.88,-4,0,-2,5,0
'[13:17:03.076 21/01/2026]',-125143,-199883.5,-89063.07,-605.6428,-375000,-375000,-151076,-219748.9,0.03,0.00,0.88,-4,0,-2,5,0
'[13:17:03.080 21/01/2026]',-125114,-199902.5,-89036.96,-601.4407,-375000,-375000,-151059.9,-220081.3,0.03,0.00,0.88,-4,0,-2,5,0
'[13:17:03.084 21/01/2026]',-125094.4,-199906.9,-89025.52,-591.1589,-375000,-375000,-151055.8,-220330.4,0.03,0.00,0.88,-4,0,-2,5,0
'[13:17:03.088 21/01/2026]',-125097.9,-199862.7,-89036.56,-588.2979,-375000,-375000,-151067.1,-220160.7,0.03,0.00,0.88,-4,0,-2,5,0
'[13:17:03.092 21/01/2026]',-125092.4,-199823.8,-89029.5,-582.0841,-375000,-375000,-151062.1,-219946.2,0.03,0.00,0.88,-4,0,-2,5,0
'[13:17:03.096 21/01/2026]',-125081.9,-199846.8,-89023.06,-580.4301,-375000,-375000,-151064.4,-220057,0.02,0.00,0.88,-4,0,-2,5,0
'[13:17:03.100 21/01/2026]',-125061,-199864.5,-89012.55,-575.6021,-375000,-375000,-151059.7,-220282.9,0.02,0.00,0.88,-4,0,-2,5,0
'[13:17:03.104 21/01/2026]',-125052.9,-199818.7,-89018.73,-570.0142,-375000,-375000,-151061.5,-220162.3,0.02,0.00,0.88,-4,0,-2,5,0
'[13:17:03.108 21/01/2026]',-125065.6,-199790.8,-89020.29,-574.261,-375000,-375000,-151070.7,-219832.5,0.02,0.00,0.88,-4,0,-2,5,0
'[13:17:03.112 21/01/2026]',-125058.8,-199816.4,-89002.5,-579.2678,-375000,-375000,-151057.8,-220000.9,0.02,0.00,0.88,-4,0,-2,5,0
'[13:17:03.116 21/01/2026]',-125041.4,-199839.8,-88997.31,-573.6799,-375000,-375000,-151051.3,-220333.9,0.02,0.00,0.88,-4,0,-2,5,0
'[13:17:03.120 21/01/2026]',-125041.1,-199808.8,-89010.73,-569.5671,-375000,-375000,-151057.5,-220261,0.02,0.00,0.88,-4,0,-2,5,0
'[13:17:03.124 21/01/2026]',-125039.1,-199764.5,-89012.69,-564.1133,-375000,-375000,-151059.7,-219980.2,0.02,0.00,0.88,-4,0,-2,5,0
'[13:17:03.128 21/01/2026]',-125034,-199773.5,-89003.88,-564.3369,-375000,-375000,-151060.5,-219927.8,0.02,0.00,0.88,-4,0,-2,5,0
'[13:17:03.132 21/01/2026]',-125026,-199818.9,-88997.05,-572.5176,-375000,-375000,-151055.6,-220234,0.02,0.00,0.88,-4,0,-2,5,0
'[13:17:03.136 21/01/2026]',-125022.5,-199799.5,-89001.11,-566.0803,-375000,-375000,-151057.2,-220268,0.02,0.00,0.88,-4,0,-2,5,0
'[13:17:03.140 21/01/2026]',-125036.1,-199770.8,-89013.36,-571.1765,-375000,-375000,-151069,-220018,0.02,0.00,0.88,-4,0,-2,5,0
'[13:17:03.144 21/01/2026]',-125037.2,-199784.9,-89018.05,-581.7265,-375000,-375000,-151077.4,-220007.7,0.02,0.00,0.88,-4,0,-2,5,0
'[13:17:03.148 21/01/2026]',-125015.6,-199812.9,-89003.52,-574.9763,-375000,-375000,-151059.9,-220354,0.02,0.00,0.88,-4,0,-2,5,0
'[13:17:03.152 21/01/2026]',-125008.2,-199801.8,-89006.52,-566.6614,-375000,-375000,-151054.1,-220445,0.02,0.00,0.88,-4,0,-2,5,0
'[13:17:03.156 21/01/2026]',-125016,-199755,-89012.11,-562.7722,-375000,-375000,-151061.4,-220155.1,0.02,0.00,0.88,-4,0,-2,5,0
'[13:17:03.160 21/01/2026]',-125012.3,-199752.1,-88997.94,-562.6828,-375000,-375000,-151059.7,-220025.5,0.02,0.00,0.88,-4,0,-2,5,0
'[13:17:03.164 21/01/2026]',-125003.8,-199797.4,-88991.41,-568.4943,-375000,-375000,-151057.7,-220310.4,0.02,0.00,0.88,-4,0,-2,5,0
'[13:17:03.168 21/01/2026]',-125007.4,-199802,-88996.41,-568.4943,-375000,-375000,-151056.6,-220449.2,0.02,0.00,0.88,-4,0,-2,5,0
'[13:17:03.172 21/01/2026]',-125013,-199744.6,-89008.84,-561.2076,-375000,-375000,-151061.8,-220143.5,0.02,0.00,0.88,-4,0,-2,5,0
'[13:17:03.176 21/01/2026]',-125018.5,-199744.7,-89015.33,-565.9014,-375000,-375000,-151063.4,-219852.9,0.02,0.00,0.88,-4,0,-2,5,0
'[13:17:03.180 21/01/2026]',-125007.5,-199788.2,-89002.5,-571.3105,-375000,-375000,-151051.6,-220196.7,0.02,0.00,0.88,-4,0,-2,5,0
'[13:17:03.184 21/01/2026]',-124994.1,-199788.3,-88988.2,-554.815,-375000,-375000,-151038.6,-220426.6,0.02,0.00,0.88,-4,0,-2,5,0
'[13:17:03.188 21/01/2026]',-124996.1,-199742.2,-88989.4,-543.6838,-375000,-375000,-151039.7,-220229.9,0.02,0.00,0.88,-4,0,-2,5,0
'[13:17:03.192 21/01/2026]',-125004.5,-199729.2,-88996.02,-546.9025,-375000,-375000,-151042.2,-220012.6,0.02,0.00,0.88,-4,0,-2,5,0
'[13:17:03.196 21/01/2026]',-125004.5,-199767.4,-88996.33,-552.6245,-375000,-375000,-151046,-220118.6,0.02,0.00,0.88,-4,0,-2,5,0
'[13:17:03.200 21/01/2026]',-124997.9,-199790.3,-88993.11,-549.7188,-375000,-375000,-151043.7,-220328.5,0.02,0.00,0.88,-4,0,-2,5,0
'[13:17:03.204 21/01/2026]',-125003.3,-199759.1,-89003.48,-545.3378,-375000,-375000,-151052.5,-220222.7,0.03,0.00,0.88,-4,0,-2,5,0
'[13:17:03.208 21/01/2026]',-125010.5,-199726.9,-89001.78,-537.9171,-375000,-375000,-151059.3,-219885.7,0.03,0.00,0.88,-4,0,-2,5,0
'[13:17:03.212 21/01/2026]',-124996.5,-199749.1,-88979.48,-538.8112,-375000,-375000,-151045.3,-220009.6,0.03,0.00,0.88,-4,0,-2,5,0
'[13:17:03.216 21/01/2026]',-124984.5,-199777.5,-88971.38,-537.2018,-375000,-375000,-151039.3,-220339.6,0.03,0.00,0.88,-4,0,-2,5,0
'[13:17:03.220 21/01/2026]',-124997,-199755.1,-88990.78,-540.9122,-375000,-375000,-151049.2,-220262.7,0.03,0.00,0.88,-4,0,-2,5,0
'[13:17:03.224 21/01/2026]',-125008,-199724.9,-89002.05,-543.9968,-375000,-375000,-151053.5,-219939.8,0.03,0.00,0.88,-4,0,-2,5,0
'[13:17:03.228 21/01/2026]',-124996.9,-199742.5,-88988.77,-542.298,-375000,-375000,-151044,-219955.7,0.03,0.00,0.88,-4,0,-2,5,0
'[13:17:03.232 21/01/2026]',-124995.2,-199786.8,-88985.78,-547.0813,-375000,-375000,-151044.4,-220192.1,0.03,0.00,0.88,-4,0,-2,5,0
'[13:17:03.236 21/01/2026]',-124998.2,-199772.2,-88992.98,-546.6342,-375000,-375000,-151049.2,-220205,0.03,0.00,0.88,-4,0,-2,5,0
'[13:17:03.240 21/01/2026]',-125011.8,-199735.4,-89008.4,-546.2766,-375000,-375000,-151059.2,-219916.9,0.03,0.00,0.88,-4,0,-2,5,0
'[13:17:03.244 21/01/2026]',-125014.7,-199749.4,-89002.45,-548.3329,-375000,-375000,-151056.3,-219829.7,0.03,0.00,0.88,-4,0,-2,5,0
'[13:17:03.248 21/01/2026]',-124998.5,-199784.7,-88988.95,-545.0696,-375000,-375000,-151051.6,-220216.5,0.03,0.00,0.88,-4,0,-2,5,0
'[13:17:03.252 21/01/2026]',-124991.4,-199768.2,-88986.36,-531.6139,-375000,-375000,-151045.9,-220272,0.03,0.00,0.88,-4,0,-2,5,0
'[13:17:03.256 21/01/2026]',-125000.7,-199723.4,-88995.79,-531.5245,-375000,-375000,-151047.1,-219966.4,0.03,0.00,0.88,-4,0,-2,5,0
'[13:17:03.260 21/01/2026]',-124999.7,-199725.2,-88988.64,-533.8491,-375000,-375000,-151041.1,-219831.7,0.03,0.00,0.88,-4,0,-2,5,0
'[13:17:03.264 21/01/2026]',-124995.5,-199764.1,-88980.1,-533.5361,-375000,-375000,-151037.2,-220034.6,0.03,0.00,0.88,-4,0,-2,5,0
'[13:17:03.268 21/01/2026]',-124990.1,-199768.4,-88981.62,-530.4516,-375000,-375000,-151032.2,-220195.3,0.03,0.00,0.88,-4,0,-2,5,0
'[13:17:03.272 21/01/2026]',-125003.5,-199731.5,-88995.57,-534.9666,-375000,-375000,-151048.3,-219945.7,0.03,0.00,0.88,-4,0,-2,5,0
'[13:17:03.276 21/01/2026]',-125008.4,-199723.8,-88997.13,-538.1406,-375000,-375000,-151056.7,-219715.5,0.03,0.00,0.88,-4,0,-2,5,0
'[13:17:03.280 21/01/2026]',-124994.5,-199766.7,-88989.04,-543.8626,-375000,-375000,-151050.1,-220089.2,0.03,0.00,0.88,-4,0,-2,5,0
'[13:17:03.284 21/01/2026]',-124984.4,-199776.3,-88982.78,-535.6372,-375000,-375000,-151043.2,-220348.9,0.03,0.00,0.88,-4,0,-2,5,0
'[13:17:03.288 21/01/2026]',-124988.8,-199723.8,-88992.84,-530.2281,-375000,-375000,-151048.9,-220167.6,0.03,0.00,0.88,-4,0,-2,5,0
'[13:17:03.292 21/01/2026]',-124994.2,-199705,-88993.29,-533.7149,-375000,-375000,-151048.4,-219978.1,0.03,0.00,0.88,-4,0,-2,5,0
'[13:17:03.296 21/01/2026]',-124986,-199738,-88983.5,-529.5575,-375000,-375000,-151041.9,-220084.1,0.03,0.00,0.88,-4,0,-2,5,0
'[13:17:03.300 21/01/2026]',-124980.4,-199766.1,-88977.87,-527.1435,-375000,-375000,-151036.5,-220291.7,0.03,0.00,0.88,-4,0,-2,5,0
'[13:17:03.304 21/01/2026]',-124987,-199727.6,-88985.47,-521.4214,-375000,-375000,-151033.8,-220160.7,0.03,0.00,0.88,-4,0,-2,5,0
'[13:17:03.308 21/01/2026]',-124995.2,-199699.5,-88991.01,-524.5507,-375000,-375000,-151039.5,-219858.8,0.03,0.00,0.88,-4,0,-2,5,0
'[13:17:03.312 21/01/2026]',-124990.1,-199733.6,-88985.87,-534.9666,-375000,-375000,-151036.5,-220023.1,0.02,0.00,0.88,-4,0,-2,5,0
'[13:17:03.316 21/01/2026]',-124988.9,-199770.3,-88989.66,-538.0959,-375000,-375000,-151040.4,-220353.9,0.02,0.00,0.88,-4,0,-2,5,0
'[13:17:03.320 21/01/2026]',-124990.6,-199735.3,-88992.39,-530.6304,-375000,-375000,-151048.2,-220230.8,0.02,0.00,0.88,-4,0,-2,5,0
'[13:17:03.324 21/01/2026]',-124997.6,-199706.2,-88991.32,-536.7995,-375000,-375000,-151051.3,-219993.3,0.02,0.00,0.88,-4,0,-2,5,0
'[13:17:03.328 21/01/2026]',-124989.9,-199730.5,-88982.56,-538.7664,-375000,-375000,-151046,-220070,0.02,0.00,0.88,-4,0,-2,5,0
'[13:17:03.332 21/01/2026]',-124987,-199774.9,-88981.22,-541.1804,-375000,-375000,-151050,-220297.1,0.02,0.00,0.88,-4,0,-2,5,0
'[13:17:03.336 21/01/2026]',-124984.6,-199746.5,-88979.25,-527.5458,-375000,-375000,-151046,-220257.3,0.02,0.00,0.88,-4,0,-2,5,0
'[13:17:03.340 21/01/2026]',-125004.9,-199717.9,-89001.78,-534.0726,-375000,-375000,-151058,-219942,0.02,0.00,0.88,-4,0,-2,5,0
'[13:17:03.344 21/01/2026]',-125015.9,-199746,-89009.7,-548.78,-375000,-375000,-151063.7,-219964.8,0.02,0.00,0.88,-4,0,-2,5,0
'[13:17:03.348 21/01/2026]',-124993.2,-199773.8,-88992.17,-542.4321,-375000,-375000,-151052,-220338.8,0.03,0.00,0.88,-4,0,-2,5,0
'[13:17:03.352 21/01/2026]',-124979.4,-199757.4,-88983.81,-528.6635,-375000,-375000,-151046.4,-220379.2,0.03,0.00,0.88,-4,0,-2,5,0
'[13:17:03.356 21/01/2026]',-124994.5,-199712,-88989.98,-530.5857,-375000,-375000,-151054.8,-220074.7,0.03,0.00,0.88,-4,0,-2,5,0
'[13:17:03.360 21/01/2026]',-125003.3,-199719,-88984.93,-536.3524,-375000,-375000,-151056.8,-219964.9,0.03,0.00,0.88,-4,0,-2,5,0
'[13:17:03.364 21/01/2026]',-124989.7,-199755.4,-88977.42,-530.7645,-375000,-375000,-151044.9,-220191.9,0.03,0.00,0.88,-4,0,-2,5,0
'[13:17:03.368 21/01/2026]',-124983.8,-199755.5,-88981.66,-525.8471,-375000,-375000,-151041.6,-220337.2,0.03,0.00,0.88,-4,0,-2,5,0
'[13:17:03.372 21/01/2026]',-124994.6,-199714,-88997.45,-527.68,-375000,-375000,-151050,-220068.3,0.03,0.00,0.88,-4,0,-2,5,0
'[13:17:03.376 21/01/2026]',-125006.6,-199715.7,-89001.11,-538.4088,-375000,-375000,-151057.4,-219828.6,0.03,0.00,0.88,-4,0,-2,5,0
'[13:17:03.380 21/01/2026]',-124991,-199753.5,-88983.72,-541.3145,-375000,-375000,-151046.9,-220158.3,0.03,0.00,0.88,-4,0,-2,5,0
'[13:17:03.384 21/01/2026]',-124984.7,-199765.5,-88979.2,-534.8772,-375000,-375000,-151044,-220359,0.02,0.00,0.86,-4,0,-2,5,0
'[13:17:03.388 21/01/2026]',-124994.4,-199722.5,-88988.02,-533.8043,-375000,-375000,-151051.2,-220137.5,0.02,0.00,0.86,-4,0,-2,5,0
'[13:17:03.392 21/01/2026]',-124998.4,-199707.7,-88992.04,-537.7382,-375000,-375000,-151051.3,-219953.5,0.02,0.00,0.86,-4,0,-2,5,0
'[13:17:03.396 21/01/2026]',-124997,-199750.3,-88993.65,-543.7285,-375000,-375000,-151060.2,-220079.9,0.02,0.00,0.86,-4,0,-2,5,0
'[13:17:03.400 21/01/2026]',-124987.7,-199775.9,-88982.11,-537.0677,-375000,-375000,-151050.5,-220313.3,0.02,0.00,0.86,-4,0,-2,5,0
'[13:17:03.404 21/01/2026]',-124992.9,-199735.5,-88989.84,-530.0493,-375000,-375000,-151053.4,-220172.7,0.02,0.00,0.86,-4,0,-2,5,0
'[13:17:03.408 21/01/2026]',-125009.7,-199713.5,-89002.32,-533.8937,-375000,-375000,-151063.3,-219821,0.02,0.00,0.86,-4,0,-2,5,0
'[13:17:03.412 21/01/2026]',-124996.6,-199740.3,-88984.84,-535.8607,-375000,-375000,-151049.8,-219952.7,0.02,0.00,0.86,-4,0,-2,5,0
'[13:17:03.416 21/01/2026]',-124978.1,-199758,-88967.14,-520.8403,-375000,-375000,-151030.8,-220260.7,0.02,0.00,0.86,-4,0,-2,5,0
'[13:17:03.420 21/01/2026]',-124975.6,-199714.1,-88972.73,-507.6975,-375000,-375000,-151028.6,-220109.6,0.02,0.00,0.86,-4,0,-2,5,0
'[13:17:03.424 21/01/2026]',-124981.4,-199684.5,-88980.77,-509.9774,-375000,-375000,-151032.9,-219911,0.02,0.00,0.86,-4,0,-2,5,0
'[13:17:03.428 21/01/2026]',-124978.7,-199710.4,-88976.03,-515.3865,-375000,-375000,-151036.5,-220024.7,0.02,0.00,0.86,-4,0,-2,5,0
'[13:17:03.432 21/01/2026]',-124970.9,-199745.1,-88973.53,-517.1746,-375000,-375000,-151040.9,-220247.4,0.02,0.00,0.86,-4,0,-2,5,0
'[13:17:03.436 21/01/2026]',-124972.5,-199724.6,-88979.66,-511.4526,-375000,-375000,-151037.7,-220266,0.02,0.00,0.86,-4,0,-2,5,0
'[13:17:03.440 21/01/2026]',-124986.1,-199690,-88989.45,-516.6382,-375000,-375000,-151047.7,-219953.4,0.02,0.00,0.86,-4,0,-2,5,0
'[13:17:03.444 21/01/2026]',-124991.3,-199712.1,-88988.59,-526.6518,-375000,-375000,-151053.8,-219878,0.02,0.00,0.86,-4,0,-2,5,0
'[13:17:03.448 21/01/2026]',-124986.5,-199758.7,-88978.76,-529.5575,-375000,-375000,-151047.7,-220267.5,0.02,0.00,0.86,-4,0,-2,5,0
'[13:17:03.452 21/01/2026]',-124984.6,-199748.5,-88985.16,-525.4001,-375000,-375000,-151053.2,-220321.9,0.02,0.00,0.86,-4,0,-2,5,0
'[13:17:03.456 21/01/2026]',-124992,-199705,-88996.02,-525.8024,-375000,-375000,-151063.3,-220006.6,0.03,-0.02,0.88,-4,0,-2,5,0
'[13:17:03.460 21/01/2026]',-124999.5,-199714.1,-88993.06,-532.8209,-375000,-375000,-151064.8,-219894.6,0.03,-0.02,0.88,-4,0,-2,5,0
'[13:17:03.464 21/01/2026]',-124995.1,-199756.4,-88989.76,-537.2018,-375000,-375000,-151065.8,-220094.6,0.03,-0.02,0.88,-4,0,-2,5,0
'[13:17:03.468 21/01/2026]',-124988.7,-199757.4,-88990.16,-535.2795,-375000,-375000,-151058.4,-220213.7,0.03,-0.02,0.88,-4,0,-2,5,0
'[13:17:03.472 21/01/2026]',-124999.7,-199715,-89004.15,-538.4088,-375000,-375000,-151063.9,-219934,0.03,-0.02,0.88,-4,0,-2,5,0
'[13:17:03.476 21/01/2026]',-125004.7,-199708.4,-89005.05,-541.3145,-375000,-375000,-151067.8,-219664.5,0.03,-0.02,0.88,-4,0,-2,5,0
'[13:17:03.480 21/01/2026]',-124995.6,-199751,-88992.3,-550.3893,-375000,-375000,-151057.2,-220008.9,0.03,-0.02,0.88,-4,0,-2,5,0
'[13:17:03.484 21/01/2026]',-124983.1,-199760.7,-88982.38,-538.4982,-375000,-375000,-151046.3,-220199.5,0.03,-0.02,0.88,-4,0,-2,5,0
'[13:17:03.488 21/01/2026]',-124991,-199718.8,-88990.34,-538.0511,-375000,-375000,-151053.7,-219979,0.03,-0.02,0.88,-4,0,-2,5,0
'[13:17:03.492 21/01/2026]',-124997.2,-199696.2,-88989.22,-534.8325,-375000,-375000,-151041.5,-219747.5,0.02,0.00,0.86,-4,0,-2,5,0
'[13:17:03.496 21/01/2026]',-124992.1,-199732.6,-88980.91,-533.1338,-375000,-375000,-151034.7,-219865.6,0.02,0.00,0.86,-4,0,-2,5,0
'[13:17:03.500 21/01/2026]',-124988.4,-199759.1,-88980.01,-533.8491,-375000,-375000,-151032.4,-220102.8,0.02,0.00,0.86,-4,0,-2,5,0
'[13:17:03.504 21/01/2026]',-124991,-199722.2,-88989.22,-530.1387,-375000,-375000,-151036.7,-219982.2,0.02,0.00,0.86,-4,0,-2,5,0
'[13:17:03.508 21/01/2026]',-125000.7,-199698,-88997.09,-532.4185,-375000,-375000,-151044,-219684.7,0.02,0.00,0.86,-4,0,-2,5,0
'[13:17:03.512 21/01/2026]',-125001.7,-199735.5,-88988.51,-545.0249,-375000,-375000,-151041.1,-219836.2,0.02,0.00,0.86,-4,0,-2,5,0
'[13:17:03.516 21/01/2026]',-124983.4,-199756.6,-88975.27,-535.5478,-375000,-375000,-151032.6,-220083.9,0.02,0.00,0.86,-4,0,-2,5,0
'[13:17:03.520 21/01/2026]',-124979.2,-199723.9,-88979.43,-528.2164,-375000,-375000,-151037.1,-220010.9,0.02,0.00,0.86,-4,0,-2,5,0
'[13:17:03.524 21/01/2026]',-124997.1,-199698.6,-88993.52,-536.7995,-375000,-375000,-151045,-219808.7,0.02,0.00,0.86,-4,0,-2,5,0
'[13:17:03.528 21/01/2026]',-124998,-199723.4,-88993.69,-542.5662,-375000,-375000,-151040.8,-219852,0.02,0.00,0.88,-4,0,-2,5,0
'[13:17:03.532 21/01/2026]',-124991.1,-199758.8,-88988.55,-541.1804,-375000,-375000,-151036.8,-220123.7,0.02,0.00,0.88,-4,0,-2,5,0
'[13:17:03.536 21/01/2026]',-124988.7,-199733.8,-88988.59,-530.3174,-375000,-375000,-151033.8,-220082.5,0.02,0.00,0.88,-4,0,-2,5,0
'[13:17:03.540 21/01/2026]',-124998.1,-199698.8,-88998.88,-532.8655,-375000,-375000,-151042.5,-219804.4,0.02,0.00,0.88,-4,0,-2,5,0
'[13:17:03.544 21/01/2026]',-124996.2,-199722.5,-88998.56,-546.0978,-375000,-375000,-151048.3,-219779.6,0.02,0.00,0.88,-4,0,-2,5,0
'[13:17:03.548 21/01/2026]',-124977.3,-199750.9,-88982.7,-541.9851,-375000,-375000,-151032.8,-220170.8,0.02,0.00,0.88,-4,0,-2,5,0
'[13:17:03.552 21/01/2026]',-124974,-199737.1,-88982.29,-529.5575,-375000,-375000,-151024.8,-220243.2,0.02,0.00,0.88,-4,0,-2,5,0
'[13:17:03.556 21/01/2026]',-124989.3,-199691.9,-88994,-531.3456,-375000,-375000,-151033.2,-219954.7,0.02,0.00,0.88,-4,0,-2,5,0
'[13:17:03.560 21/01/2026]',-124989.3,-199693.5,-88989.58,-534.3855,-375000,-375000,-151032.8,-219846.3,0.02,0.00,0.88,-4,0,-2,5,0
'[13:17:03.564 21/01/2026]',-124985.3,-199736,-88987.16,-534.609,-375000,-375000,-151033.7,-220019.8,0.02,0.00,0.88,-4,0,-2,5,0
'[13:17:03.568 21/01/2026]',-124982.8,-199739.1,-88987.97,-531.3456,-375000,-375000,-151034.4,-220124.9,0.02,0.00,0.88,-4,0,-2,5,0
'[13:17:03.572 21/01/2026]',-124999.7,-199697,-88998.83,-534.5196,-375000,-375000,-151050.3,-219869.7,0.02,0.00,0.88,-4,0,-2,5,0
'[13:17:03.576 21/01/2026]',-125004.6,-199694.8,-88996.28,-538.3641,-375000,-375000,-151050.9,-219616.2,0.02,0.00,0.88,-4,0,-2,5,0
'[13:17:03.580 21/01/2026]',-124981.6,-199731.6,-88983.5,-538.9453,-375000,-375000,-151030.8,-219960.1,0.02,0.00,0.88,-4,0,-2,5,0
'[13:17:03.584 21/01/2026]',-124975.6,-199738.6,-88984.66,-527.0541,-375000,-375000,-151025.2,-220169.4,0.02,0.00,0.88,-4,0,-2,5,0
'[13:17:03.588 21/01/2026]',-124985.1,-199701.7,-88997.67,-527.5906,-375000,-375000,-151039.5,-219943.3,0.02,0.00,0.88,-4,0,-2,5,0
'[13:17:03.592 21/01/2026]',-124990.3,-199686.8,-88995.93,-532.4633,-375000,-375000,-151042.7,-219757.2,0.02,0.00,0.88,-4,0,-2,5,0
'[13:17:03.596 21/01/2026]',-124988.1,-199723.3,-88990.96,-536.3972,-375000,-375000,-151044.5,-219906.7,0.02,0.00,0.88,-4,0,-2,5,0
'[13:17:03.600 21/01/2026]',-124979.3,-199747.6,-88984.7,-535.7266,-375000,-375000,-151042,-220143.8,0.03,0.00,0.89,-4,0,-2,5,0
'[13:17:03.604 21/01/2026]',-124981.4,-199699.3,-88992.84,-530.3174,-375000,-375000,-151052.8,-220010.4,0.03,0.00,0.89,-4,0,-2,5,0
'[13:17:03.608 21/01/2026]',-124981,-199656.9,-89002.63,-535.2795,-375000,-375000,-151074.5,-219701.2,0.03,0.00,0.89,-4,0,-2,5,0
'[13:17:03.612 21/01/2026]',-124979.8,-199704.3,-88989.58,-541.1804,-375000,-375000,-151062.5,-219788.8,0.03,0.00,0.89,-4,0,-2,5,0
'[13:17:03.616 21/01/2026]',-124984.5,-199769.5,-88978.98,-536.4866,-375000,-375000,-151030.1,-220182.7,0.03,0.00,0.89,-4,0,-2,5,0
'[13:17:03.620 21/01/2026]',-124989.7,-199745.1,-88993.16,-536.0842,-375000,-375000,-151035.1,-220151.8,0.03,0.00,0.89,-4,0,-2,5,0
'[13:17:03.624 21/01/2026]',-124993.5,-199716.3,-88999.68,-548.3777,-375000,-375000,-151051.9,-219920.4,0.03,0.00,0.89,-4,0,-2,5,0
'[13:17:03.628 21/01/2026]',-124974.9,-199736.5,-88987.3,-547.2601,-375000,-375000,-151050.9,-219980.7,0.03,0.00,0.89,-4,0,-2,5,0
'[13:17:03.632 21/01/2026]',-124967.2,-199778.7,-88986.27,-548.3329,-375000,-375000,-151047.3,-220233.1,0.03,0.00,0.89,-4,0,-2,5,0
'[13:17:03.636 21/01/2026]',-124972.8,-199755.5,-88992.88,-538.7217,-375000,-375000,-151045.1,-220167,0.03,0.00,0.89,-4,0,-2,5,0
'[13:17:03.640 21/01/2026]',-124987.2,-199706.7,-88999.77,-534.3855,-375000,-375000,-151050.5,-219773,0.03,0.00,0.89,-4,0,-2,5,0
'[13:17:03.644 21/01/2026]',-124997.8,-199733.4,-88999.5,-546.7236,-375000,-375000,-151054.8,-219724.8,0.03,0.00,0.89,-4,0,-2,5,0
'[13:17:03.648 21/01/2026]',-124984.7,-199778.5,-88986.27,-550.7917,-375000,-375000,-151045.7,-220214.5,0.03,0.00,0.89,-4,0,-2,5,0
'[13:17:03.652 21/01/2026]',-124976.5,-199759.8,-88987.16,-538.7664,-375000,-375000,-151044.3,-220264.3,0.03,0.00,0.89,-4,0,-2,5,0
'[13:17:03.656 21/01/2026]',-124980.4,-199712.9,-88996.82,-534.5196,-375000,-375000,-151050.2,-219945,0.03,0.00,0.89,-4,0,-2,5,0
'[13:17:03.660 21/01/2026]',-124979.2,-199714.9,-88991.37,-535.9501,-375000,-375000,-151047.5,-219857.5,0.03,0.00,0.89,-4,0,-2,5,0
'[13:17:03.664 21/01/2026]',-124973.9,-199757.6,-88985.47,-536.2631,-375000,-375000,-151047.1,-220062.1,0.03,0.00,0.89,-4,0,-2,5,0
'[13:17:03.668 21/01/2026]',-124967.9,-199756.1,-88983.95,-527.1435,-375000,-375000,-151046.2,-220192,0.03,0.00,0.89,-4,0,-2,5,0
'[13:17:03.672 21/01/2026]',-124973.1,-199713,-88988.23,-520.438,-375000,-375000,-151050.5,-219928.2,0.02,0.00,0.88,-4,0,-2,5,0
'[13:17:03.676 21/01/2026]',-124980.8,-199715.8,-88991.95,-527.3223,-375000,-375000,-151057.2,-219677.9,0.02,0.00,0.88,-4,0,-2,5,0
'[13:17:03.680 21/01/2026]',-124976.9,-199764.6,-88983.41,-539.0347,-375000,-375000,-151054.5,-220046.9,0.02,0.00,0.88,-4,0,-2,5,0
