'Time and date','Fp1','Fp2','F3','Fz','F4','P3','Pz','P4','AccX','AccY','AccZ','GyroX','GyroY','GyroZ','Battery','Event'
'[hh:mm:ss.mmm dd/mm/yyyy]','uV','uV','uV','uV','uV','uV','uV','uV','G','G','G','Deg/s','Deg/s','Deg/s','%','Button'
'[13:08:00.000 20/01/2026]',-121620,-177508,-90204.8,-122673.9,-375000,-375000,-146982.3,-139932.5,0.05,0.02,0.89,-4,0,-2,51,0
'[13:08:00.004 20/01/2026]',-121710.5,-177488.5,-90185.13,-122765.6,-375000,-375000,-147005.8,-140007.4,0.05,0.02,0.89,-4,0,-2,51,0
'[13:08:00.008 20/01/2026]',-121719.2,-177514.2,-90207.84,-122710.3,-375000,-375000,-146989,-139978.2,0.05,0.02,0.89,-4,0,-2,51,0
'[13:08:00.012 20/01/2026]',-121612.9,-177522.9,-90222.77,-122580.4,-375000,-375000,-146949.3,-139880.9,0.05,0.02,0.89,-4,0,-2,51,0
'[13:08:00.016 20/01/2026]',-121611.4,-177497,-90202.52,-122635.6,-375000,-375000,-146978.5,-139914.2,0.05,0.02,0.89,-4,0,-2,51,0
'[13:08:00.020 20/01/2026]',-121710.8,-177456.2,-90181.2,-122756.9,-375000,-375000,-147018.9,-140011.3,0.05,0.02,0.89,-4,0,-2,51,0
'[13:08:00.024 20/01/2026]',-121730.9,-177486.9,-90191.03,-122709.7,-375000,-375000,-146981,-139970.5,0.05,0.02,0.89,-4,0,-2,51,0
'[13:08:00.028 20/01/2026]',-121613.6,-177505.1,-90190.49,-122547.2,-375000,-375000,-146901.7,-139831.9,0.05,0.02,0.89,-4,0,-2,51,0
'[13:08:00.032 20/01/2026]',-121575.6,-177483.4,-90168.72,-122558.6,-375000,-375000,-146911,-139830.7,0.05,0.02,0.89,-4,0,-2,51,0
'[13:08:00.036 20/01/2026]',-121620,-177508,-90204.8,-122673.9,-375000,-375000,-146982.3,-139932.5,0.05,0.02,0.89,-4,0,-2,51,0
'[13:08:00.040 20/01/2026]',-121710.5,-177488.5,-90185.13,-122765.6,-375000,-375000,-147005.8,-140007.4,0.05,0.02,0.89,-4,0,-2,51,0
'[13:08:00.044 20/01/2026]',-121719.2,-177514.2,-90207.84,-122710.3,-375000,-375000,-146989,-139978.2,0.05,0.02,0.89,-4,0,-2,51,0
'[13:08:00.048 20/01/2026]',-121612.9,-177522.9,-90222.77,-122580.4,-375000,-375000,-146949.3,-139880.9,0.05,0.02,0.89,-4,0,-2,51,0
'[13:08:00.052 20/01/2026]',-121611.4,-177497,-90202.52,-122635.6,-375000,-375000,-146978.5,-139914.2,0.05,0.02,0.89,-4,0,-2,51,0
'[13:08:00.056 20/01/2026]',-121710.8,-177456.2,-90181.2,-122756.9,-375000,-375000,-147018.9,-140011.3,0.05,0.02,0.89,-4,0,-2,51,0
'[13:08:00.060 20/01/2026]',-121730.9,-177486.9,-90191.03,-122709.7,-375000,-375000,-146981,-139970.5,0.05,0.02,0.89,-4,0,-2,51,0
'[13:08:00.064 20/01/2026]',-121613.6,-177505.1,-90190.49,-122547.2,-375000,-375000,-146901.7,-139831.9,0.05,0.02,0.89,-4,0,-2,51,0
'[13:08:00.068 20/01/2026]',-121575.6,-177483.4,-90168.72,-122558.6,-375000,-375000,-146911,-139830.7,0.05,0.02,0.89,-4,0,-2,51,0
'[13:08:00.072 20/01/2026]',-121718.5,-177472.1,-90158.84,-122729,-375000,-375000,-146982,-139969.4,0.05,0.00,0.88,-4,0,-2,51,0
'[13:08:00.076 20/01/2026]',-121745.5,-177462.4,-90155.94,-122707.2,-375000,-375000,-146964.1,-139962,0.05,0.00,0.88,-4,0,-2,51,0
'[13:08:00.080 20/01/2026]',-121651.2,-177486.7,-90177.44,-122575.9,-375000,-375000,-146913.5,-139859.3,0.05,0.00,0.88,-4,0,-2,51,0
'[13:08:00.084 20/01/2026]',-121564.7,-177465.7,-90154.02,-122535.4,-375000,-375000,-146892.7,-139814.9,0.05,0.00,0.88,-4,0,-2,51,0
'[13:08:00.088 20/01/2026]',-121669.4,-177449.5,-90136.13,-122699.3,-375000,-375000,-146953.8,-139941.5,0.05,0.00,0.88,-4,0,-2,51,0
'[13:08:00.092 20/01/2026]',-121712.9,-177436.4,-90130.05,-122710.8,-375000,-375000,-146941,-139951.7,0.05,0.00,0.88,-4,0,-2,51,0
'[13:08:00.096 20/01/2026]',-121647.2,-177461,-90152.14,-122604.6,-375000,-375000,-146901.3,-139876.2,0.05,0.00,0.88,-4,0,-2,51,0
'[13:08:00.100 20/01/2026]',-121547.9,-177456.2,-90145.07,-122540.2,-375000,-375000,-146881.7,-139820.2,0.05,0.00,0.88,-4,0,-2,51,0
'[13:08:00.104 20/01/2026]',-121661.1,-177443.4,-90137.66,-122714.1,-375000,-375000,-146961,-139954.1,0.05,0.00,0.88,-4,0,-2,51,0
'[13:08:00.108 20/01/2026]',-121747.1,-177437.4,-90131.62,-122761.4,-375000,-375000,-146959.9,-139992.5,0.03,0.00,0.88,-4,0,-2,51,0
'[13:08:00.112 20/01/2026]',-121696.4,-177456.2,-90150.75,-122657.5,-375000,-375000,-146922.2,-139922.7,0.03,0.00,0.88,-4,0,-2,51,0
'[13:08:00.116 20/01/2026]',-121600.2,-177458.4,-90151.06,-122565.9,-375000,-375000,-146896.2,-139850,0.03,0.00,0.88,-4,0,-2,51,0
'[13:08:00.120 20/01/2026]',-121695.9,-177454.2,-90146.02,-122716.1,-375000,-375000,-146970.1,-139967.7,0.03,0.00,0.88,-4,0,-2,51,0
'[13:08:00.124 20/01/2026]',-121790.6,-177433.5,-90129.65,-122781.5,-375000,-375000,-146976.7,-140019,0.03,0.00,0.88,-4,0,-2,51,0
'[13:08:00.128 20/01/2026]',-121768.1,-177447.5,-90148.6,-122696.9,-375000,-375000,-146944.7,-139961.4,0.03,0.00,0.88,-4,0,-2,51,0
'[13:08:00.132 20/01/2026]',-121650.8,-177452.2,-90160.14,-122573.6,-375000,-375000,-146903.1,-139861.5,0.03,0.00,0.88,-4,0,-2,51,0
'[13:08:00.136 20/01/2026]',-121702.5,-177442.1,-90151.82,-122689,-375000,-375000,-146964.8,-139952.4,0.03,0.00,0.88,-4,0,-2,51,0
'[13:08:00.140 20/01/2026]',-121839.7,-177439.6,-90143.46,-122810,-375000,-375000,-147000.9,-140052.6,0.03,0.00,0.88,-4,0,-2,51,0
'[13:08:00.144 20/01/2026]',-121821.6,-177452.1,-90159.11,-122735.6,-375000,-375000,-146965.5,-140002.7,0.03,0.00,0.89,-4,0,-2,51,0
'[13:08:00.148 20/01/2026]',-121704.2,-177456.4,-90168.59,-122597.8,-375000,-375000,-146916.7,-139898.2,0.03,0.00,0.89,-4,0,-2,51,0
'[13:08:00.152 20/01/2026]',-121699.3,-177445.1,-90146.77,-122654.9,-375000,-375000,-146949,-139937.6,0.03,0.00,0.89,-4,0,-2,51,0
'[13:08:00.156 20/01/2026]',-121805.1,-177431.1,-90130.1,-122775.2,-375000,-375000,-146988.7,-140034.1,0.03,0.00,0.89,-4,0,-2,51,0
'[13:08:00.160 20/01/2026]',-121793.9,-177436.2,-90137.2,-122714.8,-375000,-375000,-146956.8,-139991,0.03,0.00,0.89,-4,0,-2,51,0
'[13:08:00.164 20/01/2026]',-121674.6,-177442.6,-90144.67,-122572.5,-375000,-375000,-146904.6,-139880.1,0.03,0.00,0.89,-4,0,-2,51,0
'[13:08:00.168 20/01/2026]',-121631,-177431.5,-90130.99,-122586.5,-375000,-375000,-146918.7,-139882.2,0.03,0.00,0.89,-4,0,-2,51,0
'[13:08:00.172 20/01/2026]',-121760.2,-177431.8,-90125.63,-122749.3,-375000,-375000,-146982.8,-140008.1,0.03,0.00,0.89,-4,0,-2,51,0
'[13:08:00.176 20/01/2026]',-121780.1,-177440.3,-90135.77,-122733.7,-375000,-375000,-146968.2,-139998.9,0.03,0.00,0.89,-4,0,-2,51,0
'[13:08:00.180 20/01/2026]',-121680.9,-177451.8,-90152.8,-122605.8,-375000,-375000,-146925.5,-139903.7,0.03,0.00,0.89,-4,0,-2,51,0
'[13:08:00.184 20/01/2026]',-121605.4,-177444.4,-90139.17,-122579.7,-375000,-375000,-146919,-139868.9,0.03,0.00,0.89,-4,0,-2,51,0
'[13:08:00.188 20/01/2026]',-121725,-177432.3,-90127.23,-122740.9,-375000,-375000,-146984.5,-139992.2,0.03,0.00,0.89,-4,0,-2,51,0
'[13:08:00.192 20/01/2026]',-121764.5,-177426.8,-90133.09,-122734.4,-375000,-375000,-146963.3,-139990.4,0.03,0.00,0.89,-4,0,-2,51,0
'[13:08:00.196 20/01/2026]',-121713.6,-177448.2,-90156.7,-122626.4,-375000,-375000,-146924.8,-139910.6,0.03,0.00,0.89,-4,0,-2,51,0
'[13:08:00.200 20/01/2026]',-121623.8,-177440.4,-90147.8,-122560.6,-375000,-375000,-146900.2,-139849.5,0.03,0.00,0.89,-4,0,-2,51,0
'[13:08:00.204 20/01/2026]',-121744.4,-177437.8,-90135.59,-122734.1,-375000,-375000,-146969.4,-139979.2,0.03,0.00,0.89,-4,0,-2,51,0
'[13:08:00.208 20/01/2026]',-121817.9,-177435.2,-90131.04,-122772.6,-375000,-375000,-146966.9,-140010.9,0.03,0.00,0.89,-4,0,-2,51,0
'[13:08:00.212 20/01/2026]',-121749.9,-177451.7,-90151.02,-122661.1,-375000,-375000,-146922.2,-139924.7,0.03,0.00,0.89,-4,0,-2,51,0
'[13:08:00.216 20/01/2026]',-121598.6,-177438.6,-90139.8,-122542,-375000,-375000,-146872.9,-139820.1,0.03,0.00,0.88,-4,0,-2,51,0
'[13:08:00.220 20/01/2026]',-121695.5,-177444.5,-90143.78,-122715.7,-375000,-375000,-146961.8,-139951.3,0.03,0.00,0.88,-4,0,-2,51,0
'[13:08:00.224 20/01/2026]',-121807.9,-177441.1,-90142.66,-122800,-375000,-375000,-146979.7,-140024.1,0.03,0.00,0.88,-4,0,-2,51,0
'[13:08:00.228 20/01/2026]',-121769.2,-177460.9,-90162.42,-122708.1,-375000,-375000,-146943.9,-139965.5,0.03,0.00,0.88,-4,0,-2,51,0
'[13:08:00.232 20/01/2026]',-121624.6,-177463.9,-90162.11,-122568.2,-375000,-375000,-146884.8,-139852,0.03,0.00,0.88,-4,0,-2,51,0
'[13:08:00.236 20/01/2026]',-121670.5,-177460.7,-90152,-122689.5,-375000,-375000,-146949,-139946.7,0.03,0.00,0.88,-4,0,-2,51,0
'[13:08:00.240 20/01/2026]',-121808.2,-177467.8,-90153.88,-122815.8,-375000,-375000,-146995.4,-140052.5,0.03,0.00,0.88,-4,0,-2,51,0
'[13:08:00.244 20/01/2026]',-121829.7,-177488.8,-90173.82,-122759.1,-375000,-375000,-146972.9,-140017.6,0.03,0.00,0.88,-4,0,-2,51,0
'[13:08:00.248 20/01/2026]',-121698.3,-177483.7,-90166.48,-122599.5,-375000,-375000,-146904.5,-139889.2,0.03,0.00,0.88,-4,0,-2,51,0
'[13:08:00.252 20/01/2026]',-121709.2,-177480.6,-90156.38,-122676.5,-375000,-375000,-146952.5,-139947,0.03,0.00,0.88,-4,0,-2,51,0
'[13:08:00.256 20/01/2026]',-121913.4,-177493.7,-90168.68,-122851.7,-375000,-375000,-147026.9,-140095.3,0.03,0.00,0.88,-4,0,-2,51,0
'[13:08:00.260 20/01/2026]',-121900.6,-177500,-90172.57,-122774.7,-375000,-375000,-146985.7,-140047.1,0.03,0.00,0.88,-4,0,-2,51,0
'[13:08:00.264 20/01/2026]',-121745.5,-177506.8,-90173.91,-122608,-375000,-375000,-146926.9,-139924.7,0.03,0.00,0.88,-4,0,-2,51,0
'[13:08:00.268 20/01/2026]',-121710.7,-177480.5,-90162.06,-122636.7,-375000,-375000,-146953.5,-139944.4,0.03,0.00,0.88,-4,0,-2,51,0
'[13:08:00.272 20/01/2026]',-121870.3,-177471.6,-90160.85,-122801.8,-375000,-375000,-147008.3,-140068.8,0.03,0.00,0.88,-4,0,-2,51,0
'[13:08:00.276 20/01/2026]',-121905.1,-177504.5,-90173.38,-122771.8,-375000,-375000,-146978,-140043.6,0.03,0.00,0.88,-4,0,-2,51,0
'[13:08:00.280 20/01/2026]',-121809.5,-177529.3,-90191.97,-122634.5,-375000,-375000,-146926.9,-139937.4,0.03,0.00,0.88,-4,0,-2,51,0
'[13:08:00.284 20/01/2026]',-121741.3,-177527,-90192.41,-122614.8,-375000,-375000,-146922.9,-139903.2,0.03,0.00,0.88,-4,0,-2,51,0
'[13:08:00.288 20/01/2026]',-121919.2,-177541.4,-90199.61,-122818.3,-375000,-375000,-147009.2,-140056,0.03,0.00,0.88,-4,0,-2,51,0
'[13:08:00.292 20/01/2026]',-121987.6,-177556.1,-90211.91,-122820.7,-375000,-375000,-146987.8,-140052.9,0.03,0.00,0.88,-4,0,-2,51,0
'[13:08:00.296 20/01/2026]',-121935.8,-177593.6,-90245.3,-122714.3,-375000,-375000,-146949.8,-139971.8,0.03,0.00,0.88,-4,0,-2,51,0
'[13:08:00.300 20/01/2026]',-121843,-177594,-90244,-122648.8,-375000,-375000,-146924.2,-139909.1,0.03,0.00,0.88,-4,0,-2,51,0
'[13:08:00.304 20/01/2026]',-121996.9,-177610.6,-90248.61,-122844.9,-375000,-375000,-147009.4,-140057.6,0.03,0.00,0.88,-4,0,-2,51,0
'[13:08:00.308 20/01/2026]',-122084.4,-177609.5,-90246.59,-122883.5,-375000,-375000,-147002.7,-140087.7,0.03,0.00,0.88,-4,0,-2,51,0
'[13:08:00.312 20/01/2026]',-122042.5,-177633.7,-90272.61,-122774.9,-375000,-375000,-146951.9,-140001,0.03,0.00,0.88,-4,0,-2,51,0
'[13:08:00.316 20/01/2026]',-121919,-177623.6,-90264.12,-122665.5,-375000,-375000,-146907,-139903.2,0.03,0.00,0.88,-4,0,-2,51,0
'[13:08:00.320 20/01/2026]',-122037.5,-177617.3,-90256.56,-122841.9,-375000,-375000,-146995,-140040.4,0.03,0.00,0.88,-4,0,-2,51,0
'[13:08:00.324 20/01/2026]',-122146.7,-177602.2,-90253.26,-122915.6,-375000,-375000,-147003.5,-140096.3,0.02,0.00,0.88,-4,0,-2,51,0
'[13:08:00.328 20/01/2026]',-122097,-177608.8,-90280.34,-122823,-375000,-375000,-146964.6,-140028.8,0.02,0.00,0.88,-4,0,-2,51,0
'[13:08:00.332 20/01/2026]',-121916.1,-177591.8,-90259.65,-122660.1,-375000,-375000,-146897.8,-139892.7,0.02,0.00,0.88,-4,0,-2,51,0
'[13:08:00.336 20/01/2026]',-121993,-177586.7,-90247.63,-122795.7,-375000,-375000,-146968.3,-139992.1,0.02,0.00,0.88,-4,0,-2,51,0
'[13:08:00.340 20/01/2026]',-122113,-177568.8,-90237.97,-122904.1,-375000,-375000,-147002.1,-140082.4,0.02,0.00,0.88,-4,0,-2,51,0
'[13:08:00.344 20/01/2026]',-122091.6,-177568.8,-90257.64,-122826,-375000,-375000,-146971.3,-140034,0.02,0.00,0.88,-4,0,-2,51,0
'[13:08:00.348 20/01/2026]',-121932.6,-177555.7,-90250.66,-122650.1,-375000,-375000,-146893.5,-139891,0.02,0.00,0.88,-4,0,-2,51,0
'[13:08:00.352 20/01/2026]',-121950.2,-177547.9,-90236.31,-122730.5,-375000,-375000,-146942.9,-139949,0.02,0.00,0.88,-4,0,-2,51,0
'[13:08:00.356 20/01/2026]',-122089.6,-177529.1,-90221.2,-122866.5,-375000,-375000,-146995.8,-140064.7,0.02,0.00,0.88,-4,0,-2,51,0
'[13:08:00.360 20/01/2026]',-122058.8,-177522,-90217.98,-122774.1,-375000,-375000,-146944,-139997.1,0.05,0.00,0.88,-4,0,-2,51,0
'[13:08:00.364 20/01/2026]',-121918.9,-177519.1,-90218.88,-122610.5,-375000,-375000,-146882.4,-139871,0.05,0.00,0.88,-4,0,-2,51,0
'[13:08:00.368 20/01/2026]',-121902.7,-177502,-90210.25,-122651.5,-375000,-375000,-146916.3,-139899,0.05,0.00,0.88,-4,0,-2,51,0
'[13:08:00.372 20/01/2026]',-122021.6,-177493.9,-90200.41,-122799.3,-375000,-375000,-146968.8,-140012.6,0.05,0.00,0.88,-4,0,-2,51,0
'[13:08:00.376 20/01/2026]',-122011.1,-177480.8,-90199.34,-122748.8,-375000,-375000,-146936.7,-139977.8,0.05,0.00,0.88,-4,0,-2,51,0
'[13:08:00.380 20/01/2026]',-121899.8,-177489.3,-90203.14,-122611.5,-375000,-375000,-146892.1,-139876.4,0.05,0.00,0.88,-4,0,-2,51,0
'[13:08:00.384 20/01/2026]',-121820,-177483.7,-90196.17,-122596.4,-375000,-375000,-146893.7,-139851,0.05,0.00,0.88,-4,0,-2,51,0
'[13:08:00.388 20/01/2026]',-121930.5,-177463.9,-90183.43,-122761.5,-375000,-375000,-146957.6,-139979.4,0.05,0.00,0.88,-4,0,-2,51,0
'[13:08:00.392 20/01/2026]',-121951,-177451.4,-90176.68,-122753.4,-375000,-375000,-146941.4,-139982.3,0.05,0.00,0.88,-4,0,-2,51,0
'[13:08:00.396 20/01/2026]',-121856.2,-177470.5,-90197.6,-122639,-375000,-375000,-146900.1,-139899.7,0.03,0.02,0.88,-4,0,-2,51,0
'[13:08:00.400 20/01/2026]',-121742.8,-177461.2,-90183.02,-122579.5,-375000,-375000,-146879.7,-139842.3,0.03,0.02,0.88,-4,0,-2,51,0
'[13:08:00.404 20/01/2026]',-121864.8,-177462.9,-90179.59,-122757.5,-375000,-375000,-146959.1,-139980,0.03,0.02,0.88,-4,0,-2,51,0
'[13:08:00.408 20/01/2026]',-121929.4,-177458.9,-90179.72,-122789,-375000,-375000,-146955.4,-140009.8,0.03,0.02,0.88,-4,0,-2,51,0
'[13:08:00.412 20/01/2026]',-121861.6,-177463.4,-90185.66,-122678.7,-375000,-375000,-146908.8,-139930,0.03,0.02,0.88,-4,0,-2,51,0
'[13:08:00.416 20/01/2026]',-121733.9,-177445.1,-90162.2,-122574.2,-375000,-375000,-146863.8,-139840.3,0.03,0.02,0.88,-4,0,-2,51,0
'[13:08:00.420 20/01/2026]',-121823.9,-177444.7,-90164.74,-122731.9,-375000,-375000,-146937.5,-139963.4,0.03,0.02,0.88,-4,0,-2,51,0
'[13:08:00.424 20/01/2026]',-121900.2,-177435.2,-90159.2,-122788.9,-375000,-375000,-146938.4,-140009.6,0.03,0.02,0.88,-4,0,-2,51,0
'[13:08:00.428 20/01/2026]',-121876,-177454.2,-90182.45,-122708.8,-375000,-375000,-146911.2,-139959.3,0.03,0.02,0.88,-4,0,-2,51,0
'[13:08:00.432 20/01/2026]',-121767,-177443.7,-90183.34,-122594.5,-375000,-375000,-146872.3,-139871.9,0.03,0.02,0.86,-4,0,-2,51,0
'[13:08:00.436 20/01/2026]',-121829.3,-177438.3,-90174,-122719,-375000,-375000,-146931.3,-139960.5,0.03,0.02,0.86,-4,0,-2,51,0
'[13:08:00.440 20/01/2026]',-121929.1,-177427.1,-90153.08,-122808.9,-375000,-375000,-146949.9,-140031.3,0.03,0.02,0.86,-4,0,-2,51,0
'[13:08:00.444 20/01/2026]',-121906.7,-177440.1,-90167.47,-122733.2,-375000,-375000,-146920.3,-139987.5,0.03,0.02,0.86,-4,0,-2,51,0
'[13:08:00.448 20/01/2026]',-121763.4,-177438.8,-90170.78,-122589.6,-375000,-375000,-146868.4,-139872.6,0.03,0.02,0.86,-4,0,-2,51,0
'[13:08:00.452 20/01/2026]',-121762.3,-177416.8,-90153.61,-122656.4,-375000,-375000,-146902.4,-139912.4,0.03,0.02,0.86,-4,0,-2,51,0
'[13:08:00.456 20/01/2026]',-121872.9,-177404.6,-90147.35,-122775.7,-375000,-375000,-146941.9,-140009.1,0.03,0.02,0.86,-4,0,-2,51,0
'[13:08:00.460 20/01/2026]',-121869.4,-177417.8,-90155.58,-122720.6,-375000,-375000,-146916.3,-139973.7,0.03,0.02,0.86,-4,0,-2,51,0
'[13:08:00.464 20/01/2026]',-121777.8,-177429.3,-90161.88,-122590.9,-375000,-375000,-146870.1,-139869.3,0.03,0.02,0.86,-4,0,-2,51,0
'[13:08:00.468 20/01/2026]',-121777.2,-177412.9,-90148.52,-122623.2,-375000,-375000,-146891.3,-139879.5,0.03,0.02,0.89,-4,0,-2,51,0
'[13:08:00.472 20/01/2026]',-121898.6,-177405.6,-90137.3,-122760.9,-375000,-375000,-146940.5,-139983.7,0.03,0.02,0.89,-4,0,-2,51,0
'[13:08:00.476 20/01/2026]',-121914.1,-177402.1,-90138.99,-122714.5,-375000,-375000,-146911.7,-139958.4,0.03,0.02,0.89,-4,0,-2,51,0
'[13:08:00.480 20/01/2026]',-121839.1,-177423.4,-90169.93,-122597.7,-375000,-375000,-146878.5,-139877.7,0.03,0.02,0.89,-4,0,-2,51,0
'[13:08:00.484 20/01/2026]',-121799.4,-177413.3,-90153.43,-122589.5,-375000,-375000,-146880.6,-139857.8,0.03,0.02,0.89,-4,0,-2,51,0
'[13:08:00.488 20/01/2026]',-121944.9,-177402.9,-90140.96,-122754.3,-375000,-375000,-146949.1,-139990.6,0.03,0.02,0.89,-4,0,-2,51,0
'[13:08:00.492 20/01/2026]',-121984.4,-177406.2,-90149.55,-122749.5,-375000,-375000,-146936.7,-139995,0.03,0.02,0.89,-4,0,-2,51,0
'[13:08:00.496 20/01/2026]',-121909.9,-177429.4,-90175.74,-122638.5,-375000,-375000,-146900.4,-139916,0.03,0.02,0.89,-4,0,-2,51,0
'[13:08:00.500 20/01/2026]',-121803.1,-177411.5,-90152.8,-122570.5,-375000,-375000,-146871,-139852.9,0.03,0.02,0.89,-4,0,-2,51,0
'[13:08:00.504 20/01/2026]',-121907.4,-177409.7,-90146.55,-122732.8,-375000,-375000,-146941.7,-139980.2,0.03,0.00,0.89,-4,0,-2,51,0
'[13:08:00.508 20/01/2026]',-121963.8,-177405.7,-90146.02,-122761,-375000,-375000,-146937.2,-140009,0.03,0.00,0.89,-4,0,-2,51,0
'[13:08:00.512 20/01/2026]',-121909.4,-177423.1,-90171.94,-122664.4,-375000,-375000,-146902.2,-139941.3,0.03,0.00,0.89,-4,0,-2,51,0
'[13:08:00.516 20/01/2026]',-121767.6,-177403.5,-90156.92,-122560.5,-375000,-375000,-146854.6,-139847.3,0.03,0.00,0.89,-4,0,-2,51,0
'[13:08:00.520 20/01/2026]',-121859.4,-177393.1,-90147.48,-122719.3,-375000,-375000,-146926.1,-139970.2,0.03,0.00,0.89,-4,0,-2,51,0
'[13:08:00.524 20/01/2026]',-121923.1,-177378.7,-90133.23,-122765.9,-375000,-375000,-146923,-140009.3,0.03,0.00,0.89,-4,0,-2,51,0
'[13:08:00.528 20/01/2026]',-121879.3,-177403.7,-90152.95,-122678.3,-375000,-375000,-146891.9,-139949.7,0.03,0.00,0.89,-4,0,-2,51,0
'[13:08:00.532 20/01/2026]',-121772.5,-177408.5,-90160.09,-122573.3,-375000,-375000,-146856.4,-139868.7,0.03,0.00,0.89,-4,0,-2,51,0
'[13:08:00.536 20/01/2026]',-121786.2,-177389,-90130.55,-122666.8,-375000,-375000,-146894.4,-139940.8,0.03,0.00,0.89,-4,0,-2,51,0
'[13:08:00.540 20/01/2026]',-121875.7,-177385.1,-90128.89,-122748.7,-375000,-375000,-146925.4,-140035.1,0.03,0.00,0.89,-4,0,-2,51,0
'[13:08:00.544 20/01/2026]',-121847.6,-177409.6,-90154.23,-122669.7,-375000,-375000,-146903.8,-139984.8,0.03,0.00,0.89,-4,0,-2,51,0
'[13:08:00.548 20/01/2026]',-121754.8,-177414.4,-90162.77,-122563.4,-375000,-375000,-146868.1,-139888,0.03,0.00,0.89,-4,0,-2,51,0
'[13:08:00.552 20/01/2026]',-121799.9,-177404.9,-90145.92,-122653.6,-375000,-375000,-146908.4,-139944.4,0.03,0.00,0.89,-4,0,-2,51,0
'[13:08:00.556 20/01/2026]',-121908.3,-177388.4,-90132.02,-122760.3,-375000,-375000,-146935.4,-140023.1,0.03,0.00,0.89,-4,0,-2,51,0
'[13:08:00.560 20/01/2026]',-121889.2,-177391.1,-90140.88,-122686.4,-375000,-375000,-146897.2,-139965.1,0.03,0.00,0.89,-4,0,-2,51,0
'[13:08:00.564 20/01/2026]',-121758.4,-177391.8,-90143.11,-122534.4,-375000,-375000,-146840.2,-139844.6,0.03,0.00,0.89,-4,0,-2,51,0
'[13:08:00.568 20/01/2026]',-121731.8,-177376,-90120.4,-122562.9,-375000,-375000,-146858.3,-139855.2,0.03,0.00,0.89,-4,0,-2,51,0
'[13:08:00.572 20/01/2026]',-121880.7,-177388.9,-90124.51,-122726.7,-375000,-375000,-146930.9,-139990.5,0.03,0.00,0.89,-4,0,-2,51,0
'[13:08:00.576 20/01/2026]',-121933.2,-177399.5,-90138.63,-122705.7,-375000,-375000,-146913.3,-139986.4,0.03,0.00,0.88,-4,0,-2,51,0
'[13:08:00.580 20/01/2026]',-121822.5,-177401.9,-90143.29,-122559.6,-375000,-375000,-146851.6,-139873.9,0.03,0.00,0.88,-4,0,-2,51,0
'[13:08:00.584 20/01/2026]',-121764.7,-177402.5,-90138.55,-122558.3,-375000,-375000,-146866.2,-139860.8,0.03,0.00,0.88,-4,0,-2,51,0
'[13:08:00.588 20/01/2026]',-121888.9,-177400.4,-90134.52,-122725.9,-375000,-375000,-146936.3,-139988.7,0.03,0.00,0.88,-4,0,-2,51,0
'[13:08:00.592 20/01/2026]',-121920.4,-177404.8,-90142.88,-122723.2,-375000,-375000,-146925.7,-139994.3,0.03,0.00,0.88,-4,0,-2,51,0
'[13:08:00.596 20/01/2026]',-121833.3,-177427.3,-90165.41,-122605.9,-375000,-375000,-146885.1,-139910.6,0.03,0.00,0.88,-4,0,-2,51,0
'[13:08:00.600 20/01/2026]',-121723.5,-177408.3,-90142.98,-122543.7,-375000,-375000,-146858,-139853.3,0.03,0.00,0.88,-4,0,-2,51,0
'[13:08:00.604 20/01/2026]',-121832.6,-177398.1,-90137.38,-122713.9,-375000,-375000,-146928.5,-139986.2,0.03,0.00,0.88,-4,0,-2,51,0
'[13:08:00.608 20/01/2026]',-121887.5,-177390.9,-90130.19,-122734,-375000,-375000,-146916.9,-140004,0.03,0.00,0.88,-4,0,-2,51,0
'[13:08:00.612 20/01/2026]',-121799.8,-177404.8,-90146.02,-122613.1,-375000,-375000,-146870.4,-139912.8,0.03,0.02,0.89,-4,0,-2,51,0
'[13:08:00.616 20/01/2026]',-121685.6,-177398.9,-90133.59,-122517.2,-375000,-375000,-146837.6,-139825.9,0.03,0.02,0.89,-4,0,-2,51,0
'[13:08:00.620 20/01/2026]',-121813.1,-177403.9,-90133.23,-122683,-375000,-375000,-146919.9,-139954.8,0.03,0.02,0.89,-4,0,-2,51,0
'[13:08:00.624 20/01/2026]',-121887.7,-177398.5,-90128.35,-122730.3,-375000,-375000,-146926.1,-139994.5,0.03,0.02,0.89,-4,0,-2,51,0
'[13:08:00.628 20/01/2026]',-121882,-177432.1,-90165.19,-122662.2,-375000,-375000,-146910.4,-139951.7,0.03,0.02,0.89,-4,0,-2,51,0
'[13:08:00.632 20/01/2026]',-121742,-177416.5,-90151.24,-122535.6,-375000,-375000,-146852.8,-139839,0.03,0.02,0.89,-4,0,-2,51,0
'[13:08:00.636 20/01/2026]',-121790.7,-177416.4,-90147.13,-122665.3,-375000,-375000,-146910.3,-139927.7,0.03,0.02,0.89,-4,0,-2,51,0
'[13:08:00.640 20/01/2026]',-121895.6,-177413.3,-90142.88,-122763.9,-375000,-375000,-146938.5,-140010.3,0.03,0.02,0.89,-4,0,-2,51,0
'[13:08:00.644 20/01/2026]',-121855.3,-177423.8,-90157.86,-122681.9,-375000,-375000,-146904.4,-139955.4,0.03,0.02,0.89,-4,0,-2,51,0
'[13:08:00.648 20/01/2026]',-121711.2,-177424.7,-90159.38,-122538.4,-375000,-375000,-146850.8,-139840.4,0.03,0.00,0.89,-4,0,-2,51,0
'[13:08:00.652 20/01/2026]',-121735,-177405.1,-90143.15,-122617.3,-375000,-375000,-146892.3,-139893.6,0.03,0.00,0.89,-4,0,-2,51,0
'[13:08:00.656 20/01/2026]',-121865.9,-177402.8,-90134.39,-122742.9,-375000,-375000,-146939.4,-139999.9,0.03,0.00,0.89,-4,0,-2,51,0
'[13:08:00.660 20/01/2026]',-121880.2,-177417.5,-90151.69,-122696.1,-375000,-375000,-146912.7,-139969.4,0.03,0.00,0.89,-4,0,-2,51,0
'[13:08:00.664 20/01/2026]',-121773.7,-177417.3,-90161.52,-122565.3,-375000,-375000,-146858.9,-139863.3,0.03,0.00,0.89,-4,0,-2,51,0
'[13:08:00.668 20/01/2026]',-121748.5,-177393.9,-90137.61,-122602.8,-375000,-375000,-146872.7,-139882.7,0.03,0.00,0.89,-4,0,-2,51,0
'[13:08:00.672 20/01/2026]',-121862.1,-177376.5,-90116.24,-122737.4,-375000,-375000,-146907.7,-139986.3,0.03,0.00,0.89,-4,0,-2,51,0
'[13:08:00.676 20/01/2026]',-121877.8,-177377.2,-90116.02,-122699,-375000,-375000,-146876.6,-139961.6,0.03,0.00,0.89,-4,0,-2,51,0
'[13:08:00.680 20/01/2026]',-121776.9,-177386.2,-90131.8,-122568.3,-375000,-375000,-146828.9,-139860.6,0.03,0.00,0.89,-4,0,-2,51,0
'[13:08:00.684 20/01/2026]',-121728.2,-177384.9,-90125.18,-122571.2,-375000,-375000,-146840.3,-139855,0.03,0.00,0.88,-4,0,-2,51,0
'[13:08:00.688 20/01/2026]',-121861.9,-177396,-90130.14,-122745.6,-375000,-375000,-146918.5,-139992.7,0.03,0.00,0.88,-4,0,-2,51,0
'[13:08:00.692 20/01/2026]',-121915.3,-177411.2,-90146.82,-122749.6,-375000,-375000,-146919.7,-140007.6,0.03,0.00,0.88,-4,0,-2,51,0
'[13:08:00.696 20/01/2026]',-121829.7,-177430.6,-90169.21,-122627.4,-375000,-375000,-146883.3,-139924.1,0.03,0.00,0.88,-4,0,-2,51,0
'[13:08:00.700 20/01/2026]',-121711.7,-177407.4,-90147.58,-122560.2,-375000,-375000,-146856,-139855.8,0.03,0.00,0.88,-4,0,-2,51,0
'[13:08:00.704 20/01/2026]',-121813.1,-177399.9,-90134.84,-122714,-375000,-375000,-146923.1,-139969.9,0.03,0.00,0.88,-4,0,-2,51,0
'[13:08:00.708 20/01/2026]',-121858.7,-177401.7,-90140.6,-122726.9,-375000,-375000,-146925,-139990.5,0.03,0.00,0.88,-4,0,-2,51,0
'[13:08:00.712 20/01/2026]',-121790.8,-177425.7,-90163.4,-122616.9,-375000,-375000,-146893.2,-139915.5,0.03,0.00,0.88,-4,0,-2,51,0
'[13:08:00.716 20/01/2026]',-121684.1,-177413.5,-90153.84,-122531.6,-375000,-375000,-146863.3,-139836.8,0.03,0.00,0.88,-4,0,-2,51,0
'[13:08:00.720 20/01/2026]',-121769,-177402.2,-90137.88,-122681.3,-375000,-375000,-146926.1,-139942.7,0.03,0.00,0.88,-4,0,-2,51,0
'[13:08:00.724 20/01/2026]',-121830.5,-177395.3,-90129.88,-122718,-375000,-375000,-146925.2,-139973.6,0.03,0.00,0.88,-4,0,-2,51,0
'[13:08:00.728 20/01/2026]',-121819.2,-177426.3,-90166.4,-122641.7,-375000,-375000,-146906.2,-139920.3,0.03,0.00,0.88,-4,0,-2,51,0
'[13:08:00.732 20/01/2026]',-121691.7,-177416.8,-90152.72,-122518.4,-375000,-375000,-146855.7,-139815.5,0.03,0.00,0.88,-4,0,-2,51,0
'[13:08:00.736 20/01/2026]',-121754.9,-177413.3,-90149.23,-122650.5,-375000,-375000,-146922.3,-139912.3,0.03,0.00,0.88,-4,0,-2,51,0
'[13:08:00.740 20/01/2026]',-121869.3,-177408,-90144,-122741.2,-375000,-375000,-146944.3,-139980.5,0.03,0.00,0.88,-4,0,-2,51,0
'[13:08:00.744 20/01/2026]',-121847.3,-177425.7,-90162.87,-122664.7,-375000,-375000,-146915.9,-139931.4,0.03,0.00,0.88,-4,0,-2,51,0
'[13:08:00.748 20/01/2026]',-121698.5,-177405.3,-90148.25,-122520.1,-375000,-375000,-146863.2,-139822.1,0.03,0.00,0.88,-4,0,-2,51,0
'[13:08:00.752 20/01/2026]',-121709.3,-177379.2,-90126.7,-122607.9,-375000,-375000,-146905.2,-139888.3,0.03,0.00,0.88,-4,0,-2,51,0
'[13:08:00.756 20/01/2026]',-121858.8,-177394.4,-90132.78,-122741.8,-375000,-375000,-146934.2,-139988.3,0.03,0.00,0.88,-4,0,-2,51,0
'[13:08:00.760 20/01/2026]',-121881.9,-177414.7,-90151.42,-122697,-375000,-375000,-146906.2,-139961.1,0.03,0.00,0.88,-4,0,-2,51,0
'[13:08:00.764 20/01/2026]',-121731.2,-177402.6,-90150.21,-122545.1,-375000,-375000,-146848.5,-139850,0.03,0.00,0.88,-4,0,-2,51,0
'[13:08:00.768 20/01/2026]',-121681,-177374.9,-90127.64,-122582.5,-375000,-375000,-146869.2,-139875.3,0.03,0.00,0.88,-4,0,-2,51,0
'[13:08:00.772 20/01/2026]',-121808.4,-177370.6,-90121.47,-122727.7,-375000,-375000,-146909,-139982.7,0.03,0.00,0.88,-4,0,-2,51,0
'[13:08:00.776 20/01/2026]',-121820.8,-177376.5,-90130.1,-122688.5,-375000,-375000,-146882.3,-139955.4,0.03,0.00,0.88,-4,0,-2,51,0
'[13:08:00.780 20/01/2026]',-121711.2,-177385.5,-90142.08,-122555.9,-375000,-375000,-146841,-139852.4,0.03,0.00,0.88,-4,0,-2,51,0
'[13:08:00.784 20/01/2026]',-121644.8,-177370.3,-90130.59,-122556.6,-375000,-375000,-146850.8,-139839.7,0.03,0.00,0.88,-4,0,-2,51,0
'[13:08:00.788 20/01/2026]',-121785.5,-177374.5,-90133.59,-122732,-375000,-375000,-146928.3,-139976.8,0.03,0.00,0.88,-4,0,-2,51,0
'[13:08:00.792 20/01/2026]',-121799.7,-177368.9,-90123.52,-122699.1,-375000,-375000,-146895.1,-139956.6,0.03,0.00,0.88,-4,0,-2,51,0
'[13:08:00.796 20/01/2026]',-121681.3,-177379.7,-90134.26,-122549.5,-375000,-375000,-146839,-139844.1,0.03,0.00,0.88,-4,0,-2,51,0
'[13:08:00.800 20/01/2026]',-121598.9,-177371.1,-90130.68,-122510.7,-375000,-375000,-146838.3,-139805.6,0.03,0.00,0.88,-4,0,-2,51,0
'[13:08:00.804 20/01/2026]',-121740.1,-177359.6,-90128.31,-122688.2,-375000,-375000,-146918.2,-139941.7,0.03,0.00,0.88,-4,0,-2,51,0
'[13:08:00.808 20/01/2026]',-121795.1,-177347,-90117.72,-122686.8,-375000,-375000,-146902.8,-139942.6,0.03,0.00,0.88,-4,0,-2,51,0
'[13:08:00.812 20/01/2026]',-121739.5,-177373.2,-90140.34,-122576.7,-375000,-375000,-146867,-139863,0.03,0.00,0.88,-4,0,-2,51,0
'[13:08:00.816 20/01/2026]',-121587.2,-177344.5,-90109.53,-122461.6,-375000,-375000,-146808.4,-139756.8,0.03,0.00,0.88,-4,0,-2,51,0
'[13:08:00.820 20/01/2026]',-121656.8,-177326.2,-90079.13,-122601.4,-375000,-375000,-146864.6,-139862,0.03,0.00,0.88,-4,0,-2,51,0
'[13:08:00.824 20/01/2026]',-121770.3,-177334,-90092.68,-122676.3,-375000,-375000,-146891.4,-139928.7,0.03,0.00,0.88,-4,0,-2,51,0
'[13:08:00.828 20/01/2026]',-121775.8,-177371.5,-90136.8,-122614.2,-375000,-375000,-146878,-139891.3,0.05,0.00,0.88,-4,0,-2,51,0
'[13:08:00.832 20/01/2026]',-121667.7,-177376,-90142.8,-122509.2,-375000,-375000,-146841.8,-139805.4,0.05,0.00,0.88,-4,0,-2,51,0
'[13:08:00.836 20/01/2026]',-121721.8,-177365.4,-90126.3,-122639.2,-375000,-375000,-146905.5,-139907.6,0.05,0.00,0.88,-4,0,-2,51,0
'[13:08:00.840 20/01/2026]',-121821.3,-177362.6,-90120.94,-122724.3,-375000,-375000,-146922.8,-139971.7,0.05,0.00,0.88,-4,0,-2,51,0
'[13:08:00.844 20/01/2026]',-121783.3,-177377.4,-90136.94,-122635.7,-375000,-375000,-146885.9,-139911.6,0.05,0.00,0.88,-4,0,-2,51,0
'[13:08:00.848 20/01/2026]',-121614,-177369,-90128.35,-122480.7,-375000,-375000,-146819.8,-139781.7,0.05,0.00,0.88,-4,0,-2,51,0
'[13:08:00.852 20/01/2026]',-121631.6,-177359.4,-90111.5,-122578.4,-375000,-375000,-146865.6,-139845,0.05,0.00,0.88,-4,0,-2,51,0
'[13:08:00.856 20/01/2026]',-121757.5,-177352.2,-90105.78,-122700.3,-375000,-375000,-146902.6,-139943.9,0.05,0.00,0.88,-4,0,-2,51,0
'[13:08:00.860 20/01/2026]',-121777.4,-177367,-90129.47,-122648.4,-375000,-375000,-146876.6,-139914.7,0.05,0.00,0.88,-4,0,-2,51,0
'[13:08:00.864 20/01/2026]',-121648.3,-177371,-90138.05,-122500.8,-375000,-375000,-146815.5,-139797.3,0.03,0.00,0.89,-4,0,-2,51,0
'[13:08:00.868 20/01/2026]',-121646.4,-177368.5,-90112.66,-122556.6,-375000,-375000,-146847.6,-139831.8,0.03,0.00,0.89,-4,0,-2,51,0
'[13:08:00.872 20/01/2026]',-121785.3,-177369.9,-90107.66,-122706.8,-375000,-375000,-146906.2,-139953.3,0.03,0.00,0.89,-4,0,-2,51,0
'[13:08:00.876 20/01/2026]',-121802.7,-177382.3,-90128.35,-122667.5,-375000,-375000,-146889.5,-139935.4,0.03,0.00,0.89,-4,0,-2,51,0
'[13:08:00.880 20/01/2026]',-121702.2,-177399.5,-90151.34,-122537.6,-375000,-375000,-146845.9,-139833.5,0.03,0.00,0.89,-4,0,-2,51,0
'[13:08:00.884 20/01/2026]',-121646,-177380,-90133.45,-122540.3,-375000,-375000,-146849.1,-139819.7,0.03,0.00,0.89,-4,0,-2,51,0
'[13:08:00.888 20/01/2026]',-121748.1,-177377.9,-90124.51,-122696.1,-375000,-375000,-146912.1,-139938,0.03,0.00,0.89,-4,0,-2,51,0
'[13:08:00.892 20/01/2026]',-121780.5,-177395.4,-90140.56,-122683.1,-375000,-375000,-146909.3,-139932.5,0.03,0.00,0.89,-4,0,-2,51,0
'[13:08:00.896 20/01/2026]',-121700.8,-177413.7,-90160.01,-122552.9,-375000,-375000,-146870.7,-139838.9,0.03,0.00,0.89,-4,0,-2,51,0
'[13:08:00.900 20/01/2026]',-121579.3,-177382.7,-90129.79,-122485.3,-375000,-375000,-146837.1,-139770.9,0.05,0.00,0.88,-4,0,-2,51,0
'[13:08:00.904 20/01/2026]',-121678.9,-177364.8,-90107.12,-122643.6,-375000,-375000,-146896.2,-139887.2,0.05,0.00,0.88,-4,0,-2,51,0
'[13:08:00.908 20/01/2026]',-121722.8,-177358.7,-90095.14,-122646.4,-375000,-375000,-146881,-139891.6,0.05,0.00,0.88,-4,0,-2,51,0
'[13:08:00.912 20/01/2026]',-121649.8,-177380.7,-90127.51,-122536.3,-375000,-375000,-146845.2,-139809,0.05,0.00,0.88,-4,0,-2,51,0
'[13:08:00.916 20/01/2026]',-121529.3,-177386.9,-90138.37,-122459.2,-375000,-375000,-146820.2,-139735.8,0.05,0.00,0.88,-4,0,-2,51,0
'[13:08:00.920 20/01/2026]',-121661.5,-177399,-90144,-122651.9,-375000,-375000,-146913.6,-139885.2,0.05,0.00,0.88,-4,0,-2,51,0
'[13:08:00.924 20/01/2026]',-121694.2,-177363,-90108.1,-122662.3,-375000,-375000,-146889.8,-139897.5,0.05,0.00,0.88,-4,0,-2,51,0
'[13:08:00.928 20/01/2026]',-121597.6,-177355,-90101.17,-122526.2,-375000,-375000,-146823.7,-139793.7,0.05,0.00,0.88,-4,0,-2,51,0
'[13:08:00.932 20/01/2026]',-121446.2,-177344.3,-90087.23,-122405.7,-375000,-375000,-146774.6,-139689,0.05,0.00,0.88,-4,0,-2,51,0
'[13:08:00.936 20/01/2026]',-121522.7,-177340.1,-90081.05,-122559.5,-375000,-375000,-146845.9,-139798.4,0.03,0.00,0.89,-4,0,-2,51,0
'[13:08:00.940 20/01/2026]',-121606.4,-177328.2,-90067.73,-122633.1,-375000,-375000,-146856.9,-139857.4,0.03,0.00,0.89,-4,0,-2,51,0
'[13:08:00.944 20/01/2026]',-121546.3,-177340.3,-90078.2,-122535.3,-375000,-375000,-146817.7,-139790.8,0.03,0.00,0.89,-4,0,-2,51,0
'[13:08:00.948 20/01/2026]',-121384.5,-177331.3,-90073.23,-122390.1,-375000,-375000,-146760.1,-139670.5,0.03,0.00,0.89,-4,0,-2,51,0
'[13:08:00.952 20/01/2026]',-121410.3,-177314.5,-90054.77,-122487.2,-375000,-375000,-146806.1,-139740.9,0.03,0.00,0.89,-4,0,-2,51,0
'[13:08:00.956 20/01/2026]',-121515,-177302.5,-90043.55,-122589.7,-375000,-375000,-146830.9,-139817,0.03,0.00,0.89,-4,0,-2,51,0
'[13:08:00.960 20/01/2026]',-121521.3,-177326.8,-90066.8,-122534.1,-375000,-375000,-146810.9,-139783.5,0.03,0.00,0.89,-4,0,-2,51,0
'[13:08:00.964 20/01/2026]',-121437.1,-177341.1,-90086.55,-122413.7,-375000,-375000,-146777.6,-139695.8,0.03,0.00,0.89,-4,0,-2,51,0
'[13:08:00.968 20/01/2026]',-121457.2,-177330.2,-90072.61,-122474.3,-375000,-375000,-146811.3,-139733.8,0.03,0.00,0.89,-4,0,-2,51,0
'[13:08:00.972 20/01/2026]',-121588.1,-177325.2,-90058.13,-122609.2,-375000,-375000,-146856.2,-139842.1,0.03,0.00,0.89,-4,0,-2,51,0
'[13:08:00.976 20/01/2026]',-121620,-177346.5,-90075.25,-122571.7,-375000,-375000,-146836.9,-139826.2,0.03,0.00,0.89,-4,0,-2,51,0
'[13:08:00.980 20/01/2026]',-121500.2,-177352.5,-90091.56,-122428.3,-375000,-375000,-146783.3,-139716.3,0.03,0.00,0.89,-4,0,-2,51,0
'[13:08:00.984 20/01/2026]',-121436,-177343.4,-90084.73,-122438.3,-375000,-375000,-146801,-139715.8,0.03,0.00,0.89,-4,0,-2,51,0
'[13:08:00.988 20/01/2026]',-121554.9,-177333.4,-90066.62,-122603,-375000,-375000,-146867.8,-139846.6,0.03,0.00,0.89,-4,0,-2,51,0
'[13:08:00.992 20/01/2026]',-121581.6,-177336.8,-90073.82,-122589.3,-375000,-375000,-146854.6,-139844.6,0.03,0.00,0.89,-4,0,-2,51,0
'[13:08:00.996 20/01/2026]',-121471.7,-177346.9,-90087.77,-122457.9,-375000,-375000,-146804.8,-139743.3,0.03,0.00,0.89,-4,0,-2,51,0
'[13:08:01.000 20/01/2026]',-121390.2,-177338.5,-90079.27,-122428.1,-375000,-375000,-146795.6,-139702.3,0.03,0.00,0.89,-4,0,-2,51,0
'[13:08:01.004 20/01/2026]',-121523.3,-177342.1,-90077.57,-122602.6,-375000,-375000,-146869.5,-139835.2,0.03,0.00,0.89,-4,0,-2,51,0
'[13:08:01.008 20/01/2026]',-121542.9,-177330.6,-90061.97,-122581.3,-375000,-375000,-146838.9,-139819.5,0.03,0.00,0.89,-4,0,-2,51,0
'[13:08:01.012 20/01/2026]',-121497.2,-177355.9,-90087.36,-122473.7,-375000,-375000,-146806.2,-139738.9,0.03,0.00,0.89,-4,0,-2,51,0
'[13:08:01.016 20/01/2026]',-121412.1,-177348.2,-90084.41,-122399.9,-375000,-375000,-146783.3,-139670.7,0.03,0.00,0.89,-4,0,-2,51,0
'[13:08:01.020 20/01/2026]',-121518.7,-177339.9,-90070.42,-122550.3,-375000,-375000,-146847.1,-139782,0.03,0.00,0.89,-4,0,-2,51,0
'[13:08:01.024 20/01/2026]',-121594.7,-177337.3,-90064.38,-122581.6,-375000,-375000,-146847.5,-139811,0.03,0.00,0.89,-4,0,-2,51,0
'[13:08:01.028 20/01/2026]',-121541.1,-177354.1,-90084.19,-122473.9,-375000,-375000,-146805.8,-139732.5,0.03,0.00,0.89,-4,0,-2,51,0
'[13:08:01.032 20/01/2026]',-121413.4,-177356.3,-90089.69,-122373.3,-375000,-375000,-146773.9,-139646,0.03,0.00,0.89,-4,0,-2,51,0
'[13:08:01.036 20/01/2026]',-121506.3,-177341.2,-90084.59,-122532.6,-375000,-375000,-146859,-139771.4,0.03,0.00,0.89,-4,0,-2,51,0
'[13:08:01.040 20/01/2026]',-121561.2,-177306.8,-90057.9,-122578.7,-375000,-375000,-146857.8,-139813.2,0.03,0.00,0.89,-4,0,-2,51,0
'[13:08:01.044 20/01/2026]',-121513.5,-177339.7,-90085.93,-122488.5,-375000,-375000,-146818.5,-139745.7,0.02,0.02,0.89,-4,0,-2,51,0
'[13:08:01.048 20/01/2026]',-121393,-177358,-90089.2,-122366.5,-375000,-375000,-146767.9,-139638.8,0.02,0.02,0.89,-4,0,-2,51,0
'[13:08:01.052 20/01/2026]',-121395,-177337.8,-90067.02,-122461.3,-375000,-375000,-146814.3,-139706.8,0.02,0.02,0.89,-4,0,-2,51,0
'[13:08:01.056 20/01/2026]',-121510.2,-177336.7,-90068.67,-122577.9,-375000,-375000,-146850.1,-139799.4,0.02,0.02,0.89,-4,0,-2,51,0
'[13:08:01.060 20/01/2026]',-121502.3,-177348.8,-90090.13,-122516.7,-375000,-375000,-146820.4,-139756.2,0.02,0.02,0.89,-4,0,-2,51,0
'[13:08:01.064 20/01/2026]',-121375.5,-177348.6,-90091.12,-122377.9,-375000,-375000,-146764.9,-139642.8,0.02,0.02,0.89,-4,0,-2,51,0
'[13:08:01.068 20/01/2026]',-121419.5,-177357.5,-90091.88,-122464.2,-375000,-375000,-146810.4,-139702.5,0.02,0.02,0.89,-4,0,-2,51,0
'[13:08:01.072 20/01/2026]',-121551.7,-177339.7,-90080.08,-122600.5,-375000,-375000,-146858.2,-139813.6,0.02,0.02,0.89,-4,0,-2,51,0
'[13:08:01.076 20/01/2026]',-121532.4,-177327.3,-90082.76,-122529.2,-375000,-375000,-146817.8,-139763.5,0.02,0.02,0.89,-4,0,-2,51,0
'[13:08:01.080 20/01/2026]',-121420.9,-177336.5,-90087.32,-122384.3,-375000,-375000,-146763.7,-139648.9,0.05,0.02,0.88,-4,0,-2,51,0
'[13:08:01.084 20/01/2026]',-121403.5,-177334.1,-90075.11,-122413.7,-375000,-375000,-146786.8,-139662.1,0.05,0.02,0.88,-4,0,-2,51,0
'[13:08:01.088 20/01/2026]',-121525.6,-177327.9,-90068.41,-122569.8,-375000,-375000,-146846.1,-139783.5,0.05,0.02,0.88,-4,0,-2,51,0
'[13:08:01.092 20/01/2026]',-121556.7,-177328.3,-90080.61,-122551,-375000,-375000,-146825.8,-139770.4,0.05,0.02,0.88,-4,0,-2,51,0
'[13:08:01.096 20/01/2026]',-121457,-177335.3,-90092.95,-122418.8,-375000,-375000,-146781,-139672,0.05,0.02,0.88,-4,0,-2,51,0
'[13:08:01.100 20/01/2026]',-121369.8,-177316.3,-90063.22,-122376.6,-375000,-375000,-146765.2,-139628.3,0.05,0.02,0.88,-4,0,-2,51,0
'[13:08:01.104 20/01/2026]',-121459.5,-177305.3,-90047.22,-122524.8,-375000,-375000,-146823.2,-139740.8,0.05,0.02,0.88,-4,0,-2,51,0
'[13:08:01.108 20/01/2026]',-121522.4,-177313.9,-90063.49,-122545.1,-375000,-375000,-146824.1,-139762.8,0.05,0.02,0.88,-4,0,-2,51,0
'[13:08:01.112 20/01/2026]',-121462.8,-177331.8,-90089.28,-122434,-375000,-375000,-146786.4,-139686.2,0.05,0.02,0.88,-4,0,-2,51,0
'[13:08:01.116 20/01/2026]',-121327.9,-177310.6,-90075.7,-122344.4,-375000,-375000,-146750.7,-139605.2,0.03,0.00,0.89,-4,0,-2,51,0
'[13:08:01.120 20/01/2026]',-121433.3,-177312.7,-90068.41,-122512.3,-375000,-375000,-146828.3,-139734.4,0.03,0.00,0.89,-4,0,-2,51,0
'[13:08:01.124 20/01/2026]',-121504.8,-177316.9,-90069.57,-122552.6,-375000,-375000,-146833.3,-139769.7,0.03,0.00,0.89,-4,0,-2,51,0
'[13:08:01.128 20/01/2026]',-121476.1,-177339.6,-90095.59,-122466.6,-375000,-375000,-146803.6,-139710.4,0.03,0.00,0.89,-4,0,-2,51,0
'[13:08:01.132 20/01/2026]',-121373.8,-177332.4,-90090.13,-122370.6,-375000,-375000,-146764.4,-139629.7,0.03,0.00,0.89,-4,0,-2,51,0
'[13:08:01.136 20/01/2026]',-121415.4,-177311.5,-90064.43,-122491.7,-375000,-375000,-146812.4,-139719,0.03,0.00,0.89,-4,0,-2,51,0
'[13:08:01.140 20/01/2026]',-121482,-177304.3,-90063.18,-122554.7,-375000,-375000,-146830.8,-139777.3,0.03,0.00,0.89,-4,0,-2,51,0
'[13:08:01.144 20/01/2026]',-121469.8,-177330,-90092.63,-122489.3,-375000,-375000,-146815.6,-139738.4,0.03,0.00,0.89,-4,0,-2,51,0
'[13:08:01.148 20/01/2026]',-121326.8,-177331.9,-90087.41,-122359.1,-375000,-375000,-146767.2,-139635.7,0.03,0.00,0.89,-4,0,-2,51,0
'[13:08:01.152 20/01/2026]',-121371.2,-177320.1,-90070.82,-122463.5,-375000,-375000,-146812.5,-139708.5,0.03,0.02,0.88,-4,0,-2,51,0
'[13:08:01.156 20/01/2026]',-121464.5,-177292.8,-90048.16,-122543.5,-375000,-375000,-146824,-139771.4,0.03,0.02,0.88,-4,0,-2,51,0
'[13:08:01.160 20/01/2026]',-121467.4,-177313,-90071.89,-122488,-375000,-375000,-146805.4,-139737.1,0.03,0.02,0.88,-4,0,-2,51,0
'[13:08:01.164 20/01/2026]',-121346.5,-177323,-90082.13,-122356,-375000,-375000,-146758.2,-139634.1,0.03,0.02,0.88,-4,0,-2,51,0
'[13:08:01.168 20/01/2026]',-121382.1,-177320.9,-90078.73,-122442.7,-375000,-375000,-146808.5,-139697,0.03,0.02,0.88,-4,0,-2,51,0
'[13:08:01.172 20/01/2026]',-121531.8,-177321,-90078.82,-122584.4,-375000,-375000,-146861.5,-139808.5,0.03,0.02,0.88,-4,0,-2,51,0
'[13:08:01.176 20/01/2026]',-121549.3,-177340.8,-90098.18,-122542.6,-375000,-375000,-146844,-139784.7,0.03,0.02,0.88,-4,0,-2,51,0
'[13:08:01.180 20/01/2026]',-121446.7,-177359.6,-90113.38,-122409.7,-375000,-375000,-146797.4,-139685.8,0.03,0.02,0.88,-4,0,-2,51,0
'[13:08:01.184 20/01/2026]',-121455.3,-177358.6,-90113.11,-122456.5,-375000,-375000,-146828.7,-139714,0.03,0.02,0.88,-4,0,-2,51,0
'[13:08:01.188 20/01/2026]',-121566.4,-177335.6,-90091.12,-122592.6,-375000,-375000,-146865.6,-139814,0.03,0.00,0.88,-4,0,-2,51,0
'[13:08:01.192 20/01/2026]',-121566.1,-177335.6,-90093.22,-122556.8,-375000,-375000,-146840.6,-139789.3,0.03,0.00,0.88,-4,0,-2,51,0
'[13:08:01.196 20/01/2026]',-121463.1,-177341.4,-90102.61,-122424.8,-375000,-375000,-146790,-139690.3,0.03,0.00,0.88,-4,0,-2,51,0
'[13:08:01.200 20/01/2026]',-121386.1,-177326,-90086.06,-122398.8,-375000,-375000,-146782.2,-139660,0.03,0.00,0.88,-4,0,-2,51,0
'[13:08:01.204 20/01/2026]',-121517.7,-177322.6,-90080.52,-122575,-375000,-375000,-146853.7,-139796.1,0.03,0.00,0.88,-4,0,-2,51,0
'[13:08:01.208 20/01/2026]',-121579.4,-177346.9,-90095.5,-122593,-375000,-375000,-146854.4,-139814.9,0.03,0.00,0.88,-4,0,-2,51,0
'[13:08:01.212 20/01/2026]',-121518.9,-177371.5,-90130.59,-122485.4,-375000,-375000,-146819.4,-139735.9,0.03,0.00,0.88,-4,0,-2,51,0
'[13:08:01.216 20/01/2026]',-121406.4,-177354.9,-90112.44,-122407.4,-375000,-375000,-146789,-139664.6,0.03,0.00,0.88,-4,0,-2,51,0
'[13:08:01.220 20/01/2026]',-121538.6,-177340.9,-90094.91,-122573.9,-375000,-375000,-146856.8,-139790,0.03,0.00,0.88,-4,0,-2,51,0
'[13:08:01.224 20/01/2026]',-121581.9,-177309.3,-90057.55,-122570.6,-375000,-375000,-146820.4,-139786.5,0.05,0.00,0.89,-4,0,-2,51,0
'[13:08:01.228 20/01/2026]',-121522,-177329.6,-90079.13,-122462.5,-375000,-375000,-146781.4,-139710.3,0.05,0.00,0.89,-4,0,-2,51,0
'[13:08:01.232 20/01/2026]',-121412.4,-177321.2,-90077.8,-122365.6,-375000,-375000,-146746.8,-139627,0.05,0.00,0.89,-4,0,-2,51,0
'[13:08:01.236 20/01/2026]',-121494.2,-177315.6,-90069.57,-122514.9,-375000,-375000,-146816.8,-139741.1,0.05,0.00,0.89,-4,0,-2,51,0
'[13:08:01.240 20/01/2026]',-121583.6,-177317.9,-90065.81,-122583.4,-375000,-375000,-146832.9,-139799.2,0.05,0.00,0.89,-4,0,-2,51,0
'[13:08:01.244 20/01/2026]',-121553.2,-177338.3,-90091.92,-122504.5,-375000,-375000,-146808.2,-139749.4,0.05,0.00,0.89,-4,0,-2,51,0
'[13:08:01.248 20/01/2026]',-121430.5,-177341.9,-90098.9,-122392.5,-375000,-375000,-146773.8,-139661,0.05,0.00,0.89,-4,0,-2,51,0
'[13:08:01.252 20/01/2026]',-121484.1,-177347,-90093.89,-122516.6,-375000,-375000,-146838,-139754.1,0.05,0.00,0.89,-4,0,-2,51,0
'[13:08:01.256 20/01/2026]',-121578.5,-177344.8,-90092.55,-122615.5,-375000,-375000,-146869.7,-139835.3,0.05,0.00,0.89,-4,0,-2,51,0
'[13:08:01.260 20/01/2026]',-121567.4,-177342.8,-90094.38,-122544.6,-375000,-375000,-146831.3,-139787.3,0.03,0.02,0.86,-4,0,-2,51,0
'[13:08:01.264 20/01/2026]',-121440.6,-177341.4,-90091.3,-122401.6,-375000,-375000,-146774.4,-139675.6,0.03,0.02,0.86,-4,0,-2,51,0
'[13:08:01.268 20/01/2026]',-121450.6,-177339.5,-90088.44,-122479.2,-375000,-375000,-146820,-139730.5,0.03,0.02,0.86,-4,0,-2,51,0
'[13:08:01.272 20/01/2026]',-121549.8,-177334.9,-90073.82,-122598.6,-375000,-375000,-146857,-139822.9,0.03,0.02,0.86,-4,0,-2,51,0
'[13:08:01.276 20/01/2026]',-121558.7,-177347.5,-90092.01,-122551.7,-375000,-375000,-146831.4,-139792.9,0.03,0.02,0.86,-4,0,-2,51,0
'[13:08:01.280 20/01/2026]',-121453.1,-177359.4,-90109.13,-122420.5,-375000,-375000,-146785.9,-139694.6,0.03,0.02,0.86,-4,0,-2,51,0
'[13:08:01.284 20/01/2026]',-121422.8,-177337.3,-90076.01,-122436,-375000,-375000,-146795,-139695.9,0.03,0.02,0.86,-4,0,-2,51,0
'[13:08:01.288 20/01/2026]',-121563.1,-177326.8,-90061.97,-122590.3,-375000,-375000,-146851,-139814.8,0.03,0.02,0.86,-4,0,-2,51,0
'[13:08:01.292 20/01/2026]',-121572,-177309.8,-90055.13,-122542.5,-375000,-375000,-146807.3,-139780.7,0.03,0.02,0.86,-4,0,-2,51,0
'[13:08:01.296 20/01/2026]',-121444.4,-177308.5,-90060.85,-122391.8,-375000,-375000,-146744.3,-139664.4,0.03,0.02,0.88,-4,0,-2,51,0
'[13:08:01.300 20/01/2026]',-121370.7,-177303.3,-90049.95,-122374.5,-375000,-375000,-146746.6,-139644.6,0.03,0.02,0.88,-4,0,-2,51,0
'[13:08:01.304 20/01/2026]',-121494.4,-177300,-90042.66,-122542.5,-375000,-375000,-146814.4,-139772.4,0.03,0.02,0.88,-4,0,-2,51,0
'[13:08:01.308 20/01/2026]',-121542,-177315.1,-90054.68,-122551.4,-375000,-375000,-146815.3,-139789,0.03,0.02,0.88,-4,0,-2,51,0
'[13:08:01.312 20/01/2026]',-121464.1,-177336.1,-90080.3,-122436.6,-375000,-375000,-146780.1,-139706.9,0.03,0.02,0.88,-4,0,-2,51,0
'[13:08:01.316 20/01/2026]',-121372.7,-177332,-90073.23,-122376.7,-375000,-375000,-146761.2,-139653.3,0.03,0.02,0.88,-4,0,-2,51,0
'[13:08:01.320 20/01/2026]',-121507.5,-177343.4,-90083.96,-122566.2,-375000,-375000,-146853.5,-139800,0.03,0.02,0.88,-4,0,-2,51,0
'[13:08:01.324 20/01/2026]',-121535.6,-177316.3,-90059.51,-122570,-375000,-375000,-146825.9,-139801,0.03,0.02,0.88,-4,0,-2,51,0
'[13:08:01.328 20/01/2026]',-121449.1,-177313,-90059.73,-122440,-375000,-375000,-146762.7,-139700.5,0.03,0.02,0.88,-4,0,-2,51,0
'[13:08:01.332 20/01/2026]',-121316.7,-177302.8,-90043.2,-122333.6,-375000,-375000,-146721.5,-139609.8,0.03,0.02,0.88,-4,0,-2,51,0
'[13:08:01.336 20/01/2026]',-121413.4,-177300.8,-90035.41,-122486.9,-375000,-375000,-146793.7,-139725.6,0.03,0.02,0.88,-4,0,-2,51,0
'[13:08:01.340 20/01/2026]',-121519.5,-177301.9,-90033.98,-122559.4,-375000,-375000,-146811.8,-139786.8,0.03,0.02,0.88,-4,0,-2,51,0
'[13:08:01.344 20/01/2026]',-121490.3,-177316,-90062.2,-122472.9,-375000,-375000,-146776.9,-139724.5,0.03,0.02,0.88,-4,0,-2,51,0
'[13:08:01.348 20/01/2026]',-121346.8,-177301.5,-90052.45,-122341.6,-375000,-375000,-146719.8,-139616.2,0.03,0.02,0.88,-4,0,-2,51,0
'[13:08:01.352 20/01/2026]',-121398.8,-177293.7,-90041.45,-122461.4,-375000,-375000,-146773.9,-139702.2,0.03,0.02,0.88,-4,0,-2,51,0
'[13:08:01.356 20/01/2026]',-121510.1,-177301,-90042.66,-122567.9,-375000,-375000,-146808.8,-139787.6,0.03,0.02,0.88,-4,0,-2,51,0
'[13:08:01.360 20/01/2026]',-121507.4,-177330.5,-90071.41,-122514.3,-375000,-375000,-146795.5,-139755.8,0.03,0.02,0.88,-4,0,-2,51,0
'[13:08:01.364 20/01/2026]',-121366.5,-177327.5,-90072.97,-122371,-375000,-375000,-146742.3,-139640.9,0.03,0.02,0.88,-4,0,-2,51,0
'[13:08:01.368 20/01/2026]',-121388,-177322.2,-90066.98,-122455.5,-375000,-375000,-146790.4,-139696,0.05,0.00,0.88,-4,0,-2,51,0
'[13:08:01.372 20/01/2026]',-121513,-177320.7,-90058.53,-122579.7,-375000,-375000,-146835.5,-139793.7,0.05,0.00,0.88,-4,0,-2,51,0
'[13:08:01.376 20/01/2026]',-121529,-177355.5,-90089.46,-122539.9,-375000,-375000,-146830.8,-139776.8,0.05,0.00,0.88,-4,0,-2,51,0
'[13:08:01.380 20/01/2026]',-121436.7,-177396.9,-90133.09,-122432.9,-375000,-375000,-146812.8,-139700.2,0.05,0.00,0.88,-4,0,-2,51,0
'[13:08:01.384 20/01/2026]',-121398.3,-177381.7,-90117.05,-122465.3,-375000,-375000,-146832.7,-139711.5,0.05,0.00,0.88,-4,0,-2,51,0
'[13:08:01.388 20/01/2026]',-121507,-177339.7,-90083.02,-122592.5,-375000,-375000,-146862.9,-139803.9,0.05,0.00,0.88,-4,0,-2,51,0
'[13:08:01.392 20/01/2026]',-121503,-177319.6,-90070.87,-122535.1,-375000,-375000,-146820.6,-139765,0.05,0.00,0.88,-4,0,-2,51,0
'[13:08:01.396 20/01/2026]',-121418.8,-177342,-90091.25,-122408.5,-375000,-375000,-146780.1,-139671.8,0.05,0.00,0.88,-4,0,-2,51,0
'[13:08:01.400 20/01/2026]',-121387.5,-177333.9,-90078.38,-122403.2,-375000,-375000,-146786.9,-139660.4,0.05,0.00,0.88,-4,0,-2,51,0
'[13:08:01.404 20/01/2026]',-121504.6,-177312.8,-90057.37,-122544.3,-375000,-375000,-146836.7,-139769.7,0.03,0.00,0.89,-4,0,-2,51,0
'[13:08:01.408 20/01/2026]',-121523.1,-177301.5,-90046.59,-122515.8,-375000,-375000,-146806.8,-139755.3,0.03,0.00,0.89,-4,0,-2,51,0
'[13:08:01.412 20/01/2026]',-121495.9,-177328.3,-90074.09,-122423.9,-375000,-375000,-146778.3,-139693.3,0.03,0.00,0.89,-4,0,-2,51,0
'[13:08:01.416 20/01/2026]',-121390.5,-177308.3,-90053.97,-122360.9,-375000,-375000,-146745.4,-139632.3,0.03,0.00,0.89,-4,0,-2,51,0
'[13:08:01.420 20/01/2026]',-121493.9,-177299.4,-90043.91,-122528.3,-375000,-375000,-146806.3,-139756.8,0.03,0.00,0.89,-4,0,-2,51,0
'[13:08:01.424 20/01/2026]',-121546.1,-177298.8,-90041.14,-122556.4,-375000,-375000,-146796.4,-139782.6,0.03,0.00,0.89,-4,0,-2,51,0
'[13:08:01.428 20/01/2026]',-121497.6,-177319.7,-90068.32,-122466.7,-375000,-375000,-146766.6,-139723.3,0.03,0.00,0.89,-4,0,-2,51,0
'[13:08:01.432 20/01/2026]',-121375.8,-177311,-90060.27,-122371.6,-375000,-375000,-146732.6,-139646.9,0.03,0.00,0.89,-4,0,-2,51,0
'[13:08:01.436 20/01/2026]',-121490.8,-177334.1,-90082.04,-122557.6,-375000,-375000,-146834,-139795.4,0.03,0.00,0.89,-4,0,-2,51,0
'[13:08:01.440 20/01/2026]',-121601.3,-177364.8,-90115.21,-122653.7,-375000,-375000,-146881.5,-139879.5,0.03,0.02,0.88,-4,0,-2,51,0
'[13:08:01.444 20/01/2026]',-121542.8,-177366,-90112.75,-122544.4,-375000,-375000,-146830.1,-139796.4,0.03,0.02,0.88,-4,0,-2,51,0
'[13:08:01.448 20/01/2026]',-121385.7,-177337.3,-90081.41,-122397,-375000,-375000,-146761,-139671.1,0.03,0.02,0.88,-4,0,-2,51,0
'[13:08:01.452 20/01/2026]',-121432.2,-177317.8,-90062.38,-122513.1,-375000,-375000,-146815.3,-139751.8,0.03,0.02,0.88,-4,0,-2,51,0
'[13:08:01.456 20/01/2026]',-121511.4,-177300.4,-90040.6,-122583.3,-375000,-375000,-146827.5,-139800.5,0.03,0.02,0.88,-4,0,-2,51,0
'[13:08:01.460 20/01/2026]',-121491.2,-177311.2,-90053.66,-122501.1,-375000,-375000,-146801.6,-139745.2,0.03,0.02,0.88,-4,0,-2,51,0
'[13:08:01.464 20/01/2026]',-121360,-177311.3,-90054.02,-122355.7,-375000,-375000,-146750.5,-139630.1,0.03,0.02,0.88,-4,0,-2,51,0
'[13:08:01.468 20/01/2026]',-121380.5,-177301.7,-90043.77,-122434.9,-375000,-375000,-146795.4,-139683.3,0.03,0.02,0.88,-4,0,-2,51,0
'[13:08:01.472 20/01/2026]',-121495.1,-177298.6,-90038.55,-122549,-375000,-375000,-146832.5,-139771.1,0.03,0.02,0.88,-4,0,-2,51,0
'[13:08:01.476 20/01/2026]',-121518.7,-177330.5,-90070.33,-122510.5,-375000,-375000,-146824,-139750.3,0.03,0.02,0.88,-4,0,-2,51,0
'[13:08:01.480 20/01/2026]',-121424.2,-177352.3,-90095.01,-122383.4,-375000,-375000,-146786.5,-139651,0.03,0.02,0.88,-4,0,-2,51,0
'[13:08:01.484 20/01/2026]',-121394,-177334.5,-90066.44,-122406,-375000,-375000,-146800.7,-139655.9,0.03,0.02,0.88,-4,0,-2,51,0
'[13:08:01.488 20/01/2026]',-121514.8,-177321.8,-90046.01,-122546.7,-375000,-375000,-146850,-139762.3,0.03,0.02,0.88,-4,0,-2,51,0
'[13:08:01.492 20/01/2026]',-121529.8,-177324.9,-90054.05,-122511.8,-375000,-375000,-146826.4,-139741.7,0.03,0.02,0.88,-4,0,-2,51,0
'[13:08:01.496 20/01/2026]',-121439,-177338.1,-90075.7,-122384.4,-375000,-375000,-146779.3,-139647.2,0.03,0.02,0.88,-4,0,-2,51,0
'[13:08:01.500 20/01/2026]',-121380.7,-177326.5,-90061.08,-122377.8,-375000,-375000,-146781.8,-139636.7,0.03,0.02,0.88,-4,0,-2,51,0
'[13:08:01.504 20/01/2026]',-121508.1,-177326.1,-90053.12,-122551.8,-375000,-375000,-146854,-139776.3,0.03,0.02,0.88,-4,0,-2,51,0
'[13:08:01.508 20/01/2026]',-121533.6,-177310.8,-90048.52,-122537.3,-375000,-375000,-146823.4,-139766.7,0.03,0.02,0.88,-4,0,-2,51,0
'[13:08:01.512 20/01/2026]',-121484.1,-177337.8,-90080.52,-122441.8,-375000,-375000,-146791.8,-139703.4,0.03,-0.02,0.88,-4,0,-2,51,0
'[13:08:01.516 20/01/2026]',-121388,-177328.1,-90065.28,-122385.2,-375000,-375000,-146766.7,-139652,0.03,-0.02,0.88,-4,0,-2,51,0
'[13:08:01.520 20/01/2026]',-121500.7,-177325.1,-90054.2,-122558.2,-375000,-375000,-146838.3,-139784.3,0.03,-0.02,0.88,-4,0,-2,51,0
'[13:08:01.524 20/01/2026]',-121566.6,-177328.4,-90059.73,-122592.4,-375000,-375000,-146838,-139818.1,0.03,-0.02,0.88,-4,0,-2,51,0
'[13:08:01.528 20/01/2026]',-121523,-177352.1,-90088.52,-122500,-375000,-375000,-146804.1,-139750.8,0.03,-0.02,0.88,-4,0,-2,51,0
'[13:08:01.532 20/01/2026]',-121409,-177335.3,-90069.75,-122404.7,-375000,-375000,-146763.1,-139666.8,0.03,-0.02,0.88,-4,0,-2,51,0
'[13:08:01.536 20/01/2026]',-121482.3,-177332.4,-90059.83,-122546.9,-375000,-375000,-146830.9,-139779.2,0.03,-0.02,0.88,-4,0,-2,51,0
'[13:08:01.540 20/01/2026]',-121593.6,-177333.9,-90063.4,-122615.2,-375000,-375000,-146848.4,-139840.2,0.03,-0.02,0.88,-4,0,-2,51,0
'[13:08:01.544 20/01/2026]',-121578.1,-177345.3,-90084.1,-122521,-375000,-375000,-146811.9,-139779,0.03,-0.02,0.88,-4,0,-2,51,0
'[13:08:01.548 20/01/2026]',-121453.9,-177349.1,-90086.02,-122397,-375000,-375000,-146769,-139680.9,0.03,0.00,0.88,-4,0,-2,51,0
'[13:08:01.552 20/01/2026]',-121510.5,-177346.2,-90073.64,-122516.8,-375000,-375000,-146828.5,-139770.8,0.03,0.00,0.88,-4,0,-2,51,0
'[13:08:01.556 20/01/2026]',-121592.1,-177328.4,-90058.08,-122587.9,-375000,-375000,-146838.8,-139827.6,0.03,0.00,0.88,-4,0,-2,51,0
'[13:08:01.560 20/01/2026]',-121557.8,-177337.9,-90077.26,-122506.6,-375000,-375000,-146810.3,-139772.8,0.03,0.00,0.88,-4,0,-2,51,0
'[13:08:01.564 20/01/2026]',-121458.8,-177346.2,-90091.66,-122393.1,-375000,-375000,-146778.8,-139684.4,0.03,0.00,0.88,-4,0,-2,51,0
'[13:08:01.568 20/01/2026]',-121481.5,-177336.2,-90072.38,-122478.6,-375000,-375000,-146823.1,-139743.5,0.03,0.00,0.88,-4,0,-2,51,0
'[13:08:01.572 20/01/2026]',-121591.1,-177323.8,-90052.54,-122589.5,-375000,-375000,-146854.8,-139829.4,0.03,0.00,0.88,-4,0,-2,51,0
'[13:08:01.576 20/01/2026]',-121582.9,-177327.6,-90063.13,-122532.5,-375000,-375000,-146837.6,-139800.3,0.03,0.00,0.88,-4,0,-2,51,0
'[13:08:01.580 20/01/2026]',-121467.2,-177335.6,-90089.02,-122402.9,-375000,-375000,-146801.4,-139705.4,0.03,0.00,0.88,-4,0,-2,51,0
'[13:08:01.584 20/01/2026]',-121449.4,-177336.1,-90079.31,-122441.6,-375000,-375000,-146817.5,-139718,0.03,-0.02,0.88,-4,0,-2,51,0
'[13:08:01.588 20/01/2026]',-121605.3,-177347.7,-90077.93,-122597.8,-375000,-375000,-146866.9,-139831.9,0.03,-0.02,0.88,-4,0,-2,51,0
'[13:08:01.592 20/01/2026]',-121625.2,-177334.1,-90075.25,-122557,-375000,-375000,-146832.9,-139805.2,0.03,-0.02,0.88,-4,0,-2,51,0
'[13:08:01.596 20/01/2026]',-121522.5,-177346.6,-90095.68,-122428,-375000,-375000,-146784.8,-139707.9,0.03,-0.02,0.88,-4,0,-2,51,0
'[13:08:01.600 20/01/2026]',-121481.3,-177345.4,-90091.12,-122440.2,-375000,-375000,-146792.7,-139702.8,0.03,-0.02,0.88,-4,0,-2,51,0
'[13:08:01.604 20/01/2026]',-121607.2,-177340.6,-90083.96,-122603.2,-375000,-375000,-146854.1,-139824.3,0.03,-0.02,0.88,-4,0,-2,51,0
'[13:08:01.608 20/01/2026]',-121692.9,-177351.2,-90102.88,-122620.5,-375000,-375000,-146853.4,-139845.8,0.03,-0.02,0.88,-4,0,-2,51,0
'[13:08:01.612 20/01/2026]',-121612.3,-177365.6,-90124.6,-122494.4,-375000,-375000,-146804.6,-139754.6,0.03,-0.02,0.88,-4,0,-2,51,0
'[13:08:01.616 20/01/2026]',-121513,-177353.2,-90111.5,-122445.7,-375000,-375000,-146789.3,-139704.2,0.03,-0.02,0.88,-4,0,-2,51,0
'[13:08:01.620 20/01/2026]',-121671.8,-177358.7,-90117.85,-122649.1,-375000,-375000,-146885.6,-139866.9,0.03,0.02,0.88,-4,0,-2,51,0
'[13:08:01.624 20/01/2026]',-121732.8,-177359.3,-90117.72,-122665.4,-375000,-375000,-146873.6,-139884.5,0.03,0.02,0.88,-4,0,-2,51,0
'[13:08:01.628 20/01/2026]',-121686.5,-177380.6,-90138.59,-122562.6,-375000,-375000,-146839.1,-139815.3,0.03,0.02,0.88,-4,0,-2,51,0
'[13:08:01.632 20/01/2026]',-121567.6,-177373.3,-90123.3,-122475.3,-375000,-375000,-146808.3,-139739.6,0.03,0.02,0.88,-4,0,-2,51,0
'[13:08:01.636 20/01/2026]',-121678.5,-177374.8,-90125.98,-122642.6,-375000,-375000,-146884.5,-139859.2,0.03,0.02,0.88,-4,0,-2,51,0
'[13:08:01.640 20/01/2026]',-121741.9,-177359.9,-90121.52,-122674.2,-375000,-375000,-146879.9,-139883.2,0.03,0.02,0.88,-4,0,-2,51,0
'[13:08:01.644 20/01/2026]',-121707.8,-177380.3,-90144.09,-122585,-375000,-375000,-146854.1,-139823.5,0.03,0.02,0.88,-4,0,-2,51,0
'[13:08:01.648 20/01/2026]',-121564.9,-177353.6,-90118.97,-122450.5,-375000,-375000,-146794.2,-139711.1,0.03,0.02,0.88,-4,0,-2,51,0
'[13:08:01.652 20/01/2026]',-121645.3,-177345.4,-90108.2,-122588,-375000,-375000,-146859.4,-139816.3,0.03,0.02,0.88,-4,0,-2,51,0
'[13:08:01.656 20/01/2026]',-121783.1,-177355.9,-90114.72,-122693.4,-375000,-375000,-146896.5,-139907.8,0.03,0.02,0.88,-4,0,-2,51,0
'[13:08:01.660 20/01/2026]',-121760,-177383.3,-90149.23,-122620.1,-375000,-375000,-146877.4,-139866.8,0.03,0.02,0.88,-4,0,-2,51,0
'[13:08:01.664 20/01/2026]',-121611.2,-177392.7,-90156.97,-122486.1,-375000,-375000,-146830.5,-139762.5,0.03,0.02,0.88,-4,0,-2,51,0
'[13:08:01.668 20/01/2026]',-121635.4,-177396.4,-90149.73,-122589,-375000,-375000,-146886.2,-139835.2,0.03,0.02,0.88,-4,0,-2,51,0
'[13:08:01.672 20/01/2026]',-121739.3,-177386.7,-90136.98,-122699.2,-375000,-375000,-146922.8,-139922.2,0.03,0.02,0.88,-4,0,-2,51,0
'[13:08:01.676 20/01/2026]',-121721.8,-177388.8,-90147.8,-122623.5,-375000,-375000,-146886.7,-139868.8,0.03,0.02,0.88,-4,0,-2,51,0
'[13:08:01.680 20/01/2026]',-121578.6,-177390.5,-90149.32,-122463.3,-375000,-375000,-146821.9,-139738.5,0.03,0.02,0.88,-4,0,-2,51,0
'[13:08:01.684 20/01/2026]',-121572.8,-177381.9,-90137.88,-122526.9,-375000,-375000,-146860.3,-139776.5,0.03,0.02,0.88,-4,0,-2,51,0
'[13:08:01.688 20/01/2026]',-121702.6,-177377.4,-90133.27,-122683.2,-375000,-375000,-146917.3,-139893.1,0.03,0.02,0.88,-4,0,-2,51,0
'[13:08:01.692 20/01/2026]',-121706.9,-177387.3,-90146.64,-122640.3,-375000,-375000,-146896.9,-139865.9,0.03,0.02,0.88,-4,0,-2,51,0
'[13:08:01.696 20/01/2026]',-121587.3,-177399.5,-90163.89,-122498.1,-375000,-375000,-146851,-139763.9,0.03,0.02,0.88,-4,0,-2,51,0
'[13:08:01.700 20/01/2026]',-121550.7,-177399.1,-90162.51,-122523.5,-375000,-375000,-146870.9,-139772.8,0.03,0.02,0.88,-4,0,-2,51,0
'[13:08:01.704 20/01/2026]',-121689.6,-177397.8,-90160.63,-122700.3,-375000,-375000,-146943.6,-139911.8,0.03,0.02,0.88,-4,0,-2,51,0
'[13:08:01.708 20/01/2026]',-121719.8,-177401.6,-90162.28,-122676.4,-375000,-375000,-146922.9,-139900.1,0.03,0.02,0.88,-4,0,-2,51,0
'[13:08:01.712 20/01/2026]',-121635.7,-177418.8,-90181.51,-122545.5,-375000,-375000,-146878,-139800.8,0.03,0.02,0.88,-4,0,-2,51,0
'[13:08:01.716 20/01/2026]',-121595.9,-177426.5,-90185.09,-122529.7,-375000,-375000,-146883.2,-139778.1,0.03,0.02,0.88,-4,0,-2,51,0
'[13:08:01.720 20/01/2026]',-121725.6,-177415.7,-90172.66,-122708.8,-375000,-375000,-146953.9,-139914,0.03,0.02,0.88,-4,0,-2,51,0
'[13:08:01.724 20/01/2026]',-121755,-177401,-90160.9,-122706.9,-375000,-375000,-146930,-139915.5,0.03,0.02,0.88,-4,0,-2,51,0
'[13:08:01.728 20/01/2026]',-121699.3,-177421.9,-90187.37,-122598.3,-375000,-375000,-146889.9,-139834.3,0.03,0.00,0.88,-4,0,-2,51,0
'[13:08:01.732 20/01/2026]',-121576.8,-177416.3,-90179,-122514.6,-375000,-375000,-146860.2,-139761.6,0.03,0.00,0.88,-4,0,-2,51,0
'[13:08:01.736 20/01/2026]',-121709,-177425.8,-90186.78,-122712.6,-375000,-375000,-146956.7,-139918.1,0.03,0.00,0.88,-4,0,-2,51,0
'[13:08:01.740 20/01/2026]',-121746.2,-177409.3,-90171.72,-122737.8,-375000,-375000,-146942.2,-139936.9,0.03,0.00,0.88,-4,0,-2,51,0
'[13:08:01.744 20/01/2026]',-121674.9,-177417.6,-90182.22,-122624,-375000,-375000,-146896.6,-139851.6,0.03,0.00,0.88,-4,0,-2,51,0
'[13:08:01.748 20/01/2026]',-121536.5,-177418.5,-90182.85,-122505.8,-375000,-375000,-146855.6,-139750,0.03,0.00,0.88,-4,0,-2,51,0
'[13:08:01.752 20/01/2026]',-121643.2,-177445.6,-90200.41,-122687.7,-375000,-375000,-146956.9,-139890,0.03,0.00,0.88,-4,0,-2,51,0
'[13:08:01.756 20/01/2026]',-121745.2,-177439.7,-90194.25,-122772.6,-375000,-375000,-146975.5,-139959,0.03,0.00,0.88,-4,0,-2,51,0
'[13:08:01.760 20/01/2026]',-121715.2,-177450.4,-90214.86,-122681.3,-375000,-375000,-146940.2,-139896.3,0.03,0.00,0.88,-4,0,-2,51,0
'[13:08:01.764 20/01/2026]',-121585.1,-177452.1,-90211.05,-122534.7,-375000,-375000,-146884.5,-139780.6,0.03,0.00,0.89,-4,0,-2,51,0
'[13:08:01.768 20/01/2026]',-121660.4,-177449.6,-90202.02,-122655.1,-375000,-375000,-146946.4,-139875.4,0.03,0.00,0.89,-4,0,-2,51,0
'[13:08:01.772 20/01/2026]',-121790.5,-177439.7,-90189.38,-122767.8,-375000,-375000,-146980.6,-139971.7,0.03,0.00,0.89,-4,0,-2,51,0
'[13:08:01.776 20/01/2026]',-121762.6,-177440.2,-90196.08,-122679.4,-375000,-375000,-146942.5,-139914.7,0.03,0.00,0.89,-4,0,-2,51,0
'[13:08:01.780 20/01/2026]',-121600.1,-177433.6,-90192.46,-122511.3,-375000,-375000,-146877.2,-139782.3,0.03,0.00,0.89,-4,0,-2,51,0
'[13:08:01.784 20/01/2026]',-121604.9,-177435.2,-90187.01,-122585.8,-375000,-375000,-146925.4,-139834.8,0.03,0.00,0.89,-4,0,-2,51,0
'[13:08:01.788 20/01/2026]',-121743.9,-177436.3,-90184.73,-122737.8,-375000,-375000,-146980.7,-139953.3,0.03,0.00,0.89,-4,0,-2,51,0
'[13:08:01.792 20/01/2026]',-121731.8,-177447.6,-90200.2,-122684.1,-375000,-375000,-146956.1,-139919.9,0.03,0.00,0.89,-4,0,-2,51,0
'[13:08:01.796 20/01/2026]',-121615.4,-177453.9,-90205.24,-122538.7,-375000,-375000,-146901.4,-139807.6,0.03,0.00,0.89,-4,0,-2,51,0
'[13:08:01.800 20/01/2026]',-121604.3,-177439.1,-90193.84,-122555.7,-375000,-375000,-146912.5,-139810.3,0.02,0.02,0.88,-4,0,-2,51,0
'[13:08:01.804 20/01/2026]',-121761.6,-177446.2,-90191.16,-122732.4,-375000,-375000,-146987.7,-139953,0.02,0.02,0.88,-4,0,-2,51,0
'[13:08:01.808 20/01/2026]',-121800.6,-177448.3,-90197.38,-122714,-375000,-375000,-146971.6,-139949.2,0.02,0.02,0.88,-4,0,-2,51,0
'[13:08:01.812 20/01/2026]',-121704.5,-177464.2,-90218.57,-122576.5,-375000,-375000,-146920.7,-139844.6,0.02,0.02,0.88,-4,0,-2,51,0
'[13:08:01.816 20/01/2026]',-121619.9,-177454.5,-90203.55,-122539.6,-375000,-375000,-146911.2,-139805.3,0.02,0.02,0.88,-4,0,-2,51,0
'[13:08:01.820 20/01/2026]',-121763.3,-177452.8,-90197.6,-122724.4,-375000,-375000,-146988.7,-139953,0.02,0.02,0.88,-4,0,-2,51,0
'[13:08:01.824 20/01/2026]',-121802.1,-177444.8,-90188.84,-122719,-375000,-375000,-146961.5,-139953.8,0.02,0.02,0.88,-4,0,-2,51,0
'[13:08:01.828 20/01/2026]',-121712.4,-177453.1,-90198.14,-122584.5,-375000,-375000,-146905.1,-139854.7,0.02,0.02,0.88,-4,0,-2,51,0
'[13:08:01.832 20/01/2026]',-121612.6,-177446.5,-90187.37,-122511.5,-375000,-375000,-146877.8,-139786.7,0.02,0.02,0.88,-4,0,-2,51,0
'[13:08:01.836 20/01/2026]',-121748.1,-177450.8,-90191.92,-122707.2,-375000,-375000,-146969.9,-139938.3,0.05,0.00,0.88,-4,0,-2,51,0
'[13:08:01.840 20/01/2026]',-121796.8,-177428.8,-90173.51,-122732.2,-375000,-375000,-146958,-139963.2,0.05,0.00,0.88,-4,0,-2,51,0
'[13:08:01.844 20/01/2026]',-121735.7,-177464.3,-90208.77,-122635.5,-375000,-375000,-146932.2,-139900.6,0.05,0.00,0.88,-4,0,-2,51,0
'[13:08:01.848 20/01/2026]',-121587.5,-177452.1,-90193.35,-122511.3,-375000,-375000,-146878.4,-139793,0.05,0.00,0.88,-4,0,-2,51,0
'[13:08:01.852 20/01/2026]',-121705.5,-177462.5,-90197.47,-122685.7,-375000,-375000,-146968.1,-139929.5,0.05,0.00,0.88,-4,0,-2,51,0
'[13:08:01.856 20/01/2026]',-121799.6,-177464,-90193.98,-122762.2,-375000,-375000,-146987.1,-139995.2,0.05,0.00,0.88,-4,0,-2,51,0
'[13:08:01.860 20/01/2026]',-121774.5,-177471.2,-90211.64,-122670.4,-375000,-375000,-146946.6,-139930.5,0.05,0.00,0.88,-4,0,-2,51,0
'[13:08:01.864 20/01/2026]',-121616.6,-177453.5,-90185.58,-122505.8,-375000,-375000,-146869.2,-139792.1,0.05,0.00,0.88,-4,0,-2,51,0
'[13:08:01.868 20/01/2026]',-121664.1,-177446.1,-90175.25,-122618.7,-375000,-375000,-146930.6,-139876.3,0.05,0.00,0.88,-4,0,-2,51,0
'[13:08:01.872 20/01/2026]',-121811.5,-177450.1,-90180.88,-122743.9,-375000,-375000,-146975.5,-139978.3,0.03,0.00,0.88,-4,0,-2,51,0
'[13:08:01.876 20/01/2026]',-121772.6,-177462.5,-90196.04,-122657.9,-375000,-375000,-146940.3,-139918.9,0.03,0.00,0.88,-4,0,-2,51,0
'[13:08:01.880 20/01/2026]',-121600.1,-177439.5,-90176.41,-122485.2,-375000,-375000,-146864.2,-139777.5,0.03,0.00,0.88,-4,0,-2,51,0
'[13:08:01.884 20/01/2026]',-121602.9,-177425,-90155.45,-122553,-375000,-375000,-146900,-139815.6,0.03,0.00,0.88,-4,0,-2,51,0
'[13:08:01.888 20/01/2026]',-121734.5,-177413,-90142.44,-122690.7,-375000,-375000,-146943.8,-139920.5,0.03,0.00,0.88,-4,0,-2,51,0
'[13:08:01.892 20/01/2026]',-121740.3,-177414.1,-90148.65,-122637,-375000,-375000,-146909.7,-139883.9,0.03,0.00,0.88,-4,0,-2,51,0
'[13:08:01.896 20/01/2026]',-121629.2,-177416.5,-90159.87,-122493.3,-375000,-375000,-146852.8,-139768.2,0.03,0.00,0.88,-4,0,-2,51,0
'[13:08:01.900 20/01/2026]',-121590.7,-177405.2,-90142.13,-122507.9,-375000,-375000,-146864.7,-139767.6,0.03,0.00,0.88,-4,0,-2,51,0
'[13:08:01.904 20/01/2026]',-121722.8,-177417.8,-90149.81,-122677.1,-375000,-375000,-146939.8,-139904.3,0.03,0.00,0.88,-4,0,-2,51,0
'[13:08:01.908 20/01/2026]',-121795.8,-177438.7,-90171.36,-122684.3,-375000,-375000,-146939.8,-139920.6,0.03,0.00,0.88,-4,0,-2,51,0
'[13:08:01.912 20/01/2026]',-121696.6,-177444.7,-90175.25,-122543.7,-375000,-375000,-146879.3,-139812.2,0.03,0.00,0.88,-4,0,-2,51,0
'[13:08:01.916 20/01/2026]',-121614.5,-177425,-90155.4,-122507.9,-375000,-375000,-146863.4,-139770.4,0.03,0.00,0.88,-4,0,-2,51,0
'[13:08:01.920 20/01/2026]',-121719.5,-177405.6,-90140.96,-122665.4,-375000,-375000,-146922.3,-139892.9,0.03,0.00,0.88,-4,0,-2,51,0
'[13:08:01.924 20/01/2026]',-121757.1,-177397.5,-90136.71,-122667.1,-375000,-375000,-146902.5,-139899,0.03,0.00,0.88,-4,0,-2,51,0
'[13:08:01.928 20/01/2026]',-121684.5,-177421,-90163.85,-122559.6,-375000,-375000,-146866.5,-139823.7,0.03,0.00,0.88,-4,0,-2,51,0
'[13:08:01.932 20/01/2026]',-121579.5,-177410.3,-90151.34,-122491.5,-375000,-375000,-146841.4,-139762.4,0.03,0.00,0.88,-4,0,-2,51,0
'[13:08:01.936 20/01/2026]',-121673.5,-177398.7,-90135.69,-122648.5,-375000,-375000,-146909.4,-139882,0.03,0.00,0.88,-4,0,-2,51,0
'[13:08:01.940 20/01/2026]',-121749.7,-177409,-90141.41,-122694.6,-375000,-375000,-146922.3,-139925.9,0.03,0.00,0.88,-4,0,-2,51,0
'[13:08:01.944 20/01/2026]',-121733.9,-177442.6,-90169.8,-122611.9,-375000,-375000,-146897.7,-139870.8,0.03,0.00,0.89,-4,0,-2,51,0
'[13:08:01.948 20/01/2026]',-121579.4,-177427.1,-90156.3,-122484.3,-375000,-375000,-146846.9,-139765.9,0.03,0.00,0.89,-4,0,-2,51,0
'[13:08:01.952 20/01/2026]',-121666.3,-177419.5,-90145.79,-122636,-375000,-375000,-146918.5,-139880.4,0.03,0.00,0.89,-4,0,-2,51,0
'[13:08:01.956 20/01/2026]',-121768.1,-177415.7,-90140.2,-122709,-375000,-375000,-146931.5,-139939.1,0.03,0.00,0.89,-4,0,-2,51,0
'[13:08:01.960 20/01/2026]',-121728.5,-177442.7,-90166.45,-122620.6,-375000,-375000,-146902.2,-139876.5,0.03,0.00,0.89,-4,0,-2,51,0
'[13:08:01.964 20/01/2026]',-121579.1,-177424.9,-90160.05,-122479.9,-375000,-375000,-146845.3,-139758.3,0.03,0.00,0.89,-4,0,-2,51,0
'[13:08:01.968 20/01/2026]',-121628.8,-177416.1,-90154.02,-122595.5,-375000,-375000,-146906.9,-139843.5,0.03,0.00,0.89,-4,0,-2,51,0
'[13:08:01.972 20/01/2026]',-121727.1,-177410,-90142.75,-122691.1,-375000,-375000,-146933.9,-139921.5,0.03,0.00,0.89,-4,0,-2,51,0
'[13:08:01.976 20/01/2026]',-121723.4,-177423.4,-90155.98,-122620.9,-375000,-375000,-146905.7,-139874.7,0.03,0.00,0.89,-4,0,-2,51,0
'[13:08:01.980 20/01/2026]',-121604.9,-177430,-90157.55,-122474.8,-375000,-375000,-146848.8,-139755.3,0.03,0.00,0.88,-4,0,-2,51,0
'[13:08:01.984 20/01/2026]',-121606.8,-177421,-90145.34,-122539.9,-375000,-375000,-146882.7,-139795.9,0.03,0.00,0.88,-4,0,-2,51,0
'[13:08:01.988 20/01/2026]',-121726.3,-177403.7,-90134.08,-122667.5,-375000,-375000,-146919.8,-139893,0.03,0.00,0.88,-4,0,-2,51,0
'[13:08:01.992 20/01/2026]',-121733.7,-177413.6,-90144.54,-122619.7,-375000,-375000,-146893,-139860.3,0.03,0.00,0.88,-4,0,-2,51,0
'[13:08:01.996 20/01/2026]',-121628,-177432.6,-90162.64,-122491.5,-375000,-375000,-146853.5,-139762.5,0.03,0.00,0.88,-4,0,-2,51,0
'[13:08:02.000 20/01/2026]',-121576.1,-177423,-90146.77,-122511.8,-375000,-375000,-146868.8,-139762.9,0.03,0.00,0.88,-4,0,-2,51,0
'[13:08:02.004 20/01/2026]',-121703.4,-177401.8,-90126.97,-122665.7,-375000,-375000,-146920.3,-139877,0.03,0.00,0.88,-4,0,-2,51,0
'[13:08:02.008 20/01/2026]',-121729.5,-177393.3,-90126.08,-122634.8,-375000,-375000,-146890.3,-139859.6,0.03,0.00,0.88,-4,0,-2,51,0
'[13:08:02.012 20/01/2026]',-121610.7,-177404.7,-90136.8,-122494.1,-375000,-375000,-146837.5,-139756.8,0.03,0.00,0.88,-4,0,-2,51,0
'[13:08:02.016 20/01/2026]',-121516.6,-177403.6,-90127.1,-122471.3,-375000,-375000,-146833.6,-139725.9,0.03,0.02,0.88,-4,0,-2,51,0
'[13:08:02.020 20/01/2026]',-121666.9,-177411.8,-90127.2,-122663.5,-375000,-375000,-146918.9,-139877.2,0.03,0.02,0.88,-4,0,-2,51,0
'[13:08:02.024 20/01/2026]',-121740.4,-177411.6,-90129.34,-122676.5,-375000,-375000,-146907.5,-139892.5,0.03,0.02,0.88,-4,0,-2,51,0
'[13:08:02.028 20/01/2026]',-121673.1,-177428.6,-90152.67,-122560,-375000,-375000,-146863.7,-139807.3,0.03,0.02,0.88,-4,0,-2,51,0
'[13:08:02.032 20/01/2026]',-121568,-177419.3,-90144.23,-122489.8,-375000,-375000,-146839.3,-139747.2,0.03,0.02,0.88,-4,0,-2,51,0
'[13:08:02.036 20/01/2026]',-121685.7,-177408.5,-90132.34,-122654.2,-375000,-375000,-146909.8,-139872.8,0.03,0.02,0.88,-4,0,-2,51,0
'[13:08:02.040 20/01/2026]',-121734.7,-177391.1,-90117.18,-122672.9,-375000,-375000,-146896.5,-139891.6,0.03,0.02,0.88,-4,0,-2,51,0
'[13:08:02.044 20/01/2026]',-121673,-177409.7,-90140.29,-122568.4,-375000,-375000,-146859.8,-139822,0.03,0.02,0.88,-4,0,-2,51,0
'[13:08:02.048 20/01/2026]',-121528.8,-177398.8,-90125.54,-122454.3,-375000,-375000,-146815.2,-139724.4,0.03,0.02,0.88,-4,0,-2,51,0
'[13:08:02.052 20/01/2026]',-121614.3,-177394.7,-90116.51,-122606.1,-375000,-375000,-146887.5,-139839.1,0.03,0.00,0.88,-4,0,-2,51,0
'[13:08:02.056 20/01/2026]',-121715.3,-177386.8,-90112.53,-122674.9,-375000,-375000,-146903.7,-139897.4,0.03,0.00,0.88,-4,0,-2,51,0
'[13:08:02.060 20/01/2026]',-121678.9,-177408.2,-90135.38,-122585.4,-375000,-375000,-146877.2,-139839.2,0.03,0.00,0.88,-4,0,-2,51,0
'[13:08:02.064 20/01/2026]',-121553.4,-177410.6,-90134.57,-122458.1,-375000,-375000,-146832.9,-139739.8,0.03,0.00,0.88,-4,0,-2,51,0
'[13:08:02.068 20/01/2026]',-121606.5,-177403.7,-90129.47,-122573.1,-375000,-375000,-146892.1,-139822.3,0.03,0.00,0.88,-4,0,-2,51,0
'[13:08:02.072 20/01/2026]',-121716.4,-177395.3,-90124.06,-122671.2,-375000,-375000,-146918.1,-139896.9,0.03,0.00,0.88,-4,0,-2,51,0
'[13:08:02.076 20/01/2026]',-121723.8,-177420.6,-90145.52,-122608.9,-375000,-375000,-146895.8,-139856.2,0.03,0.00,0.88,-4,0,-2,51,0
'[13:08:02.080 20/01/2026]',-121602.5,-177420.3,-90146.55,-122467.4,-375000,-375000,-146839,-139741.7,0.03,0.00,0.88,-4,0,-2,51,0
'[13:08:02.084 20/01/2026]',-121611.9,-177404.5,-90128.35,-122535.7,-375000,-375000,-146871.3,-139782.3,0.03,0.00,0.88,-4,0,-2,51,0
'[13:08:02.088 20/01/2026]',-121723.6,-177392.1,-90112.48,-122657.9,-375000,-375000,-146908,-139878,0.03,0.00,0.88,-4,0,-2,51,0
'[13:08:02.092 20/01/2026]',-121729.5,-177408.2,-90128.89,-122613.5,-375000,-375000,-146890.3,-139858,0.03,0.00,0.88,-4,0,-2,51,0
'[13:08:02.096 20/01/2026]',-121624.9,-177421.9,-90148.78,-122490.8,-375000,-375000,-146852.6,-139766.9,0.03,0.00,0.88,-4,0,-2,51,0
'[13:08:02.100 20/01/2026]',-121570.1,-177389.2,-90122.14,-122511.8,-375000,-375000,-146869.2,-139780.4,0.03,0.00,0.88,-4,0,-2,51,0
'[13:08:02.104 20/01/2026]',-121693.7,-177380.8,-90110.48,-122663.9,-375000,-375000,-146915,-139895.1,0.03,0.00,0.88,-4,0,-2,51,0
'[13:08:02.108 20/01/2026]',-121719.6,-177396.8,-90118.21,-122637.3,-375000,-375000,-146878.8,-139870.2,0.03,0.00,0.88,-4,0,-2,51,0
'[13:08:02.112 20/01/2026]',-121635.7,-177411,-90140.83,-122525.2,-375000,-375000,-146846.3,-139790.1,0.03,0.00,0.88,-4,0,-2,51,0
'[13:08:02.116 20/01/2026]',-121577.7,-177390,-90126.52,-122518.7,-375000,-375000,-146855.6,-139775.6,0.03,0.00,0.88,-4,0,-2,51,0
'[13:08:02.120 20/01/2026]',-121683.7,-177382.5,-90121.38,-122673.7,-375000,-375000,-146920.5,-139896,0.03,0.00,0.88,-4,0,-2,51,0
'[13:08:02.124 20/01/2026]',-121701.2,-177378.3,-90115.88,-122648.6,-375000,-375000,-146891.4,-139880.4,0.05,0.02,0.88,-4,0,-2,51,0
'[13:08:02.128 20/01/2026]',-121618.2,-177386.6,-90129.2,-122521.8,-375000,-375000,-146846.4,-139788.4,0.05,0.02,0.88,-4,0,-2,51,0
'[13:08:02.132 20/01/2026]',-121547.8,-177378.6,-90124.55,-122474.2,-375000,-375000,-146834.6,-139743.3,0.05,0.02,0.88,-4,0,-2,51,0
'[13:08:02.136 20/01/2026]',-121643.4,-177365.4,-90108.69,-122631.5,-375000,-375000,-146896.6,-139863.4,0.05,0.02,0.88,-4,0,-2,51,0
'[13:08:02.140 20/01/2026]',-121718.5,-177357.9,-90108.23,-122670.5,-375000,-375000,-146898.6,-139897.1,0.05,0.02,0.88,-4,0,-2,51,0
'[13:08:02.144 20/01/2026]',-121674.4,-177390.6,-90146.37,-122577.7,-375000,-375000,-146872.7,-139830.2,0.05,0.02,0.88,-4,0,-2,51,0
'[13:08:02.148 20/01/2026]',-121570.7,-177380.8,-90135.51,-122480.5,-375000,-375000,-146835.6,-139743.5,0.05,0.02,0.88,-4,0,-2,51,0
'[13:08:02.152 20/01/2026]',-121664.6,-177369.7,-90120.62,-122627.7,-375000,-375000,-146901.7,-139854.2,0.05,0.02,0.88,-4,0,-2,51,0
'[13:08:02.156 20/01/2026]',-121752.3,-177358.5,-90107.43,-122678,-375000,-375000,-146904.1,-139898.2,0.05,0.02,0.88,-4,0,-2,51,0
'[13:08:02.160 20/01/2026]',-121751,-177385.9,-90134.79,-122599.2,-375000,-375000,-146883.1,-139851.5,0.05,0.02,0.88,-4,0,-2,51,0
'[13:08:02.164 20/01/2026]',-121627.4,-177386.5,-90133.45,-122471.9,-375000,-375000,-146835.5,-139752.3,0.05,0.02,0.88,-4,0,-2,51,0
'[13:08:02.168 20/01/2026]',-121663.5,-177374.5,-90118.16,-122582.6,-375000,-375000,-146887.4,-139832.8,0.05,0.02,0.88,-4,0,-2,51,0
'[13:08:02.172 20/01/2026]',-121756.5,-177360.3,-90102.74,-122675.4,-375000,-375000,-146907.1,-139910.3,0.05,0.02,0.88,-4,0,-2,51,0
'[13:08:02.176 20/01/2026]',-121732.9,-177375,-90123.84,-122609,-375000,-375000,-146875,-139865.3,0.05,0.02,0.88,-4,0,-2,51,0
'[13:08:02.180 20/01/2026]',-121608.3,-177379.9,-90131.84,-122479.8,-375000,-375000,-146824.5,-139758.7,0.05,0.02,0.88,-4,0,-2,51,0
'[13:08:02.184 20/01/2026]',-121611.2,-177363.1,-90115.97,-122553.9,-375000,-375000,-146859.4,-139805.3,0.05,0.02,0.88,-4,0,-2,51,0
'[13:08:02.188 20/01/2026]',-121730.5,-177359.3,-90108.1,-122681.9,-375000,-375000,-146902.5,-139907.1,0.05,0.02,0.88,-4,0,-2,51,0
'[13:08:02.192 20/01/2026]',-121718.9,-177364.7,-90116.69,-122622.4,-375000,-375000,-146874.3,-139868.5,0.05,0.02,0.88,-4,0,-2,51,0
'[13:08:02.196 20/01/2026]',-121576.8,-177368.1,-90119.59,-122472.1,-375000,-375000,-146815.7,-139747,0.03,0.02,0.88,-4,0,-2,51,0
'[13:08:02.200 20/01/2026]',-121554.1,-177359.1,-90106.85,-122517.3,-375000,-375000,-146841.8,-139768.8,0.03,0.02,0.88,-4,0,-2,51,0
'[13:08:02.204 20/01/2026]',-121703.1,-177370.9,-90116.69,-122692.3,-375000,-375000,-146917.4,-139908.8,0.03,0.02,0.88,-4,0,-2,51,0
'[13:08:02.208 20/01/2026]',-121743.8,-177390.8,-90134.79,-122678.1,-375000,-375000,-146909.6,-139905.4,0.03,0.02,0.88,-4,0,-2,51,0
'[13:08:02.212 20/01/2026]',-121613.3,-177386.6,-90128.98,-122526,-375000,-375000,-146845.5,-139788.9,0.03,0.02,0.88,-4,0,-2,51,0
'[13:08:02.216 20/01/2026]',-121539.3,-177369.1,-90111.77,-122511.9,-375000,-375000,-146847,-139767.8,0.03,0.02,0.88,-4,0,-2,51,0
'[13:08:02.220 20/01/2026]',-121693.5,-177366.9,-90112.8,-122685.3,-375000,-375000,-146921.4,-139905.2,0.03,0.02,0.88,-4,0,-2,51,0
'[13:08:02.224 20/01/2026]',-121723.8,-177357.6,-90102.61,-122655.9,-375000,-375000,-146888.5,-139885.2,0.03,0.02,0.88,-4,0,-2,51,0
'[13:08:02.228 20/01/2026]',-121629.7,-177359.5,-90109.22,-122515.3,-375000,-375000,-146830.8,-139779.2,0.03,0.02,0.88,-4,0,-2,51,0
'[13:08:02.232 20/01/2026]',-121529.2,-177337.9,-90089.06,-122446.9,-375000,-375000,-146804.6,-139715.1,0.03,0.00,0.88,-4,0,-2,51,0
'[13:08:02.236 20/01/2026]',-121647.2,-177331.4,-90080.48,-122610.4,-375000,-375000,-146875.9,-139840.6,0.03,0.00,0.88,-4,0,-2,51,0
'[13:08:02.240 20/01/2026]',-121731.6,-177337.1,-90085.22,-122643.9,-375000,-375000,-146877.6,-139873.5,0.03,0.00,0.88,-4,0,-2,51,0
'[13:08:02.244 20/01/2026]',-121666.2,-177354.5,-90102.38,-122531.1,-375000,-375000,-146839.6,-139798,0.03,0.00,0.88,-4,0,-2,51,0
'[13:08:02.248 20/01/2026]',-121585.3,-177355.8,-90104.62,-122458.8,-375000,-375000,-146822.8,-139739.3,0.03,0.00,0.88,-4,0,-2,51,0
'[13:08:02.252 20/01/2026]',-121695.9,-177358,-90104.88,-122620.4,-375000,-375000,-146895.5,-139861.5,0.03,0.00,0.88,-4,0,-2,51,0
'[13:08:02.256 20/01/2026]',-121769.4,-177351.6,-90095.72,-122674.1,-375000,-375000,-146900.2,-139909.3,0.03,0.00,0.88,-4,0,-2,51,0
'[13:08:02.260 20/01/2026]',-121732.7,-177372.9,-90117.8,-122590.9,-375000,-375000,-146873,-139857,0.03,0.00,0.88,-4,0,-2,51,0
'[13:08:02.264 20/01/2026]',-121589.1,-177365.2,-90108.2,-122466.8,-375000,-375000,-146821.7,-139757.2,0.03,0.00,0.88,-4,0,-2,51,0
'[13:08:02.268 20/01/2026]',-121657.7,-177360.5,-90104.3,-122603.2,-375000,-375000,-146887.3,-139857.4,0.03,0.00,0.88,-4,0,-2,51,0
'[13:08:02.272 20/01/2026]',-121765.6,-177347.7,-90088.75,-122694.6,-375000,-375000,-146902.2,-139927.3,0.03,0.00,0.88,-4,0,-2,51,0
'[13:08:02.276 20/01/2026]',-121763.4,-177364.1,-90105.83,-122631.1,-375000,-375000,-146873.5,-139886.6,0.03,0.00,0.88,-4,0,-2,51,0
'[13:08:02.280 20/01/2026]',-121636.8,-177356.7,-90098.85,-122489.4,-375000,-375000,-146808.6,-139770.6,0.03,0.00,0.88,-4,0,-2,51,0
'[13:08:02.284 20/01/2026]',-121668.2,-177343,-90086.96,-122579.4,-375000,-375000,-146851.7,-139835.3,0.03,0.00,0.88,-4,0,-2,51,0
'[13:08:02.288 20/01/2026]',-121794.3,-177333.5,-90081.28,-122703.9,-375000,-375000,-146893.9,-139938.8,0.03,0.00,0.88,-4,0,-2,51,0
'[13:08:02.292 20/01/2026]',-121782.9,-177348.1,-90094.16,-122639.4,-375000,-375000,-146859.5,-139895.5,0.03,0.00,0.88,-4,0,-2,51,0
'[13:08:02.296 20/01/2026]',-121666.8,-177355.6,-90108.23,-122500.9,-375000,-375000,-146809.1,-139786.9,0.03,0.00,0.88,-4,0,-2,51,0
'[13:08:02.300 20/01/2026]',-121663.3,-177348.8,-90098.31,-122547.7,-375000,-375000,-146839.7,-139814.5,0.03,0.00,0.88,-4,0,-2,51,0
'[13:08:02.304 20/01/2026]',-121781.1,-177334.9,-90079.85,-122685.8,-375000,-375000,-146887.3,-139922.2,0.03,0.02,0.88,-4,0,-2,51,0
'[13:08:02.308 20/01/2026]',-121804.6,-177337.1,-90082,-122649.5,-375000,-375000,-146863.6,-139903.9,0.03,0.02,0.88,-4,0,-2,51,0
'[13:08:02.312 20/01/2026]',-121695.9,-177356.9,-90098.59,-122515.9,-375000,-375000,-146821.8,-139805.5,0.03,0.02,0.88,-4,0,-2,51,0
'[13:08:02.316 20/01/2026]',-121644.7,-177350.4,-90093.44,-122519.3,-375000,-375000,-146835.9,-139797.1,0.03,0.02,0.88,-4,0,-2,51,0
'[13:08:02.320 20/01/2026]',-121774.6,-177335.3,-90081.23,-122681.7,-375000,-375000,-146899.3,-139922.7,0.03,0.02,0.88,-4,0,-2,51,0
'[13:08:02.324 20/01/2026]',-121799.8,-177333.6,-90078.91,-122663.4,-375000,-375000,-146876.3,-139912.4,0.03,0.02,0.88,-4,0,-2,51,0
'[13:08:02.328 20/01/2026]',-121705.8,-177362.7,-90102.29,-122536.3,-375000,-375000,-146835.1,-139820.8,0.03,0.02,0.88,-4,0,-2,51,0
'[13:08:02.332 20/01/2026]',-121644.5,-177360.6,-90099.97,-122499.4,-375000,-375000,-146826.2,-139781.7,0.03,0.02,0.88,-4,0,-2,51,0
'[13:08:02.336 20/01/2026]',-121768,-177352.7,-90091.88,-122665.3,-375000,-375000,-146895.1,-139910.7,0.03,0.02,0.88,-4,0,-2,51,0
'[13:08:02.340 20/01/2026]',-121831.9,-177351,-90089.33,-122683,-375000,-375000,-146882.1,-139926.1,0.05,0.00,0.88,-4,0,-2,51,0
'[13:08:02.344 20/01/2026]',-121766,-177368.7,-90107.34,-122565.4,-375000,-375000,-146837.7,-139841,0.05,0.00,0.88,-4,0,-2,51,0
'[13:08:02.348 20/01/2026]',-121642.9,-177358.6,-90093.66,-122468.3,-375000,-375000,-146802.1,-139757.1,0.05,0.00,0.88,-4,0,-2,51,0
'[13:08:02.352 20/01/2026]',-121747,-177358.7,-90089.24,-122628.4,-375000,-375000,-146874.7,-139876,0.05,0.00,0.88,-4,0,-2,51,0
'[13:08:02.356 20/01/2026]',-121826.2,-177349.9,-90082.31,-122680,-375000,-375000,-146875.2,-139915.5,0.05,0.00,0.88,-4,0,-2,51,0
'[13:08:02.360 20/01/2026]',-121803.9,-177375.9,-90108.73,-122596.5,-375000,-375000,-146849.9,-139860.3,0.05,0.00,0.88,-4,0,-2,51,0
'[13:08:02.364 20/01/2026]',-121680.8,-177370.7,-90106.23,-122479.8,-375000,-375000,-146807.9,-139762.8,0.05,0.00,0.88,-4,0,-2,51,0
'[13:08:02.368 20/01/2026]',-121754,-177367.2,-90108.2,-122620.9,-375000,-375000,-146880.6,-139868.2,0.05,0.00,0.88,-4,0,-2,51,0
'[13:08:02.372 20/01/2026]',-121856,-177362.8,-90104.13,-122712.6,-375000,-375000,-146907,-139941.6,0.05,0.00,0.88,-4,0,-2,51,0
'[13:08:02.376 20/01/2026]',-121861.7,-177388.7,-90132.38,-122655,-375000,-375000,-146886.3,-139904.2,0.05,0.00,0.89,-4,0,-2,51,0
'[13:08:02.380 20/01/2026]',-121718.4,-177393.6,-90135.77,-122522.4,-375000,-375000,-146840.3,-139798.9,0.05,0.00,0.89,-4,0,-2,51,0
'[13:08:02.384 20/01/2026]',-121768.5,-177414.2,-90150.84,-122644.6,-375000,-375000,-146916.5,-139893.5,0.05,0.00,0.89,-4,0,-2,51,0
'[13:08:02.388 20/01/2026]',-121900.2,-177422.5,-90158.22,-122779.8,-375000,-375000,-146967.8,-140001.4,0.05,0.00,0.89,-4,0,-2,51,0
'[13:08:02.392 20/01/2026]',-121878.9,-177415.2,-90154.46,-122701.6,-375000,-375000,-146921.6,-139944.5,0.05,0.00,0.89,-4,0,-2,51,0
'[13:08:02.396 20/01/2026]',-121743.8,-177399.5,-90142.98,-122544.1,-375000,-375000,-146851.2,-139816.5,0.05,0.00,0.89,-4,0,-2,51,0
'[13:08:02.400 20/01/2026]',-121751.2,-177386.5,-90133.63,-122607.5,-375000,-375000,-146890.8,-139858.3,0.05,0.00,0.89,-4,0,-2,51,0
'[13:08:02.404 20/01/2026]',-121879.8,-177367,-90123.88,-122748.3,-375000,-375000,-146933.7,-139968.6,0.05,0.00,0.89,-4,0,-2,51,0
'[13:08:02.408 20/01/2026]',-121893.9,-177382.4,-90130.81,-122701.3,-375000,-375000,-146894.1,-139934.1,0.05,0.00,0.89,-4,0,-2,51,0
'[13:08:02.412 20/01/2026]',-121857.8,-177427.7,-90169.8,-122615.5,-375000,-375000,-146874.7,-139873.5,0.03,0.00,0.88,-4,0,-2,51,0
'[13:08:02.416 20/01/2026]',-121826.3,-177423.2,-90164.43,-122624.8,-375000,-375000,-146882.3,-139873.5,0.03,0.00,0.88,-4,0,-2,51,0
'[13:08:02.420 20/01/2026]',-121938.3,-177407.2,-90150.48,-122778.4,-375000,-375000,-146941,-139994.1,0.03,0.00,0.88,-4,0,-2,51,0
'[13:08:02.424 20/01/2026]',-121949,-177403.2,-90151.06,-122749.1,-375000,-375000,-146915.3,-139979.7,0.03,0.00,0.88,-4,0,-2,51,0
'[13:08:02.428 20/01/2026]',-121852.6,-177410.3,-90164.03,-122618.1,-375000,-375000,-146873.7,-139890.5,0.03,0.00,0.88,-4,0,-2,51,0
'[13:08:02.432 20/01/2026]',-121742,-177377.7,-90128.13,-122548.4,-375000,-375000,-146841.9,-139827.5,0.03,0.00,0.88,-4,0,-2,51,0
'[13:08:02.436 20/01/2026]',-121848.4,-177361.4,-90108.15,-122710.3,-375000,-375000,-146902.6,-139945.4,0.03,0.00,0.88,-4,0,-2,51,0
'[13:08:02.440 20/01/2026]',-121906,-177362.4,-90110.7,-122729,-375000,-375000,-146893.4,-139958.9,0.03,0.00,0.88,-4,0,-2,51,0
'[13:08:02.444 20/01/2026]',-121841,-177384,-90136.89,-122621.5,-375000,-375000,-146860.1,-139884.2,0.03,0.00,0.88,-4,0,-2,51,0
'[13:08:02.448 20/01/2026]',-121689.8,-177370.1,-90121.16,-122512.9,-375000,-375000,-146815.7,-139788.8,0.05,0.00,0.89,-4,0,-2,51,0
'[13:08:02.452 20/01/2026]',-121779.6,-177368.8,-90111.05,-122669.4,-375000,-375000,-146889.9,-139902.7,0.05,0.00,0.89,-4,0,-2,51,0
'[13:08:02.456 20/01/2026]',-121882.3,-177368.8,-90109.18,-122730.4,-375000,-375000,-146905.7,-139956.4,0.05,0.00,0.89,-4,0,-2,51,0
'[13:08:02.460 20/01/2026]',-121835.7,-177381.1,-90131.71,-122624.5,-375000,-375000,-146871.6,-139884.5,0.05,0.00,0.89,-4,0,-2,51,0
'[13:08:02.464 20/01/2026]',-121729.9,-177376.6,-90129.74,-122510.6,-375000,-375000,-146834.9,-139790.7,0.05,0.00,0.89,-4,0,-2,51,0
'[13:08:02.468 20/01/2026]',-121842.4,-177378.6,-90127.33,-122654.4,-375000,-375000,-146904.9,-139897.6,0.05,0.00,0.89,-4,0,-2,51,0
'[13:08:02.472 20/01/2026]',-121921.3,-177364,-90114.77,-122716.7,-375000,-375000,-146909.8,-139946.8,0.05,0.00,0.89,-4,0,-2,51,0
'[13:08:02.476 20/01/2026]',-121923.4,-177391.4,-90146.64,-122653.9,-375000,-375000,-146892.1,-139909.2,0.05,0.00,0.89,-4,0,-2,51,0
'[13:08:02.480 20/01/2026]',-121802,-177394.6,-90148.38,-122527,-375000,-375000,-146845.9,-139811.5,0.05,0.00,0.89,-4,0,-2,51,0
'[13:08:02.484 20/01/2026]',-121842.9,-177400.5,-90151.11,-122641.2,-375000,-375000,-146906.9,-139893.7,0.03,0.00,0.88,-4,0,-2,51,0
'[13:08:02.488 20/01/2026]',-121963.2,-177414.6,-90163.94,-122775.9,-375000,-375000,-146961.9,-140004.9,0.03,0.00,0.88,-4,0,-2,51,0
'[13:08:02.492 20/01/2026]',-121951.9,-177427.5,-90179.98,-122723.2,-375000,-375000,-146937.1,-139971.2,0.03,0.00,0.88,-4,0,-2,51,0
'[13:08:02.496 20/01/2026]',-121807.6,-177434.5,-90183.25,-122582.2,-375000,-375000,-146883.9,-139858.3,0.03,0.00,0.88,-4,0,-2,51,0
'[13:08:02.500 20/01/2026]',-121778.5,-177408.4,-90156.61,-122624.8,-375000,-375000,-146901.1,-139877.7,0.03,0.00,0.88,-4,0,-2,51,0
'[13:08:02.504 20/01/2026]',-121867.9,-177376.2,-90121.02,-122746.5,-375000,-375000,-146932.2,-139974.4,0.03,0.00,0.88,-4,0,-2,51,0
'[13:08:02.508 20/01/2026]',-121858.8,-177363.4,-90116.46,-122690.8,-375000,-375000,-146892.7,-139936.1,0.03,0.00,0.88,-4,0,-2,51,0
'[13:08:02.512 20/01/2026]',-121769.2,-177376.5,-90133.59,-122566.2,-375000,-375000,-146849.3,-139844.1,0.03,0.00,0.88,-4,0,-2,51,0
'[13:08:02.516 20/01/2026]',-121739.9,-177396.8,-90148.65,-122593.5,-375000,-375000,-146884.9,-139865.8,0.03,0.00,0.88,-4,0,-2,51,0
'[13:08:02.520 20/01/2026]',-121908.7,-177418.7,-90170.16,-122788.6,-375000,-375000,-146978.3,-140025.5,0.03,0.00,0.89,-4,0,-2,51,0
'[13:08:02.524 20/01/2026]',-121981.2,-177424.3,-90180.16,-122784.5,-375000,-375000,-146967,-140034.3,0.03,0.00,0.89,-4,0,-2,51,0
'[13:08:02.528 20/01/2026]',-121887.1,-177430.7,-90183.48,-122639.1,-375000,-375000,-146904.3,-139927.7,0.03,0.00,0.89,-4,0,-2,51,0
'[13:08:02.532 20/01/2026]',-121810.2,-177417.9,-90167.02,-122590.1,-375000,-375000,-146886.9,-139882,0.03,0.00,0.89,-4,0,-2,51,0
'[13:08:02.536 20/01/2026]',-121945.8,-177422.2,-90167.47,-122769.9,-375000,-375000,-146969.5,-140025,0.03,0.00,0.89,-4,0,-2,51,0
'[13:08:02.540 20/01/2026]',-121996.4,-177420.2,-90164.74,-122779.2,-375000,-375000,-146961.5,-140041.8,0.03,0.00,0.89,-4,0,-2,51,0
'[13:08:02.544 20/01/2026]',-121936.2,-177439.6,-90187.68,-122669.8,-375000,-375000,-146923.1,-139962.3,0.03,0.00,0.89,-4,0,-2,51,0
'[13:08:02.548 20/01/2026]',-121825.4,-177427.8,-90176.37,-122586.6,-375000,-375000,-146891.5,-139887.1,0.03,0.00,0.89,-4,0,-2,51,0
'[13:08:02.552 20/01/2026]',-121922.3,-177412.3,-90153.75,-122745,-375000,-375000,-146959.9,-140008.3,0.03,0.00,0.89,-4,0,-2,51,0
'[13:08:02.556 20/01/2026]',-121953.8,-177370.4,-90119.1,-122754.1,-375000,-375000,-146925.1,-140013.6,0.03,0.00,0.89,-4,0,-2,51,0
'[13:08:02.560 20/01/2026]',-121872.9,-177383.8,-90137.48,-122639.1,-375000,-375000,-146877.1,-139932,0.03,0.00,0.89,-4,0,-2,51,0
'[13:08:02.564 20/01/2026]',-121785.7,-177397.5,-90150.48,-122555.1,-375000,-375000,-146856.1,-139863.3,0.03,0.00,0.89,-4,0,-2,51,0
'[13:08:02.568 20/01/2026]',-121890.2,-177399.9,-90146.41,-122709.1,-375000,-375000,-146929.3,-139976.7,0.03,0.00,0.89,-4,0,-2,51,0
'[13:08:02.572 20/01/2026]',-121938.1,-177372.5,-90121.56,-122753.4,-375000,-375000,-146917.7,-140004.6,0.03,0.00,0.89,-4,0,-2,51,0
'[13:08:02.576 20/01/2026]',-121906.8,-177388.2,-90144.63,-122674.6,-375000,-375000,-146889.3,-139947.7,0.03,0.00,0.89,-4,0,-2,51,0
'[13:08:02.580 20/01/2026]',-121770,-177391.4,-90150.35,-122545.4,-375000,-375000,-146847.6,-139842.1,0.03,0.00,0.89,-4,0,-2,51,0
'[13:08:02.584 20/01/2026]',-121822.2,-177400.8,-90153.16,-122665.7,-375000,-375000,-146920,-139929.1,0.03,0.00,0.89,-4,0,-2,51,0
'[13:08:02.588 20/01/2026]',-121964.3,-177393.2,-90142.03,-122787.2,-375000,-375000,-146953,-140015,0.03,0.00,0.89,-4,0,-2,51,0
'[13:08:02.592 20/01/2026]',-121969.1,-177413,-90163.8,-122728.6,-375000,-375000,-146931.6,-139977.3,0.05,0.00,0.89,-4,0,-2,51,0
'[13:08:02.596 20/01/2026]',-121836.8,-177431.5,-90181.2,-122589.4,-375000,-375000,-146891.9,-139877.2,0.05,0.00,0.89,-4,0,-2,51,0
'[13:08:02.600 20/01/2026]',-121831,-177428.6,-90168.68,-122646,-375000,-375000,-146926.2,-139917.2,0.05,0.00,0.89,-4,0,-2,51,0
'[13:08:02.604 20/01/2026]',-121947.7,-177410.3,-90154.23,-122779.3,-375000,-375000,-146971.8,-140022.7,0.05,0.00,0.89,-4,0,-2,51,0
'[13:08:02.608 20/01/2026]',-121942.7,-177413.6,-90160.5,-122727.4,-375000,-375000,-146939.6,-139986.8,0.05,0.00,0.89,-4,0,-2,51,0
'[13:08:02.612 20/01/2026]',-121844.8,-177440,-90184.41,-122599.9,-375000,-375000,-146901.5,-139892.2,0.05,0.00,0.89,-4,0,-2,51,0
'[13:08:02.616 20/01/2026]',-121817.7,-177449.4,-90188.26,-122630.7,-375000,-375000,-146932.9,-139914.4,0.05,0.00,0.89,-4,0,-2,51,0
'[13:08:02.620 20/01/2026]',-121946,-177440.8,-90185.8,-122795,-375000,-375000,-146998.2,-140042.9,0.05,0.00,0.89,-4,0,-2,51,0
'[13:08:02.624 20/01/2026]',-121974.5,-177436.2,-90179.32,-122772.7,-375000,-375000,-146969.1,-140028.9,0.05,0.00,0.89,-4,0,-2,51,0
'[13:08:02.628 20/01/2026]',-121892.8,-177460.8,-90198.98,-122649.5,-375000,-375000,-146928.8,-139943.2,0.03,0.00,0.89,-4,0,-2,51,0
'[13:08:02.632 20/01/2026]',-121820.5,-177455.4,-90187.9,-122615.1,-375000,-375000,-146922.7,-139910.3,0.03,0.00,0.89,-4,0,-2,51,0
'[13:08:02.636 20/01/2026]',-121960,-177453.2,-90180.66,-122792.7,-375000,-375000,-147000.1,-140052.6,0.03,0.00,0.89,-4,0,-2,51,0
'[13:08:02.640 20/01/2026]',-122001.1,-177441.9,-90178.2,-122800.3,-375000,-375000,-146983.5,-140065.4,0.03,0.00,0.89,-4,0,-2,51,0
'[13:08:02.644 20/01/2026]',-121946.1,-177469.9,-90214.59,-122705.3,-375000,-375000,-146955.4,-139997.6,0.03,0.00,0.89,-4,0,-2,51,0
'[13:08:02.648 20/01/2026]',-121860.3,-177482.5,-90223.44,-122646.7,-375000,-375000,-146945.2,-139948.5,0.03,0.00,0.89,-4,0,-2,51,0
'[13:08:02.652 20/01/2026]',-121974,-177477.4,-90222.5,-122814.5,-375000,-375000,-147022.2,-140084.1,0.03,0.00,0.89,-4,0,-2,51,0
'[13:08:02.656 20/01/2026]',-122009.4,-177445.7,-90190.9,-122821.3,-375000,-375000,-146991.5,-140086.7,0.03,0.00,0.89,-4,0,-2,51,0
'[13:08:02.660 20/01/2026]',-121977.2,-177466,-90214.9,-122731.5,-375000,-375000,-146961.6,-140026.4,0.03,0.00,0.89,-4,0,-2,51,0
'[13:08:02.664 20/01/2026]',-121855.4,-177456.6,-90207.62,-122621.8,-375000,-375000,-146916.8,-139933.8,0.03,0.02,0.88,-4,0,-2,51,0
'[13:08:02.668 20/01/2026]',-121911.4,-177448.8,-90189.2,-122755.6,-375000,-375000,-146979.7,-140031.9,0.03,0.02,0.88,-4,0,-2,51,0
'[13:08:02.672 20/01/2026]',-122005.6,-177445.2,-90184.86,-122831.9,-375000,-375000,-146995.5,-140092.9,0.03,0.02,0.88,-4,0,-2,51,0
'[13:08:02.676 20/01/2026]',-121970.1,-177457.1,-90203.5,-122742.9,-375000,-375000,-146960.1,-140029.4,0.03,0.02,0.88,-4,0,-2,51,0
'[13:08:02.680 20/01/2026]',-121834.8,-177452.2,-90202.34,-122602.4,-375000,-375000,-146906.7,-139913.8,0.03,0.02,0.88,-4,0,-2,51,0
'[13:08:02.684 20/01/2026]',-121912.6,-177463.2,-90214.81,-122735.1,-375000,-375000,-146982,-140014.4,0.03,0.02,0.88,-4,0,-2,51,0
'[13:08:02.688 20/01/2026]',-122038.6,-177456.8,-90208.02,-122849.8,-375000,-375000,-147017.8,-140105.3,0.03,0.02,0.88,-4,0,-2,51,0
'[13:08:02.692 20/01/2026]',-122024.3,-177467.6,-90216.29,-122777.5,-375000,-375000,-146983.2,-140054.7,0.03,0.02,0.88,-4,0,-2,51,0
'[13:08:02.696 20/01/2026]',-121881.9,-177474.3,-90221.65,-122627.3,-375000,-375000,-146923.2,-139933,0.03,0.02,0.88,-4,0,-2,51,0
'[13:08:02.700 20/01/2026]',-121898.8,-177474.7,-90221.34,-122703.4,-375000,-375000,-146966.1,-139982.5,0.03,0.00,0.89,-4,0,-2,51,0
'[13:08:02.704 20/01/2026]',-121999,-177466.5,-90208.02,-122824.9,-375000,-375000,-147006.2,-140076.1,0.03,0.00,0.89,-4,0,-2,51,0
'[13:08:02.708 20/01/2026]',-122024.6,-177497.5,-90241.99,-122798.6,-375000,-375000,-147006.4,-140070.2,0.03,0.00,0.89,-4,0,-2,51,0
'[13:08:02.712 20/01/2026]',-121924.7,-177514.7,-90256.84,-122668.4,-375000,-375000,-146967.4,-139974.5,0.03,0.00,0.89,-4,0,-2,51,0
'[13:08:02.716 20/01/2026]',-121876.5,-177500.2,-90236.49,-122679,-375000,-375000,-146975.7,-139974.9,0.03,0.00,0.89,-4,0,-2,51,0
'[13:08:02.720 20/01/2026]',-121978.7,-177489,-90226.48,-122829.6,-375000,-375000,-147033.4,-140092.5,0.03,0.00,0.89,-4,0,-2,51,0
'[13:08:02.724 20/01/2026]',-121983.3,-177499,-90235.87,-122806.3,-375000,-375000,-147015.1,-140078.3,0.03,0.00,0.89,-4,0,-2,51,0
'[13:08:02.728 20/01/2026]',-121898.6,-177526.7,-90269.22,-122695.4,-375000,-375000,-146985.1,-140000.3,0.03,0.00,0.89,-4,0,-2,51,0
'[13:08:02.732 20/01/2026]',-121841,-177509.8,-90251.6,-122677.7,-375000,-375000,-146978.3,-139976.5,0.03,0.00,0.89,-4,0,-2,51,0
'[13:08:02.736 20/01/2026]',-121953.8,-177495.2,-90226.79,-122842.8,-375000,-375000,-147036.9,-140102.3,0.03,0.00,0.88,-4,0,-2,51,0
'[13:08:02.740 20/01/2026]',-121999,-177489.9,-90230.73,-122850.3,-375000,-375000,-147022.7,-140113.1,0.03,0.00,0.88,-4,0,-2,51,0
'[13:08:02.744 20/01/2026]',-121917,-177504.8,-90247.63,-122722.2,-375000,-375000,-146973.8,-140016.9,0.03,0.00,0.88,-4,0,-2,51,0
'[13:08:02.748 20/01/2026]',-121807.7,-177490.9,-90229.48,-122642.4,-375000,-375000,-146941.9,-139945.3,0.03,0.00,0.88,-4,0,-2,51,0
'[13:08:02.752 20/01/2026]',-121947,-177492.7,-90225.32,-122824.2,-375000,-375000,-147023.1,-140083.1,0.03,0.00,0.88,-4,0,-2,51,0
'[13:08:02.756 20/01/2026]',-122020.9,-177489,-90221.56,-122861,-375000,-375000,-147021,-140115.4,0.03,0.00,0.88,-4,0,-2,51,0
'[13:08:02.760 20/01/2026]',-121962.8,-177510.8,-90247.89,-122753.8,-375000,-375000,-146985.3,-140039,0.03,0.00,0.88,-4,0,-2,51,0
'[13:08:02.764 20/01/2026]',-121865.5,-177511.5,-90250.04,-122655.6,-375000,-375000,-146953.2,-139955.1,0.03,0.00,0.88,-4,0,-2,51,0
'[13:08:02.768 20/01/2026]',-121934,-177497.1,-90235.6,-122788.8,-375000,-375000,-147015.1,-140052,0.03,0.00,0.88,-4,0,-2,51,0
'[13:08:02.772 20/01/2026]',-122027.8,-177488.4,-90230.5,-122856,-375000,-375000,-147026.5,-140103.2,0.05,0.00,0.88,-4,0,-2,51,0
'[13:08:02.776 20/01/2026]',-122028.4,-177519.5,-90266.89,-122783.4,-375000,-375000,-147006.5,-140057.4,0.05,0.00,0.88,-4,0,-2,51,0
'[13:08:02.780 20/01/2026]',-121905.2,-177535.7,-90281.33,-122667,-375000,-375000,-146976.4,-139969.3,0.05,0.00,0.88,-4,0,-2,51,0
'[13:08:02.784 20/01/2026]',-121948.3,-177530.3,-90271.95,-122780.1,-375000,-375000,-147033.2,-140045,0.05,0.00,0.88,-4,0,-2,51,0
'[13:08:02.788 20/01/2026]',-122040.1,-177503.5,-90239.98,-122865.5,-375000,-375000,-147039.6,-140100.7,0.05,0.00,0.88,-4,0,-2,51,0
'[13:08:02.792 20/01/2026]',-122005.8,-177492.9,-90241.77,-122777.3,-375000,-375000,-146991.4,-140032.2,0.05,0.00,0.88,-4,0,-2,51,0
'[13:08:02.796 20/01/2026]',-121878.5,-177508.7,-90255.72,-122646,-375000,-375000,-146950.2,-139928.7,0.05,0.00,0.88,-4,0,-2,51,0
'[13:08:02.800 20/01/2026]',-121897.4,-177523.2,-90256.43,-122735.3,-375000,-375000,-147006.7,-139991,0.05,0.00,0.88,-4,0,-2,51,0
'[13:08:02.804 20/01/2026]',-122018.1,-177511.5,-90248.92,-122870.6,-375000,-375000,-147049.2,-140095.8,0.05,0.00,0.88,-4,0,-2,51,0
'[13:08:02.808 20/01/2026]',-121998.2,-177518.7,-90257.99,-122811.3,-375000,-375000,-147015.2,-140058.3,0.03,0.00,0.88,-4,0,-2,51,0
'[13:08:02.812 20/01/2026]',-121881.6,-177537.2,-90272.26,-122676.6,-375000,-375000,-146970.2,-139955.5,0.03,0.00,0.88,-4,0,-2,51,0
'[13:08:02.816 20/01/2026]',-121854.1,-177537,-90258.53,-122705.4,-375000,-375000,-146993.3,-139968.1,0.03,0.00,0.88,-4,0,-2,51,0
'[13:08:02.820 20/01/2026]',-121986.8,-177529,-90252.18,-122863.2,-375000,-375000,-147054.5,-140089.6,0.03,0.00,0.88,-4,0,-2,51,0
'[13:08:02.824 20/01/2026]',-121993,-177522.4,-90252.09,-122824.1,-375000,-375000,-147026,-140067.3,0.03,0.00,0.88,-4,0,-2,51,0
'[13:08:02.828 20/01/2026]',-121916.6,-177552.6,-90284.82,-122711.6,-375000,-375000,-146996.6,-139991.4,0.03,0.00,0.88,-4,0,-2,51,0
'[13:08:02.832 20/01/2026]',-121844.2,-177556,-90282.31,-122686.1,-375000,-375000,-146994.5,-139963.2,0.03,0.00,0.88,-4,0,-2,51,0
'[13:08:02.836 20/01/2026]',-121967.7,-177556.2,-90275.43,-122852.1,-375000,-375000,-147064.2,-140096.6,0.03,0.00,0.88,-4,0,-2,51,0
'[13:08:02.840 20/01/2026]',-122023,-177563.6,-90281.91,-122861.1,-375000,-375000,-147062.9,-140119.5,0.03,0.00,0.88,-4,0,-2,51,0
'[13:08:02.844 20/01/2026]',-121956.7,-177586,-90304.3,-122751,-375000,-375000,-147029,-140048.8,0.03,0.00,0.88,-4,0,-2,51,0
'[13:08:02.848 20/01/2026]',-121823.5,-177563,-90280.97,-122665.4,-375000,-375000,-146988.8,-139970.2,0.03,0.00,0.88,-4,0,-2,51,0
'[13:08:02.852 20/01/2026]',-121957.6,-177559,-90279.77,-122851.8,-375000,-375000,-147075.1,-140114.6,0.03,0.00,0.88,-4,0,-2,51,0
'[13:08:02.856 20/01/2026]',-122020.5,-177537,-90260.68,-122876.9,-375000,-375000,-147058.5,-140136.7,0.03,0.00,0.88,-4,0,-2,51,0
'[13:08:02.860 20/01/2026]',-121943.8,-177550.4,-90273.15,-122756.9,-375000,-375000,-147009.3,-140048.2,0.03,0.00,0.88,-4,0,-2,51,0
'[13:08:02.864 20/01/2026]',-121820.2,-177537.9,-90258.17,-122640.7,-375000,-375000,-146964.7,-139949.9,0.03,0.00,0.88,-4,0,-2,51,0
'[13:08:02.868 20/01/2026]',-121892.9,-177526.4,-90247.31,-122772.8,-375000,-375000,-147025.5,-140047.4,0.03,0.00,0.88,-4,0,-2,51,0
'[13:08:02.872 20/01/2026]',-121976.1,-177516.8,-90238.59,-122834.1,-375000,-375000,-147033.8,-140098.6,0.03,0.00,0.88,-4,0,-2,51,0
'[13:08:02.876 20/01/2026]',-121931.4,-177542.5,-90263.13,-122754.4,-375000,-375000,-147005.6,-140044.9,0.03,0.00,0.88,-4,0,-2,51,0
'[13:08:02.880 20/01/2026]',-121845.4,-177560.4,-90272.34,-122665.1,-375000,-375000,-146978.3,-139971.2,0.05,0.00,0.88,-4,0,-2,51,0
'[13:08:02.884 20/01/2026]',-121874.7,-177550.5,-90261.84,-122774.8,-375000,-375000,-147032.4,-140048.6,0.05,0.00,0.88,-4,0,-2,51,0
'[13:08:02.888 20/01/2026]',-121972.3,-177539.2,-90253.08,-122867,-375000,-375000,-147060.5,-140122.5,0.05,0.00,0.88,-4,0,-2,51,0
'[13:08:02.892 20/01/2026]',-121965.4,-177554.3,-90274.85,-122796,-375000,-375000,-147033.7,-140073.4,0.05,0.00,0.88,-4,0,-2,51,0
'[13:08:02.896 20/01/2026]',-121846.1,-177552.2,-90279.23,-122655.1,-375000,-375000,-146985.3,-139966.8,0.05,0.00,0.88,-4,0,-2,51,0
'[13:08:02.900 20/01/2026]',-121867.4,-177540.9,-90266.17,-122731.2,-375000,-375000,-147032.6,-140023.2,0.05,0.00,0.88,-4,0,-2,51,0
'[13:08:02.904 20/01/2026]',-121944.9,-177525.3,-90239.94,-122835.3,-375000,-375000,-147054.4,-140098.5,0.05,0.00,0.88,-4,0,-2,51,0
'[13:08:02.908 20/01/2026]',-121950.9,-177552.9,-90271.23,-122799.7,-375000,-375000,-147042.1,-140075.7,0.05,0.00,0.88,-4,0,-2,51,0
'[13:08:02.912 20/01/2026]',-121862.4,-177569.6,-90294.52,-122679.3,-375000,-375000,-147002.9,-139980.9,0.05,0.00,0.88,-4,0,-2,51,0
'[13:08:02.916 20/01/2026]',-121818.4,-177557.1,-90278.73,-122705.5,-375000,-375000,-147021,-139992.1,0.03,0.02,0.88,-4,0,-2,51,0
'[13:08:02.920 20/01/2026]',-121947.4,-177554.1,-90273.91,-122868.5,-375000,-375000,-147077.8,-140117,0.03,0.02,0.88,-4,0,-2,51,0
'[13:08:02.924 20/01/2026]',-121935.3,-177547.1,-90272.39,-122823,-375000,-375000,-147040.8,-140082.7,0.03,0.02,0.88,-4,0,-2,51,0
'[13:08:02.928 20/01/2026]',-121826.8,-177562.5,-90294.25,-122693.2,-375000,-375000,-146998.3,-139983.5,0.03,0.02,0.88,-4,0,-2,51,0
'[13:08:02.932 20/01/2026]',-121741.9,-177555.3,-90281.24,-122672.3,-375000,-375000,-146997.8,-139954.8,0.03,0.02,0.88,-4,0,-2,51,0
'[13:08:02.936 20/01/2026]',-121850.1,-177556.4,-90273.38,-122841.6,-375000,-375000,-147073.1,-140088.8,0.03,0.02,0.88,-4,0,-2,51,0
'[13:08:02.940 20/01/2026]',-121883.3,-177571.9,-90284.99,-122845.4,-375000,-375000,-147067.6,-140093.3,0.03,0.02,0.88,-4,0,-2,51,0
'[13:08:02.944 20/01/2026]',-121823.6,-177602.4,-90320.36,-122748.4,-375000,-375000,-147044.3,-140022.4,0.03,0.02,0.88,-4,0,-2,51,0
'[13:08:02.948 20/01/2026]',-121700.3,-177584.6,-90300.15,-122672.2,-375000,-375000,-147015.5,-139947.9,0.03,0.02,0.88,-4,0,-2,51,0
'[13:08:02.952 20/01/2026]',-121797.9,-177590.1,-90293.49,-122835.8,-375000,-375000,-147091.9,-140068.4,0.03,0.00,0.88,-4,0,-2,51,0
'[13:08:02.956 20/01/2026]',-121878.4,-177605.4,-90308.82,-122878,-375000,-375000,-147109.3,-140109.7,0.03,0.00,0.88,-4,0,-2,51,0
'[13:08:02.960 20/01/2026]',-121836.1,-177633.4,-90342.66,-122777.6,-375000,-375000,-147087.7,-140044.8,0.03,0.00,0.88,-4,0,-2,51,0
'[13:08:02.964 20/01/2026]',-121704.6,-177607.3,-90308.29,-122651.6,-375000,-375000,-147030.2,-139933.1,0.03,0.00,0.88,-4,0,-2,51,0
'[13:08:02.968 20/01/2026]',-121773.4,-177582.5,-90285.63,-122778.2,-375000,-375000,-147082.8,-140022,0.03,0.00,0.88,-4,0,-2,51,0
'[13:08:02.972 20/01/2026]',-121859.7,-177561.5,-90272.26,-122826.2,-375000,-375000,-147081.5,-140057.2,0.03,0.00,0.88,-4,0,-2,51,0
'[13:08:02.976 20/01/2026]',-121843.9,-177594.5,-90303.19,-122741.6,-375000,-375000,-147058,-140000.1,0.03,0.00,0.88,-4,0,-2,51,0
'[13:08:02.980 20/01/2026]',-121718.1,-177594.9,-90301.89,-122614.3,-375000,-375000,-147006.2,-139891.8,0.03,0.00,0.88,-4,0,-2,51,0
'[13:08:02.984 20/01/2026]',-121762.9,-177589.6,-90296.57,-122734.2,-375000,-375000,-147070.7,-139984,0.03,0.00,0.88,-4,0,-2,51,0
'[13:08:02.988 20/01/2026]',-121860.2,-177579.8,-90286.34,-122832.8,-375000,-375000,-147098.2,-140068,0.03,0.00,0.88,-4,0,-2,51,0
'[13:08:02.992 20/01/2026]',-121835.2,-177594.2,-90305.25,-122770.8,-375000,-375000,-147079.6,-140037.5,0.03,0.00,0.88,-4,0,-2,51,0
'[13:08:02.996 20/01/2026]',-121658.8,-177577.6,-90290.13,-122622.7,-375000,-375000,-147026,-139928.4,0.03,0.00,0.88,-4,0,-2,51,0
'[13:08:03.000 20/01/2026]',-121660.9,-177556,-90268.91,-122696.1,-375000,-375000,-147045,-139965.4,0.03,0.00,0.88,-4,0,-2,51,0
'[13:08:03.004 20/01/2026]',-121786,-177562.9,-90269.26,-122826.1,-375000,-375000,-147075.8,-140059.1,0.03,0.00,0.88,-4,0,-2,51,0
'[13:08:03.008 20/01/2026]',-121788.2,-177576.8,-90287.5,-122782.8,-375000,-375000,-147056,-140036.5,0.03,0.00,0.88,-4,0,-2,51,0
'[13:08:03.012 20/01/2026]',-121685.3,-177594.8,-90300.28,-122654.9,-375000,-375000,-147007.6,-139938.1,0.03,0.00,0.88,-4,0,-2,51,0
'[13:08:03.016 20/01/2026]',-121680.8,-177585.1,-90289.69,-122690.3,-375000,-375000,-147022.4,-139954.2,0.03,0.00,0.88,-4,0,-2,51,0
'[13:08:03.020 20/01/2026]',-121803.6,-177567.5,-90276.41,-122827.6,-375000,-375000,-147066.8,-140059.3,0.03,0.00,0.88,-4,0,-2,51,0
'[13:08:03.024 20/01/2026]',-121837.4,-177571.7,-90281.11,-122795.9,-375000,-375000,-147039.3,-140035,0.03,0.00,0.88,-4,0,-2,51,0
'[13:08:03.028 20/01/2026]',-121737,-177582.1,-90289.73,-122658.3,-375000,-375000,-146987.9,-139930.4,0.03,0.00,0.88,-4,0,-2,51,0
'[13:08:03.032 20/01/2026]',-121685.7,-177562,-90275.66,-122645.9,-375000,-375000,-146993.1,-139913.6,0.03,0.00,0.88,-4,0,-2,51,0
'[13:08:03.036 20/01/2026]',-121817.1,-177549.9,-90268.23,-122806.3,-375000,-375000,-147058.6,-140035.6,0.03,0.00,0.88,-4,0,-2,51,0
'[13:08:03.040 20/01/2026]',-121853.6,-177546.5,-90261.03,-122792.8,-375000,-375000,-147036.9,-140028.9,0.03,0.00,0.88,-4,0,-2,51,0
'[13:08:03.044 20/01/2026]',-121776.6,-177569.6,-90279.68,-122668.3,-375000,-375000,-146995.7,-139941,0.03,0.00,0.88,-4,0,-2,51,0
'[13:08:03.048 20/01/2026]',-121666.7,-177559.8,-90266.53,-122600.8,-375000,-375000,-146977.2,-139883,0.03,0.00,0.88,-4,0,-2,51,0
'[13:08:03.052 20/01/2026]',-121760.2,-177553.2,-90255.31,-122761.9,-375000,-375000,-147049.8,-140004.7,0.03,0.00,0.88,-4,0,-2,51,0
'[13:08:03.056 20/01/2026]',-121827.5,-177543.9,-90252.5,-122791,-375000,-375000,-147045.1,-140032.2,0.03,0.00,0.88,-4,0,-2,51,0
'[13:08:03.060 20/01/2026]',-121757.9,-177555,-90269.48,-122674.7,-375000,-375000,-147002.5,-139948.4,0.03,0.00,0.88,-4,0,-2,51,0
'[13:08:03.064 20/01/2026]',-121650.1,-177556,-90266,-122588.1,-375000,-375000,-146977.1,-139874.6,0.03,0.00,0.88,-4,0,-2,51,0
'[13:08:03.068 20/01/2026]',-121734,-177565.5,-90261.75,-122743.4,-375000,-375000,-147051.2,-139988.8,0.03,0.00,0.88,-4,0,-2,51,0
'[13:08:03.072 20/01/2026]',-121830.4,-177554.7,-90253.84,-122805,-375000,-375000,-147053.5,-140038,0.03,0.00,0.88,-4,0,-2,51,0
'[13:08:03.076 20/01/2026]',-121778.2,-177564.1,-90274.05,-122702.2,-375000,-375000,-147010.2,-139969.6,0.03,0.00,0.88,-4,0,-2,51,0
'[13:08:03.080 20/01/2026]',-121635.6,-177557.5,-90265.82,-122579.2,-375000,-375000,-146961.5,-139866.4,0.03,0.00,0.88,-4,0,-2,51,0
'[13:08:03.084 20/01/2026]',-121748.3,-177572,-90265.41,-122738.3,-375000,-375000,-147040.3,-139989.2,0.03,0.00,0.88,-4,0,-2,51,0
'[13:08:03.088 20/01/2026]',-121855.3,-177556.3,-90248.02,-122819.4,-375000,-375000,-147049.6,-140056.1,0.03,0.00,0.88,-4,0,-2,51,0
'[13:08:03.092 20/01/2026]',-121809.6,-177559.6,-90254.06,-122722.8,-375000,-375000,-147002.2,-139986.8,0.03,0.00,0.88,-4,0,-2,51,0
'[13:08:03.096 20/01/2026]',-121671.4,-177556.4,-90251.38,-122580.8,-375000,-375000,-146942.9,-139867.8,0.03,0.00,0.88,-4,0,-2,51,0
'[13:08:03.100 20/01/2026]',-121672,-177548.7,-90239.22,-122656.7,-375000,-375000,-146984.1,-139922.7,0.03,0.00,0.88,-4,0,-2,51,0
'[13:08:03.104 20/01/2026]',-121812.9,-177546.7,-90235.15,-122799.8,-375000,-375000,-147036.4,-140037.2,0.03,0.00,0.88,-4,0,-2,51,0
'[13:08:03.108 20/01/2026]',-121805.2,-177546,-90236.41,-122734.6,-375000,-375000,-147000.8,-139989.7,0.03,0.00,0.88,-4,0,-2,51,0
'[13:08:03.112 20/01/2026]',-121684.5,-177556.8,-90247.18,-122599.8,-375000,-375000,-146957.8,-139885.6,0.03,0.00,0.88,-4,0,-2,51,0
'[13:08:03.116 20/01/2026]',-121665.2,-177546.3,-90239.76,-122642.9,-375000,-375000,-146984.3,-139908.9,0.03,0.00,0.88,-4,0,-2,51,0
'[13:08:03.120 20/01/2026]',-121776.6,-177532.5,-90226.75,-122782.7,-375000,-375000,-147032.3,-140015.4,0.03,0.00,0.88,-4,0,-2,51,0
'[13:08:03.124 20/01/2026]',-121787.1,-177541.2,-90235.87,-122748.5,-375000,-375000,-147012.1,-139999.6,0.03,0.00,0.88,-4,0,-2,51,0
'[13:08:03.128 20/01/2026]',-121717.9,-177566.7,-90263.9,-122637.4,-375000,-375000,-146980.9,-139910.1,0.03,0.00,0.88,-4,0,-2,51,0
'[13:08:03.132 20/01/2026]',-121661.1,-177546.3,-90244.63,-122620.9,-375000,-375000,-146974.9,-139880.9,0.05,0.02,0.88,-4,0,-2,51,0
'[13:08:03.136 20/01/2026]',-121766,-177535.9,-90228.8,-122768.8,-375000,-375000,-147033.5,-139993.5,0.05,0.02,0.88,-4,0,-2,51,0
'[13:08:03.140 20/01/2026]',-121792.9,-177522.3,-90210.12,-122740.6,-375000,-375000,-147002.7,-139976.7,0.05,0.02,0.88,-4,0,-2,51,0
'[13:08:03.144 20/01/2026]',-121690,-177519.1,-90207.52,-122592.3,-375000,-375000,-146938.5,-139863.6,0.05,0.02,0.88,-4,0,-2,51,0
'[13:08:03.148 20/01/2026]',-121602.2,-177505.7,-90197.65,-122539.1,-375000,-375000,-146921.2,-139813.3,0.05,0.02,0.88,-4,0,-2,51,0
'[13:08:03.152 20/01/2026]',-121716.8,-177502.7,-90193.48,-122708.4,-375000,-375000,-146987.4,-139939.6,0.05,0.02,0.88,-4,0,-2,51,0
'[13:08:03.156 20/01/2026]',-121793.8,-177498.4,-90185.04,-122742.7,-375000,-375000,-146978.2,-139965.5,0.05,0.02,0.88,-4,0,-2,51,0
'[13:08:03.160 20/01/2026]',-121718.1,-177512.1,-90205.7,-122630.6,-375000,-375000,-146932.4,-139884.1,0.05,0.02,0.88,-4,0,-2,51,0
'[13:08:03.164 20/01/2026]',-121585.9,-177493.9,-90193.89,-122530.8,-375000,-375000,-146892.9,-139800.5,0.05,0.02,0.88,-4,0,-2,51,0
'[13:08:03.168 20/01/2026]',-121653.9,-177488.7,-90175.74,-122674.3,-375000,-375000,-146953.4,-139909,0.03,0.00,0.89,-4,0,-2,51,0
'[13:08:03.172 20/01/2026]',-121713.6,-177491.8,-90166.35,-122722.6,-375000,-375000,-146961.1,-139951.5,0.03,0.00,0.89,-4,0,-2,51,0
'[13:08:03.176 20/01/2026]',-121689.6,-177520.5,-90194.52,-122643.3,-375000,-375000,-146940,-139898.4,0.03,0.00,0.89,-4,0,-2,51,0
'[13:08:03.180 20/01/2026]',-121563.3,-177514.4,-90190.59,-122523.4,-375000,-375000,-146895.3,-139798,0.03,0.00,0.89,-4,0,-2,51,0
'[13:08:03.184 20/01/2026]',-121594.7,-177480.1,-90164.16,-122637.4,-375000,-375000,-146941.9,-139874.3,0.03,0.00,0.89,-4,0,-2,51,0
'[13:08:03.188 20/01/2026]',-121656.4,-177437.9,-90138.63,-122702.4,-375000,-375000,-146952.3,-139927.7,0.03,0.00,0.89,-4,0,-2,51,0
'[13:08:03.192 20/01/2026]',-121649,-177477.1,-90177.39,-122639.4,-375000,-375000,-146941.7,-139895.9,0.03,0.00,0.89,-4,0,-2,51,0
'[13:08:03.196 20/01/2026]',-121560.9,-177530.3,-90200.95,-122516.9,-375000,-375000,-146894.4,-139792.6,0.03,0.00,0.89,-4,0,-2,51,0
'[13:08:03.200 20/01/2026]',-121613.4,-177544.2,-90197.82,-122610.8,-375000,-375000,-146942.3,-139857.1,0.03,0.00,0.89,-4,0,-2,51,0
'[13:08:03.204 20/01/2026]',-121756.2,-177531.7,-90194.07,-122741.7,-375000,-375000,-146988.2,-139960.1,0.03,0.02,0.88,-4,0,-2,51,0
'[13:08:03.208 20/01/2026]',-121748.7,-177538.8,-90197.96,-122674.5,-375000,-375000,-146950.3,-139911.2,0.03,0.02,0.88,-4,0,-2,51,0
'[13:08:03.212 20/01/2026]',-121647.5,-177555.5,-90209.89,-122543.8,-375000,-375000,-146902.3,-139807.8,0.03,0.02,0.88,-4,0,-2,51,0
'[13:08:03.216 20/01/2026]',-121663.9,-177558.8,-90207.93,-122611,-375000,-375000,-146940.8,-139850.9,0.03,0.02,0.88,-4,0,-2,51,0
'[13:08:03.220 20/01/2026]',-121787,-177551.9,-90203.19,-122760.1,-375000,-375000,-146992.9,-139967.6,0.03,0.02,0.88,-4,0,-2,51,0
'[13:08:03.224 20/01/2026]',-121779.7,-177554.3,-90207.75,-122717.6,-375000,-375000,-146968.8,-139944.1,0.03,0.02,0.88,-4,0,-2,51,0
'[13:08:03.228 20/01/2026]',-121661.3,-177565,-90223.75,-122575.7,-375000,-375000,-146915.4,-139839.5,0.03,0.02,0.88,-4,0,-2,51,0
'[13:08:03.232 20/01/2026]',-121593.1,-177549.7,-90213.65,-122569.9,-375000,-375000,-146919.9,-139828.3,0.03,0.02,0.88,-4,0,-2,51,0
'[13:08:03.236 20/01/2026]',-121760,-177558.4,-90214.05,-122760.1,-375000,-375000,-147005,-139981.5,0.03,0.02,0.88,-4,0,-2,51,0
'[13:08:03.240 20/01/2026]',-121803.5,-177557,-90205.65,-122741,-375000,-375000,-146980.9,-139974.4,0.03,0.00,0.89,-4,0,-2,51,0
'[13:08:03.244 20/01/2026]',-121721.5,-177568.6,-90226.66,-122613.4,-375000,-375000,-146934.3,-139878.7,0.03,0.00,0.89,-4,0,-2,51,0
'[13:08:03.248 20/01/2026]',-121652.2,-177554.4,-90218.43,-122576.6,-375000,-375000,-146922.3,-139838.7,0.03,0.00,0.89,-4,0,-2,51,0
'[13:08:03.252 20/01/2026]',-121767.6,-177534.8,-90197.38,-122739.3,-375000,-375000,-146985.3,-139962.1,0.03,0.00,0.89,-4,0,-2,51,0
'[13:08:03.256 20/01/2026]',-121796.7,-177521.5,-90181.51,-122737,-375000,-375000,-146968.3,-139967.6,0.03,0.00,0.89,-4,0,-2,51,0
'[13:08:03.260 20/01/2026]',-121787.4,-177587.2,-90250.57,-122674,-375000,-375000,-146978.2,-139938.6,0.03,0.00,0.89,-4,0,-2,51,0
'[13:08:03.264 20/01/2026]',-121695.5,-177604.1,-90274.4,-122610.1,-375000,-375000,-146971.2,-139878.2,0.03,0.00,0.89,-4,0,-2,51,0
'[13:08:03.268 20/01/2026]',-121775.8,-177594.9,-90261.98,-122761.7,-375000,-375000,-147038.3,-139992.5,0.03,0.00,0.89,-4,0,-2,51,0
'[13:08:03.272 20/01/2026]',-121846.7,-177582.5,-90245.7,-122808.9,-375000,-375000,-147043,-140034.8,0.03,0.00,0.89,-4,0,-2,51,0
'[13:08:03.276 20/01/2026]',-121807.5,-177602.8,-90269.62,-122715.6,-375000,-375000,-147013.9,-139973.8,0.03,0.00,0.89,-4,0,-2,51,0
'[13:08:03.280 20/01/2026]',-121662,-177593.1,-90260.55,-122585.5,-375000,-375000,-146963.7,-139867.9,0.03,0.00,0.89,-4,0,-2,51,0
'[13:08:03.284 20/01/2026]',-121728.9,-177581.3,-90248.34,-122720.9,-375000,-375000,-147027.4,-139969.4,0.03,0.00,0.89,-4,0,-2,51,0
'[13:08:03.288 20/01/2026]',-121810.8,-177565.9,-90232.47,-122794.4,-375000,-375000,-147034.1,-140027.1,0.03,0.00,0.89,-4,0,-2,51,0
'[13:08:03.292 20/01/2026]',-121765.3,-177571.5,-90242.17,-122702.8,-375000,-375000,-146988.6,-139958.3,0.03,0.00,0.89,-4,0,-2,51,0
'[13:08:03.296 20/01/2026]',-121642.4,-177565.5,-90230.95,-122570.1,-375000,-375000,-146935.6,-139850,0.03,0.00,0.89,-4,0,-2,51,0
'[13:08:03.300 20/01/2026]',-121664,-177562.3,-90225.05,-122663.7,-375000,-375000,-146985.8,-139916.9,0.03,0.00,0.89,-4,0,-2,51,0
'[13:08:03.304 20/01/2026]',-121771.9,-177560,-90225.32,-122780.6,-375000,-375000,-147022,-140006.3,0.03,0.00,0.89,-4,0,-2,51,0
'[13:08:03.308 20/01/2026]',-121744.7,-177565.3,-90238.95,-122710.7,-375000,-375000,-146988.9,-139957.5,0.03,0.00,0.89,-4,0,-2,51,0
'[13:08:03.312 20/01/2026]',-121623.5,-177573.8,-90244.23,-122569.7,-375000,-375000,-146937.5,-139846.8,0.03,0.00,0.88,-4,0,-2,51,0
'[13:08:03.316 20/01/2026]',-121613.4,-177556.5,-90219.1,-122617.5,-375000,-375000,-146962.6,-139874.4,0.03,0.00,0.88,-4,0,-2,51,0
'[13:08:03.320 20/01/2026]',-121756.8,-177549.2,-90211.01,-122769,-375000,-375000,-147014.9,-139993.3,0.03,0.00,0.88,-4,0,-2,51,0
'[13:08:03.324 20/01/2026]',-121790.6,-177563.6,-90231.09,-122740.2,-375000,-375000,-147000.2,-139982.4,0.03,0.00,0.88,-4,0,-2,51,0
'[13:08:03.328 20/01/2026]',-121687.2,-177570.4,-90249.14,-122602,-375000,-375000,-146950.6,-139876.5,0.03,0.00,0.88,-4,0,-2,51,0
'[13:08:03.332 20/01/2026]',-121638.8,-177546.8,-90221.61,-122600.2,-375000,-375000,-146951,-139863.7,0.03,0.00,0.88,-4,0,-2,51,0
'[13:08:03.336 20/01/2026]',-121755.2,-177535.6,-90202.52,-122751.8,-375000,-375000,-147003.1,-139979.8,0.03,0.00,0.88,-4,0,-2,51,0
'[13:08:03.340 20/01/2026]',-121767.3,-177532.9,-90199.79,-122726.5,-375000,-375000,-146978.5,-139965.2,0.03,0.00,0.88,-4,0,-2,51,0
'[13:08:03.344 20/01/2026]',-121698.5,-177561.4,-90230.15,-122619.3,-375000,-375000,-146946.8,-139888.6,0.03,0.00,0.88,-4,0,-2,51,0
'[13:08:03.348 20/01/2026]',-121614.4,-177549.4,-90219.33,-122573.4,-375000,-375000,-146933.9,-139841.8,0.03,0.00,0.88,-4,0,-2,51,0
'[13:08:03.352 20/01/2026]',-121742.7,-177540.1,-90208.69,-122743.7,-375000,-375000,-147006.5,-139972.8,0.03,0.00,0.88,-4,0,-2,51,0
'[13:08:03.356 20/01/2026]',-121806,-177534,-90203.91,-122758.8,-375000,-375000,-146998.3,-139991.7,0.03,0.00,0.88,-4,0,-2,51,0
'[13:08:03.360 20/01/2026]',-121735.5,-177552.3,-90223.04,-122644,-375000,-375000,-146959.5,-139912.1,0.03,0.00,0.88,-4,0,-2,51,0
'[13:08:03.364 20/01/2026]',-121620.3,-177549.4,-90215.66,-122559.8,-375000,-375000,-146932.1,-139843.4,0.03,0.00,0.88,-4,0,-2,51,0
'[13:08:03.368 20/01/2026]',-121697.7,-177532,-90194.92,-122701.8,-375000,-375000,-146986,-139949.5,0.03,0.00,0.88,-4,0,-2,51,0
'[13:08:03.372 20/01/2026]',-121741.6,-177519.9,-90188.34,-122733.7,-375000,-375000,-146978.9,-139972.7,0.03,0.00,0.88,-4,0,-2,51,0
'[13:08:03.376 20/01/2026]',-121702.4,-177544.1,-90207.93,-122645.8,-375000,-375000,-146953,-139912.3,0.03,0.00,0.88,-4,0,-2,51,0
'[13:08:03.380 20/01/2026]',-121598.2,-177533.2,-90197.11,-122537,-375000,-375000,-146909.4,-139820,0.03,0.00,0.88,-4,0,-2,51,0
'[13:08:03.384 20/01/2026]',-121665.5,-177528.5,-90189.78,-122670.6,-375000,-375000,-146972.7,-139920.8,0.05,0.00,0.88,-4,0,-2,51,0
'[13:08:03.388 20/01/2026]',-121762.2,-177519.2,-90185.17,-122745.9,-375000,-375000,-146988.5,-139984.6,0.05,0.00,0.88,-4,0,-2,51,0
'[13:08:03.392 20/01/2026]',-121747.1,-177534.7,-90207.7,-122669.7,-375000,-375000,-146963.2,-139938,0.05,0.00,0.88,-4,0,-2,51,0
'[13:08:03.396 20/01/2026]',-121640.8,-177537.9,-90208.38,-122544.9,-375000,-375000,-146915,-139833,0.05,0.00,0.88,-4,0,-2,51,0
'[13:08:03.400 20/01/2026]',-121670.1,-177527.7,-90194.34,-122639.7,-375000,-375000,-146957.3,-139898,0.05,0.00,0.88,-4,0,-2,51,0
'[13:08:03.404 20/01/2026]',-121757.4,-177508.9,-90177.75,-122734.6,-375000,-375000,-146979,-139970.8,0.05,0.00,0.88,-4,0,-2,51,0
'[13:08:03.408 20/01/2026]',-121736.5,-177521.9,-90193.45,-122663.6,-375000,-375000,-146951.6,-139926.1,0.05,0.00,0.88,-4,0,-2,51,0
'[13:08:03.412 20/01/2026]',-121609.8,-177538.6,-90207.57,-122530.4,-375000,-375000,-146903.8,-139821.4,0.05,0.00,0.88,-4,0,-2,51,0
'[13:08:03.416 20/01/2026]',-121607.2,-177527.3,-90187.68,-122591.1,-375000,-375000,-146931,-139852.8,0.05,0.00,0.88,-4,0,-2,51,0
'[13:08:03.420 20/01/2026]',-121719.7,-177514.2,-90169.7,-122725,-375000,-375000,-146978,-139956.6,0.03,0.00,0.88,-4,0,-2,51,0
'[13:08:03.424 20/01/2026]',-121722.4,-177522.1,-90182.98,-122684.7,-375000,-375000,-146961.3,-139932.6,0.03,0.00,0.88,-4,0,-2,51,0
'[13:08:03.428 20/01/2026]',-121613.1,-177527.5,-90193.98,-122546.2,-375000,-375000,-146908.7,-139824.1,0.03,0.00,0.88,-4,0,-2,51,0
'[13:08:03.432 20/01/2026]',-121575.3,-177518.3,-90179.18,-122557.8,-375000,-375000,-146919.6,-139820.8,0.03,0.00,0.88,-4,0,-2,51,0
'[13:08:03.436 20/01/2026]',-121711.8,-177516.5,-90176.19,-122725.6,-375000,-375000,-146986.8,-139949.7,0.03,0.00,0.88,-4,0,-2,51,0
'[13:08:03.440 20/01/2026]',-121742,-177525.5,-90190,-122714.9,-375000,-375000,-146975.4,-139949.9,0.03,0.00,0.88,-4,0,-2,51,0
'[13:08:03.444 20/01/2026]',-121648.9,-177529,-90201.27,-122582.1,-375000,-375000,-146923.5,-139848.2,0.03,0.00,0.88,-4,0,-2,51,0
'[13:08:03.448 20/01/2026]',-121569.5,-177519,-90191.12,-122545.7,-375000,-375000,-146914,-139809,0.03,0.00,0.88,-4,0,-2,51,0
'[13:08:03.452 20/01/2026]',-121695.4,-177510,-90183.66,-122714.1,-375000,-375000,-146983.1,-139939.4,0.03,0.00,0.88,-4,0,-2,51,0
'[13:08:03.456 20/01/2026]',-121749.7,-177502.2,-90178.02,-122717.6,-375000,-375000,-146964,-139944.6,0.03,0.00,0.88,-4,0,-2,51,0
'[13:08:03.460 20/01/2026]',-121695.8,-177526,-90194.47,-122611.1,-375000,-375000,-146931.2,-139875.5,0.03,0.00,0.88,-4,0,-2,51,0
'[13:08:03.464 20/01/2026]',-121583.1,-177503.7,-90175.34,-122521.8,-375000,-375000,-146892.4,-139798.3,0.03,0.00,0.88,-4,0,-2,51,0
'[13:08:03.468 20/01/2026]',-121672.9,-177493.6,-90163.09,-122675.7,-375000,-375000,-146956.4,-139915.6,0.03,0.00,0.88,-4,0,-2,51,0
'[13:08:03.472 20/01/2026]',-121756.3,-177494.7,-90158.89,-122724.1,-375000,-375000,-146963.2,-139958.8,0.03,0.00,0.88,-4,0,-2,51,0
'[13:08:03.476 20/01/2026]',-121710.5,-177514.9,-90182.63,-122631.5,-375000,-375000,-146932.7,-139896.7,0.03,0.00,0.88,-4,0,-2,51,0
'[13:08:03.480 20/01/2026]',-121551.2,-177493.8,-90166.45,-122501,-375000,-375000,-146874.5,-139783.8,0.03,0.00,0.88,-4,0,-2,51,0
'[13:08:03.484 20/01/2026]',-121639.9,-177493.4,-90160.77,-122651.9,-375000,-375000,-146947.7,-139895.5,0.03,0.00,0.88,-4,0,-2,51,0
'[13:08:03.488 20/01/2026]',-121737.5,-177488,-90156.48,-122729,-375000,-375000,-146967.6,-139963.1,0.03,0.00,0.88,-4,0,-2,51,0
'[13:08:03.492 20/01/2026]',-121697.7,-177508,-90178.38,-122645.7,-375000,-375000,-146940.4,-139908.2,0.03,0.00,0.89,-4,0,-2,51,0
'[13:08:03.496 20/01/2026]',-121605.2,-177515.7,-90185.09,-122535.6,-375000,-375000,-146902.7,-139821.3,0.03,0.00,0.89,-4,0,-2,51,0
'[13:08:03.500 20/01/2026]',-121639.9,-177511.4,-90178.73,-122633.1,-375000,-375000,-146950.1,-139892.7,0.03,0.00,0.89,-4,0,-2,51,0
'[13:08:03.504 20/01/2026]',-121742.4,-177508.2,-90179.49,-122738.3,-375000,-375000,-146983.7,-139978.3,0.03,0.00,0.89,-4,0,-2,51,0
'[13:08:03.508 20/01/2026]',-121746.1,-177511.9,-90186.2,-122671.1,-375000,-375000,-146949.8,-139930,0.03,0.00,0.89,-4,0,-2,51,0
'[13:08:03.512 20/01/2026]',-121619.4,-177507.7,-90186.78,-122524.3,-375000,-375000,-146893.3,-139817.2,0.03,0.00,0.89,-4,0,-2,51,0
'[13:08:03.516 20/01/2026]',-121617.3,-177499.9,-90172.52,-122587.2,-375000,-375000,-146924.8,-139853.4,0.03,0.00,0.89,-4,0,-2,51,0
'[13:08:03.520 20/01/2026]',-121743.9,-177494.4,-90161.08,-122725.6,-375000,-375000,-146976,-139962.2,0.03,0.00,0.89,-4,0,-2,51,0
'[13:08:03.524 20/01/2026]',-121759.2,-177503.9,-90179.27,-122691.9,-375000,-375000,-146964,-139946.3,0.03,0.00,0.89,-4,0,-2,51,0
'[13:08:03.528 20/01/2026]',-121639.1,-177519.1,-90201.94,-122558.3,-375000,-375000,-146913.4,-139841.2,0.03,0.00,0.88,-4,0,-2,51,0
'[13:08:03.532 20/01/2026]',-121602.2,-177517.4,-90194.52,-122581.8,-375000,-375000,-146932.2,-139849.2,0.03,0.00,0.88,-4,0,-2,51,0
'[13:08:03.536 20/01/2026]',-121713,-177502.6,-90161.75,-122724.8,-375000,-375000,-146980.6,-139956,0.03,0.00,0.88,-4,0,-2,51,0
'[13:08:03.540 20/01/2026]',-121729.8,-177500.7,-90160.45,-122691.5,-375000,-375000,-146953.2,-139937.8,0.03,0.00,0.88,-4,0,-2,51,0
'[13:08:03.544 20/01/2026]',-121646.2,-177513.1,-90181.33,-122565.6,-375000,-375000,-146905.8,-139842.8,0.03,0.00,0.88,-4,0,-2,51,0
'[13:08:03.548 20/01/2026]',-121574.5,-177484.6,-90151.16,-122528.6,-375000,-375000,-146886,-139801.5,0.03,0.00,0.88,-4,0,-2,51,0
'[13:08:03.552 20/01/2026]',-121713.6,-177476.2,-90135.06,-122694.6,-375000,-375000,-146948.5,-139932.4,0.03,0.00,0.88,-4,0,-2,51,0
'[13:08:03.556 20/01/2026]',-121771.5,-177486.9,-90144.49,-122702.7,-375000,-375000,-146946.1,-139952.1,0.03,0.00,0.88,-4,0,-2,51,0
'[13:08:03.560 20/01/2026]',-121705,-177504.8,-90169.57,-122585.8,-375000,-375000,-146906.9,-139874,0.03,0.00,0.88,-4,0,-2,51,0
'[13:08:03.564 20/01/2026]',-121581.8,-177493.9,-90165.33,-122503.8,-375000,-375000,-146877.6,-139801.7,0.05,0.02,0.88,-4,0,-2,51,0
'[13:08:03.568 20/01/2026]',-121703.1,-177495.1,-90158.48,-122685,-375000,-375000,-146960.6,-139944.1,0.05,0.02,0.88,-4,0,-2,51,0
'[13:08:03.572 20/01/2026]',-121773.5,-177489.3,-90151.38,-122732.9,-375000,-375000,-146960.5,-139984.5,0.05,0.02,0.88,-4,0,-2,51,0
'[13:08:03.576 20/01/2026]',-121696.5,-177499.5,-90169.08,-122623.5,-375000,-375000,-146921.5,-139904.4,0.05,0.02,0.88,-4,0,-2,51,0
'[13:08:03.580 20/01/2026]',-121590.7,-177499.6,-90168.59,-122524.3,-375000,-375000,-146892,-139820.3,0.05,0.02,0.88,-4,0,-2,51,0
'[13:08:03.584 20/01/2026]',-121668.2,-177489.2,-90156.07,-122652.9,-375000,-375000,-146953.7,-139917.1,0.05,0.02,0.88,-4,0,-2,51,0
'[13:08:03.588 20/01/2026]',-121762.3,-177488.4,-90149.5,-122717.9,-375000,-375000,-146972.1,-139975.6,0.05,0.02,0.88,-4,0,-2,51,0
'[13:08:03.592 20/01/2026]',-121759.2,-177514,-90178.38,-122644.6,-375000,-375000,-146941.2,-139918,0.05,0.02,0.88,-4,0,-2,51,0
'[13:08:03.596 20/01/2026]',-121606.8,-177504.8,-90176.91,-122503,-375000,-375000,-146883,-139799.5,0.05,0.02,0.88,-4,0,-2,51,0
'[13:08:03.600 20/01/2026]',-121639.5,-177483.3,-90152.63,-122603.7,-375000,-375000,-146928.6,-139868.2,0.03,0.00,0.89,-4,0,-2,51,0
'[13:08:03.604 20/01/2026]',-121736,-177466,-90130.77,-122695.2,-375000,-375000,-146943.1,-139934.9,0.03,0.00,0.89,-4,0,-2,51,0
'[13:08:03.608 20/01/2026]',-121732.8,-177487.3,-90155.8,-122638.7,-375000,-375000,-146923.3,-139895.8,0.03,0.00,0.89,-4,0,-2,51,0
'[13:08:03.612 20/01/2026]',-121615.9,-177480.7,-90152.49,-122498.1,-375000,-375000,-146858.4,-139774.5,0.03,0.00,0.89,-4,0,-2,51,0
'[13:08:03.616 20/01/2026]',-121620.7,-177463.9,-90133.95,-122562.4,-375000,-375000,-146887.4,-139813.2,0.03,0.00,0.89,-4,0,-2,51,0
'[13:08:03.620 20/01/2026]',-121723.6,-177442.7,-90119.91,-122689.1,-375000,-375000,-146936.2,-139918.4,0.03,0.00,0.89,-4,0,-2,51,0
'[13:08:03.624 20/01/2026]',-121723.3,-177436.5,-90132.06,-122639,-375000,-375000,-146918.9,-139896.3,0.03,0.00,0.89,-4,0,-2,51,0
'[13:08:03.628 20/01/2026]',-121631.9,-177452.6,-90142.3,-122500.8,-375000,-375000,-146855.8,-139783.3,0.03,0.00,0.89,-4,0,-2,51,0
'[13:08:03.632 20/01/2026]',-121620.9,-177479.9,-90154.2,-122544.9,-375000,-375000,-146886.9,-139807.7,0.03,0.00,0.89,-4,0,-2,51,0
'[13:08:03.636 20/01/2026]',-121800.9,-177517.4,-90197.02,-122759.8,-375000,-375000,-146996.3,-139986.3,0.05,0.00,0.89,-4,0,-2,51,0
'[13:08:03.640 20/01/2026]',-121836.6,-177532.9,-90222.55,-122758.1,-375000,-375000,-146993,-139997.7,0.05,0.00,0.89,-4,0,-2,51,0
'[13:08:03.644 20/01/2026]',-121708.2,-177535.2,-90235.69,-122622.4,-375000,-375000,-146943.7,-139893.5,0.05,0.00,0.89,-4,0,-2,51,0
'[13:08:03.648 20/01/2026]',-121625.5,-177523.1,-90224.29,-122601,-375000,-375000,-146937.1,-139862.9,0.05,0.00,0.89,-4,0,-2,51,0
'[13:08:03.652 20/01/2026]',-121736.8,-177505.7,-90207.88,-122762.8,-375000,-375000,-146999.5,-139986.4,0.05,0.00,0.89,-4,0,-2,51,0
'[13:08:03.656 20/01/2026]',-121747.6,-177483.6,-90192.37,-122742,-375000,-375000,-146967,-139969,0.05,0.00,0.89,-4,0,-2,51,0
