'Time and date','Fp1.','Fp2.','C3.','C4.','P3.','P4.','O1.','O2.'
'hh:mm:ss.mmm dd/mm/yyyy','uV','uV','uV','uV','uV','uV','uV','uV'
'[19:13:00.000 20/01/2026]',-33.54999,-37.84721,-26.72383,-34.41742,4.610755E-10,4.610755E-10,-10.432,-17.02098
'[19:13:00.004 20/01/2026]',-28.31301,-18.15638,-9.567032,44.65373,4.610755E-10,4.610755E-10,-4.347505,8.224071
'[19:13:00.012 20/01/2026]',-28.31301,-18.15638,-9.567032,44.65373,4.610755E-10,4.610755E-10,-4.347505,8.224071
'[19:13:00.020 20/01/2026]',-28.31301,-18.15638,-9.567032,44.65373,4.610755E-10,4.610755E-10,-4.347505,8.224071
'[19:13:00.028 20/01/2026]',-28.31301,-18.15638,-9.567032,44.65373,4.610755E-10,4.610755E-10,-4.347505,8.224071
'[19:13:00.036 20/01/2026]',30.72553,14.46893,6.910311,-37.36124,4.610755E-10,4.610755E-10,-0.660473,-10.9689
'[19:13:00.044 20/01/2026]',-14.63046,9.530622,5.148213,1.485151,4.610755E-10,4.610755E-10,2.515212,5.18259
'[19:13:00.052 20/01/2026]',-16.43393,-6.612411,2.178798,39.42285,4.610755E-10,4.610755E-10,4.684089,10.652
'[19:13:00.060 20/01/2026]',-16.43393,-6.612411,2.178798,39.42285,4.610755E-10,4.610755E-10,4.684089,10.652
'[19:13:00.068 20/01/2026]',-16.43393,-6.612411,2.178798,39.42285,4.610755E-10,4.610755E-10,4.684089,10.652
'[19:13:00.076 20/01/2026]',-16.43393,-6.612411,2.178798,39.42285,4.610755E-10,4.610755E-10,4.684089,10.652
'[19:13:00.084 20/01/2026]',43.58447,-18.90992,-20.29932,-56.58694,4.610755E-10,4.610755E-10,-13.35343,-27.54492
'[19:13:00.092 20/01/2026]',-46.00896,11.23752,3.860373,11.20583,4.610755E-10,4.610755E-10,1.360301,9.147204
'[19:13:00.100 20/01/2026]',21.94657,0.3900436,14.18125,27.85894,4.610755E-10,4.610755E-10,10.29347,13.88152
'[19:13:00.108 20/01/2026]',21.94657,0.3900436,14.18125,27.85894,4.610755E-10,4.610755E-10,10.29347,13.88152
'[19:13:00.116 20/01/2026]',21.94657,0.3900436,14.18125,27.85894,4.610755E-10,4.610755E-10,10.29347,13.88152
'[19:13:00.124 20/01/2026]',21.94657,0.3900436,14.18125,27.85894,4.610755E-10,4.610755E-10,10.29347,13.88152
'[19:13:00.132 20/01/2026]',4.77871,17.46292,0.2598076,-14.27787,4.610755E-10,4.610755E-10,-1.641694,-8.820508
'[19:13:00.140 20/01/2026]',107.8127,-8.157526,-2.629155,0.7545828,4.610755E-10,4.610755E-10,2.748265,6.479912
'[19:13:00.148 20/01/2026]',107.8127,-8.157526,-2.629155,0.7545828,4.610755E-10,4.610755E-10,2.748265,6.479912
'[19:13:00.156 20/01/2026]',107.8127,-8.157526,-2.629155,0.7545828,4.610755E-10,4.610755E-10,2.748265,6.479912
'[19:13:00.164 20/01/2026]',107.8127,-8.157526,-2.629155,0.7545828,4.610755E-10,4.610755E-10,2.748265,6.479912
'[19:13:00.172 20/01/2026]',-111.0372,-5.045039,0.6596017,16.88464,4.610755E-10,4.610755E-10,0.6787487,2.811695
'[19:13:00.180 20/01/2026]',-50.0578,6.519203,2.430214,-9.278294,4.610755E-10,4.610755E-10,-2.337417,-4.59524
'[19:13:00.188 20/01/2026]',18.67734,4.926764,5.500717,-12.48258,4.610755E-10,4.610755E-10,7.772808,8.637377
'[19:13:00.196 20/01/2026]',18.67734,4.926764,5.500717,-12.48258,4.610755E-10,4.610755E-10,7.772808,8.637377
'[19:13:00.204 20/01/2026]',18.67734,4.926764,5.500717,-12.48258,4.610755E-10,4.610755E-10,7.772808,8.637377
'[19:13:00.212 20/01/2026]',56.11531,-2.465658,1.076378,41.07762,4.610755E-10,4.610755E-10,1.250535,2.40414
'[19:13:00.220 20/01/2026]',-7.579559,-2.742218,-5.109858,-36.44216,4.610755E-10,4.610755E-10,-7.540834,-8.655544
'[19:13:00.228 20/01/2026]',-90.27313,-8.960388,-11.35693,-24.38024,4.610755E-10,4.610755E-10,-6.588312,-13.81987
'[19:13:00.236 20/01/2026]',162.6002,13.742,15.03619,43.52383,4.610755E-10,4.610755E-10,13.20537,16.72099
'[19:13:00.244 20/01/2026]',-79.08081,13.61508,14.96427,20.36679,4.610755E-10,4.610755E-10,13.58498,24.97545
'[19:13:00.252 20/01/2026]',-31.27822,2.873154,4.693993,-23.75746,4.610755E-10,4.610755E-10,0.4337658,-12.1197
'[19:13:00.260 20/01/2026]',2.52524,-15.64262,-21.52606,-6.41669,4.610755E-10,4.610755E-10,-11.16488,-10.55607
'[19:13:00.268 20/01/2026]',52.63269,-6.200082,-0.8610541,4.940302,4.610755E-10,4.610755E-10,-6.93074,-1.841503
'[19:13:00.276 20/01/2026]',-68.3047,11.59135,10.20204,2.332524,4.610755E-10,4.610755E-10,7.703391,7.993987
'[19:13:00.284 20/01/2026]',18.24247,-7.570461,-5.886326,-5.365811,4.610755E-10,4.610755E-10,0.7198483,-3.309754
'[19:13:00.292 20/01/2026]',-2.459535,9.579959,10.33974,7.920418,4.610755E-10,4.610755E-10,4.893753,5.915023
'[19:13:00.300 20/01/2026]',23.59522,-1.733903,-4.947505,-5.098073,4.610755E-10,4.610755E-10,-2.511971,-3.183904
'[19:13:00.308 20/01/2026]',-31.62435,-13.15632,-10.8535,-7.689716,4.610755E-10,4.610755E-10,-14.7584,-12.43753
'[19:13:00.316 20/01/2026]',5.209641,6.69331,7.421339,4.634001,4.610755E-10,4.610755E-10,10.34846,10.89767
'[19:13:00.324 20/01/2026]',16.74943,-2.711834,-3.198763,0.443083,4.610755E-10,4.610755E-10,-0.7027756,-3.857999
'[19:13:00.332 20/01/2026]',-3.541358,23.14701,29.01753,23.82197,4.610755E-10,4.610755E-10,25.9248,28.94696
'[19:13:00.340 20/01/2026]',-33.99862,-45.7986,-49.07702,-39.62418,4.610755E-10,4.610755E-10,-39.00158,-43.18919
'[19:13:00.348 20/01/2026]',71.96188,53.21051,33.0639,24.47677,4.610755E-10,4.610755E-10,15.65626,16.79658
'[19:13:00.356 20/01/2026]',-74.93754,-9.237187,5.258655,-9.852154,4.610755E-10,4.610755E-10,0.3497098,5.496469
'[19:13:00.364 20/01/2026]',37.88996,-42.57926,-29.94949,18.26547,4.610755E-10,4.610755E-10,-8.483606,-14.89971
'[19:13:00.372 20/01/2026]',28.04117,40.3071,27.55898,-20.95469,4.610755E-10,4.610755E-10,21.43151,20.79574
'[19:13:00.380 20/01/2026]',-78.81128,2.92263,0.9187639,9.86126,4.610755E-10,4.610755E-10,-4.191449,3.335377
'[19:13:00.388 20/01/2026]',95.57458,-22.38659,-14.49377,20.2205,4.610755E-10,4.610755E-10,-13.00204,-16.85271
'[19:13:00.396 20/01/2026]',-74.83018,7.672352,4.380799,-21.7347,4.610755E-10,4.610755E-10,9.221958,7.726846
'[19:13:00.404 20/01/2026]',21.23337,0.8646814,-0.2947194,-5.566911,4.610755E-10,4.610755E-10,-4.55522,2.533375
'[19:13:00.412 20/01/2026]',39.80888,-4.826069,-2.10663,0.5388502,4.610755E-10,4.610755E-10,-2.704192,-14.11602
'[19:13:00.420 20/01/2026]',-40.92759,-1.247702,-0.7427652,14.01253,4.610755E-10,4.610755E-10,2.799967,9.685507
'[19:13:00.428 20/01/2026]',-11.62904,5.051813,2.773894,-15.08046,4.610755E-10,4.610755E-10,-4.012712,-2.091697
'[19:13:00.436 20/01/2026]',56.86449,4.282002,-3.19868,3.908846,4.610755E-10,4.610755E-10,6.867229,-5.224463
'[19:13:00.444 20/01/2026]',-46.14648,-18.38532,-4.158748,1.866024,4.610755E-10,4.610755E-10,-13.10439,7.172462
'[19:13:00.452 20/01/2026]',-6.461559,0.01780153,-4.008904,-13.91885,4.610755E-10,4.610755E-10,-2.152502,-18.00686
'[19:13:00.460 20/01/2026]',24.99338,14.34362,6.053796,16.46003,4.610755E-10,4.610755E-10,13.13884,9.603696
'[19:13:00.468 20/01/2026]',-9.479239,-8.45154,2.509486,-5.43404,4.610755E-10,4.610755E-10,-9.361539,5.260272
'[19:13:00.476 20/01/2026]',-7.010159,-3.584542,-8.337241,-14.83877,4.610755E-10,4.610755E-10,-0.4038375,-10.84338
'[19:13:00.484 20/01/2026]',7.994497,-4.947057,-3.747007,18.99423,4.610755E-10,4.610755E-10,1.295628,6.649198
'[19:13:00.492 20/01/2026]',-4.807075,8.498021,11.33475,-5.02452,4.610755E-10,4.610755E-10,-3.241083,-2.843256
'[19:13:00.500 20/01/2026]',6.930384,1.789972,-4.004,1.605079,4.610755E-10,4.610755E-10,8.970865,5.59876
'[19:13:00.508 20/01/2026]',1.509394,6.502392,10.296,0.08818991,4.610755E-10,4.610755E-10,6.235656,8.454761
'[19:13:00.516 20/01/2026]',4.76862,-3.087379,-4.482837,16.64416,4.610755E-10,4.610755E-10,-8.590635,-7.100669
'[19:13:00.524 20/01/2026]',-14.26473,-14.56265,-10.89929,-28.81962,4.610755E-10,4.610755E-10,-2.029756,-7.251073
'[19:13:00.532 20/01/2026]',-20.53144,17.77149,12.76945,9.978453,4.610755E-10,4.610755E-10,1.76676,6.28188
'[19:13:00.540 20/01/2026]',68.64268,-0.9077346,-5.317251,8.644385,4.610755E-10,4.610755E-10,2.953623,0.5515738
'[19:13:00.548 20/01/2026]',-53.53652,-8.151452,-1.965115,-7.791173,4.610755E-10,4.610755E-10,-3.131936,-1.658216
'[19:13:00.556 20/01/2026]',-11.08029,2.715744,3.95768,-3.243385,4.610755E-10,4.610755E-10,-0.114252,-3.183141
'[19:13:00.564 20/01/2026]',29.10387,-0.1029256,-3.875116,-0.6882008,4.610755E-10,4.610755E-10,0.3696705,2.793966
'[19:13:00.572 20/01/2026]',-9.574127,-6.580599,-5.881851,5.272194,4.610755E-10,4.610755E-10,-9.731031,-6.753309
'[19:13:00.580 20/01/2026]',3.973804,9.309154,11.43602,-0.3705338,4.610755E-10,4.610755E-10,14.02675,5.765513
'[19:13:00.588 20/01/2026]',3.973804,9.309154,11.43602,-0.3705338,4.610755E-10,4.610755E-10,14.02675,5.765513
'[19:13:00.596 20/01/2026]',-6.496911,-3.483697,-5.354004,-4.124486,4.610755E-10,4.610755E-10,-5.414072,2.73363
'[19:13:00.604 20/01/2026]',-6.496911,-3.483697,-5.354004,-4.124486,4.610755E-10,4.610755E-10,-5.414072,2.73363
'[19:13:00.612 20/01/2026]',2.41096,2.362996,3.54344,4.311276,4.610755E-10,4.610755E-10,-2.340463,-4.497992
'[19:13:00.620 20/01/2026]',2.41096,2.362996,3.54344,4.311276,4.610755E-10,4.610755E-10,-2.340463,-4.497992
'[19:13:00.628 20/01/2026]',12.57847,-2.212145,0.2235531,6.518451,4.610755E-10,4.610755E-10,7.840863,3.894286
'[19:13:00.636 20/01/2026]',12.57847,-2.212145,0.2235531,6.518451,4.610755E-10,4.610755E-10,7.840863,3.894286
'[19:13:00.644 20/01/2026]',12.57847,-2.212145,0.2235531,6.518451,4.610755E-10,4.610755E-10,7.840863,3.894286
'[19:13:00.652 20/01/2026]',12.57847,-2.212145,0.2235531,6.518451,4.610755E-10,4.610755E-10,7.840863,3.894286
'[19:13:00.660 20/01/2026]',-21.52589,-1.607542,-4.046744,-10.34202,4.610755E-10,4.610755E-10,-7.25504,-1.93136
'[19:13:00.668 20/01/2026]',-21.52589,-1.607542,-4.046744,-10.34202,4.610755E-10,4.610755E-10,-7.25504,-1.93136
'[19:13:00.676 20/01/2026]',-21.52589,-1.607542,-4.046744,-10.34202,4.610755E-10,4.610755E-10,-7.25504,-1.93136
'[19:13:00.684 20/01/2026]',-21.52589,-1.607542,-4.046744,-10.34202,4.610755E-10,4.610755E-10,-7.25504,-1.93136
'[19:13:00.692 20/01/2026]',5.606682,-1.801384,0.5308033,-7.272199,4.610755E-10,4.610755E-10,-2.26286,-5.347215
'[19:13:00.700 20/01/2026]',17.0836,8.354304,6.563507,22.46272,4.610755E-10,4.610755E-10,11.09159,11.21163
'[19:13:00.708 20/01/2026]',17.0836,8.354304,6.563507,22.46272,4.610755E-10,4.610755E-10,11.09159,11.21163
'[19:13:00.716 20/01/2026]',17.0836,8.354304,6.563507,22.46272,4.610755E-10,4.610755E-10,11.09159,11.21163
'[19:13:00.724 20/01/2026]',17.0836,8.354304,6.563507,22.46272,4.610755E-10,4.610755E-10,11.09159,11.21163
'[19:13:00.732 20/01/2026]',-22.60001,-6.898571,-5.122156,-13.65621,4.610755E-10,4.610755E-10,-8.300267,-7.192768
'[19:13:00.740 20/01/2026]',1.562863,-2.915329,-4.172225,-11.2893,4.610755E-10,4.610755E-10,-3.793171,-4.166295
'[19:13:00.748 20/01/2026]',17.91377,9.057736,5.734105,19.86037,4.610755E-10,4.610755E-10,9.898558,10.58955
'[19:13:00.756 20/01/2026]',17.91377,9.057736,5.734105,19.86037,4.610755E-10,4.610755E-10,9.898558,10.58955
'[19:13:00.764 20/01/2026]',17.91377,9.057736,5.734105,19.86037,4.610755E-10,4.610755E-10,9.898558,10.58955
'[19:13:00.772 20/01/2026]',-3.971365,0.009881734,7.777053,7.382377,4.610755E-10,4.610755E-10,2.916582,3.218641
'[19:13:00.780 20/01/2026]',-8.477259,-11.50408,-15.42907,-33.16672,4.610755E-10,4.610755E-10,-14.9326,-17.6067
'[19:13:00.788 20/01/2026]',-14.88925,3.181169,2.547783,18.60458,4.610755E-10,4.610755E-10,4.35148,9.072223
'[19:13:00.796 20/01/2026]',62.21875,14.73221,15.45679,35.31399,4.610755E-10,4.610755E-10,17.2991,17.7023
'[19:13:00.804 20/01/2026]',-54.26025,-2.475929,-4.080844,-47.99495,4.610755E-10,4.610755E-10,-6.088247,-12.96255
'[19:13:00.812 20/01/2026]',1.039828,-9.253952,-7.251348,11.39766,4.610755E-10,4.610755E-10,-9.106065,-6.907006
'[19:13:00.820 20/01/2026]',18.52743,2.196788,1.181764,8.80212,4.610755E-10,4.610755E-10,4.602344,6.710654
'[19:13:00.828 20/01/2026]',1.488374,4.572916,6.53337,0.3467613,4.610755E-10,4.610755E-10,4.055576,5.135709
'[19:13:00.836 20/01/2026]',-13.20325,-0.9880905,-3.334328,-6.362197,4.610755E-10,4.610755E-10,-4.504358,-7.726658
'[19:13:00.844 20/01/2026]',10.15822,-5.223871,-4.789691,3.915037,4.610755E-10,4.610755E-10,0.4855681,1.722203
'[19:13:00.852 20/01/2026]',0.3165241,0.01893562,3.271548,2.423663,4.610755E-10,4.610755E-10,-1.134346,1.771363
'[19:13:00.860 20/01/2026]',-15.96885,4.88545,2.38329,-9.230364,4.610755E-10,4.610755E-10,2.746845,-4.083229
'[19:13:00.868 20/01/2026]',5.951485,-4.206567,-5.816622,4.170033,4.610755E-10,4.610755E-10,-0.5041314,3.541642
'[19:13:00.876 20/01/2026]',7.234919,-11.81552,0.1150488,-1.980605,4.610755E-10,4.610755E-10,-8.313811,-5.417307
'[19:13:00.884 20/01/2026]',8.200727,31.66263,11.79559,7.76243,4.610755E-10,4.610755E-10,9.05809,3.377919
'[19:13:00.892 20/01/2026]',-16.09825,-19.91468,-12.17182,-7.68106,4.610755E-10,4.610755E-10,-6.377925,-2.952597
'[19:13:00.900 20/01/2026]',-0.6978181,-11.33993,-3.892776,-5.292675,4.610755E-10,4.610755E-10,-3.576806,-3.082905
'[19:13:00.908 20/01/2026]',4.004298,17.03275,11.80326,10.07045,4.610755E-10,4.610755E-10,8.143288,5.573557
'[19:13:00.916 20/01/2026]',7.211366,-1.165989,-3.990659,-2.577212,4.610755E-10,4.610755E-10,0.6837811,0.5737345
'[19:13:00.924 20/01/2026]',-8.766129,-5.685526,-5.120699,-2.815051,4.610755E-10,4.610755E-10,-7.425215,-5.103378
'[19:13:00.932 20/01/2026]',0.178444,4.122884,7.53908,0.5421753,4.610755E-10,4.610755E-10,8.002235,6.980359
'[19:13:00.940 20/01/2026]',5.252755,5.075225,2.394745,10.7723,4.610755E-10,4.610755E-10,0.4210022,1.329445
'[19:13:00.948 20/01/2026]',15.27226,3.032038,2.117887,0.8771362,4.610755E-10,4.610755E-10,7.714355,3.593255
'[19:13:00.956 20/01/2026]',-10.87182,2.814756,3.838807,-12.44497,4.610755E-10,4.610755E-10,-3.095764,3.582006
'[19:13:00.964 20/01/2026]',-3.336807,-10.13468,0.3329693,26.65161,4.610755E-10,4.610755E-10,5.371886,-0.515915
'[19:13:00.972 20/01/2026]',28.4762,13.16032,3.069093,-13.46253,4.610755E-10,4.610755E-10,4.769716,4.22071
'[19:13:00.980 20/01/2026]',-43.83456,3.555742,-5.313272,-12.67777,4.610755E-10,4.610755E-10,-12.75303,-7.423702
'[19:13:00.988 20/01/2026]',30.69602,-8.43256,4.281554,19.29688,4.610755E-10,4.610755E-10,9.182361,2.833129
'[19:13:00.996 20/01/2026]',-6.467574,2.767319,1.798832,-4.847433,4.610755E-10,4.610755E-10,6.396637,9.630448
'[19:13:01.004 20/01/2026]',-6.726821,-1.738763,-4.970428,-4.670175,4.610755E-10,4.610755E-10,-11.82462,-8.548034
'[19:13:01.012 20/01/2026]',-11.75087,-14.77688,-5.800011,0.04942097,4.610755E-10,4.610755E-10,2.491995,-1.532993
'[19:13:01.020 20/01/2026]',11.11818,2.625548,3.517208,3.982581,4.610755E-10,4.610755E-10,6.782216,8.587946
'[19:13:01.028 20/01/2026]',44.57748,56.6361,25.42873,8.662158,4.610755E-10,4.610755E-10,-5.643566,-6.49724
'[19:13:01.036 20/01/2026]',-31.02537,-35.85241,-17.73792,-13.13004,4.610755E-10,4.610755E-10,-1.623372,-2.625848
'[19:13:01.044 20/01/2026]',-25.17212,-28.83566,-12.26226,4.028349,4.610755E-10,4.610755E-10,6.588398,10.0205
'[19:13:01.052 20/01/2026]',25.62624,25.96753,11.6247,0.226409,4.610755E-10,4.610755E-10,-7.68437,-10.16308
'[19:13:01.060 20/01/2026]',5.224041,3.89775,2.206364,-0.8887225,4.610755E-10,4.610755E-10,5.331208,4.018747
'[19:13:01.068 20/01/2026]',-14.91297,-10.35174,-6.690935,-3.040059,4.610755E-10,4.610755E-10,-2.061154,0.1778394
'[19:13:01.076 20/01/2026]',-1.60648,-2.631939,-2.061836,2.54374,4.610755E-10,4.610755E-10,-2.656454,-1.217626
'[19:13:01.084 20/01/2026]',-0.5089148,6.719381,5.505819,2.836883,4.610755E-10,4.610755E-10,2.89099,-0.8885372
'[19:13:01.092 20/01/2026]',-3.614548,-13.95307,-6.939229,-12.32449,4.610755E-10,4.610755E-10,-2.794855,-2.268572
'[19:13:01.100 20/01/2026]',12.65907,7.69429,0.07736149,4.063488,4.610755E-10,4.610755E-10,-2.195961,-0.8301544
'[19:13:01.108 20/01/2026]',-0.2545754,11.02747,5.73316,6.535332,4.610755E-10,4.610755E-10,0.4223422,-0.9141892
'[19:13:01.116 20/01/2026]',-0.2545754,11.02747,5.73316,6.535332,4.610755E-10,4.610755E-10,0.4223422,-0.9141892
'[19:13:01.124 20/01/2026]',-0.2545754,11.02747,5.73316,6.535332,4.610755E-10,4.610755E-10,0.4223422,-0.9141892
'[19:13:01.132 20/01/2026]',-0.2545754,11.02747,5.73316,6.535332,4.610755E-10,4.610755E-10,0.4223422,-0.9141892
'[19:13:01.140 20/01/2026]',-0.2545754,11.02747,5.73316,6.535332,4.610755E-10,4.610755E-10,0.4223422,-0.9141892
'[19:13:01.148 20/01/2026]',-13.01015,-9.632274,-0.5740654,-1.158112,4.610755E-10,4.610755E-10,7.87722,8.890458
'[19:13:01.156 20/01/2026]',8.673437,-4.239369,-7.622629,-3.19278,4.610755E-10,4.610755E-10,-11.82004,-14.07739
'[19:13:01.164 20/01/2026]',-6.671524,3.988348,4.857925,-8.187913,4.610755E-10,4.610755E-10,4.888823,8.977237
'[19:13:01.172 20/01/2026]',-6.671524,3.988348,4.857925,-8.187913,4.610755E-10,4.610755E-10,4.888823,8.977237
'[19:13:01.180 20/01/2026]',-6.671524,3.988348,4.857925,-8.187913,4.610755E-10,4.610755E-10,4.888823,8.977237
'[19:13:01.188 20/01/2026]',-6.671524,3.988348,4.857925,-8.187913,4.610755E-10,4.610755E-10,4.888823,8.977237
'[19:13:01.196 20/01/2026]',21.41562,0.5579619,-1.564879,24.70866,4.610755E-10,4.610755E-10,1.229414,0.5087085
'[19:13:01.204 20/01/2026]',-17.68934,-2.847961,1.160818,-26.05172,4.610755E-10,4.610755E-10,-4.618271,-7.149634
'[19:13:01.212 20/01/2026]',-23.63741,-3.887944,-6.143728,-5.845623,4.610755E-10,4.610755E-10,0.1938462,-2.324141
'[19:13:01.220 20/01/2026]',-23.63741,-3.887944,-6.143728,-5.845623,4.610755E-10,4.610755E-10,0.1938462,-2.324141
'[19:13:01.228 20/01/2026]',-23.63741,-3.887944,-6.143728,-5.845623,4.610755E-10,4.610755E-10,0.1938462,-2.324141
'[19:13:01.236 20/01/2026]',-23.63741,-3.887944,-6.143728,-5.845623,4.610755E-10,4.610755E-10,0.1938462,-2.324141
'[19:13:01.244 20/01/2026]',37.34107,6.768869,5.315754,17.52802,4.610755E-10,4.610755E-10,3.124845,6.810265
'[19:13:01.252 20/01/2026]',-11.76415,-1.243112,-0.8747873,1.597409,4.610755E-10,4.610755E-10,-0.483452,0.05903944
'[19:13:01.260 20/01/2026]',-11.76415,-1.243112,-0.8747873,1.597409,4.610755E-10,4.610755E-10,-0.483452,0.05903944
'[19:13:01.268 20/01/2026]',-11.76415,-1.243112,-0.8747873,1.597409,4.610755E-10,4.610755E-10,-0.483452,0.05903944
'[19:13:01.276 20/01/2026]',-11.76415,-1.243112,-0.8747873,1.597409,4.610755E-10,4.610755E-10,-0.483452,0.05903944
'[19:13:01.284 20/01/2026]',-16.59401,-2.46468,0.03918491,-11.93723,4.610755E-10,4.610755E-10,-4.261964,-3.885864
'[19:13:01.292 20/01/2026]',12.79185,-3.255538,-3.690272,-8.662325,4.610755E-10,4.610755E-10,-0.5112458,-5.832893
'[19:13:01.300 20/01/2026]',14.44138,3.002419,3.836573,25.13156,4.610755E-10,4.610755E-10,5.428524,10.58795
'[19:13:01.308 20/01/2026]',14.44138,3.002419,3.836573,25.13156,4.610755E-10,4.610755E-10,5.428524,10.58795
'[19:13:01.316 20/01/2026]',14.44138,3.002419,3.836573,25.13156,4.610755E-10,4.610755E-10,5.428524,10.58795
'[19:13:01.324 20/01/2026]',14.44138,3.002419,3.836573,25.13156,4.610755E-10,4.610755E-10,5.428524,10.58795
'[19:13:01.332 20/01/2026]',-15.46539,-0.2407396,-1.845646,-13.59761,4.610755E-10,4.610755E-10,-6.121793,-6.217429
'[19:13:01.340 20/01/2026]',-6.671601,-1.049167,1.642203,-5.690218,4.610755E-10,4.610755E-10,2.666663,1.876178
'[19:13:01.348 20/01/2026]',8.571802,3.68115,-0.1790756,13.24283,4.610755E-10,4.610755E-10,1.839201,2.694336
'[19:13:01.356 20/01/2026]',9.817608,5.158384,0.2110063,-4.642284,4.610755E-10,4.610755E-10,-0.3655367,-5.869853
'[19:13:01.364 20/01/2026]',-19.73552,-17.00321,-4.735589,-9.298409,4.610755E-10,4.610755E-10,-3.174689,0.008094903
'[19:13:01.372 20/01/2026]',-4.690008,6.425329,0.6946584,-0.3438445,4.610755E-10,4.610755E-10,-5.052961,-1.156175
'[19:13:01.380 20/01/2026]',25.74605,10.31785,5.257349,11.16549,4.610755E-10,4.610755E-10,10.86573,5.536852
'[19:13:01.388 20/01/2026]',-18.26909,-11.61684,-6.174439,-2.749279,4.610755E-10,4.610755E-10,-1.758881,-2.861096
'[19:13:01.396 20/01/2026]',4.876021,1.076971,-0.05788649,-9.31731,4.610755E-10,4.610755E-10,-10.56605,-3.077476
'[19:13:01.404 20/01/2026]',-5.552601,-2.07748,1.057828,0.02226326,4.610755E-10,4.610755E-10,5.219742,-0.5475278
'[19:13:01.412 20/01/2026]',6.614949,4.657155,2.935964,16.69735,4.610755E-10,4.610755E-10,10.57003,10.23666
'[19:13:01.420 20/01/2026]',8.529181,0.08054114,-3.773608,-9.511821,4.610755E-10,4.610755E-10,-14.18313,-9.339409
'[19:13:01.428 20/01/2026]',-18.09279,-7.736451,-3.011292,-23.9003,4.610755E-10,4.610755E-10,-2.742736,-7.843149
'[19:13:01.436 20/01/2026]',-17.5329,2.549286,3.876987,35.18912,4.610755E-10,4.610755E-10,12.3406,14.40418
'[19:13:01.444 20/01/2026]',77.89482,0.9750742,-4.005462,-9.237652,4.610755E-10,4.610755E-10,-10.49537,-5.722981
'[19:13:01.452 20/01/2026]',-108.5214,1.973947,2.483288,-28.07081,4.610755E-10,4.610755E-10,2.875474,-6.926586
'[19:13:01.460 20/01/2026]',79.758,1.280013,1.814941,28.06527,4.610755E-10,4.610755E-10,5.413478,9.313103
'[19:13:01.468 20/01/2026]',-38.90148,-6.114339,-6.655778,-8.043068,4.610755E-10,4.610755E-10,-9.697919,-7.61133
'[19:13:01.476 20/01/2026]',18.48241,5.058782,6.502414,-0.116709,4.610755E-10,4.610755E-10,9.512462,5.754436
'[19:13:01.484 20/01/2026]',-16.46583,6.840514,5.930405,5.55177,4.610755E-10,4.610755E-10,3.153253,6.875972
'[19:13:01.492 20/01/2026]',21.33405,-12.7424,-12.03916,-6.092232,4.610755E-10,4.610755E-10,-12.20579,-13.74781
'[19:13:01.500 20/01/2026]',-17.70006,1.181709,0.8545826,2.62833,4.610755E-10,4.610755E-10,4.749715,4.936488
'[19:13:01.508 20/01/2026]',2.700594,1.247774,-0.4244072,-11.09048,4.610755E-10,4.610755E-10,-5.822508,-6.01673
'[19:13:01.516 20/01/2026]',-0.946937,4.591118,5.607567,10.28918,4.610755E-10,4.610755E-10,8.280782,6.863965
'[19:13:01.524 20/01/2026]',0.02835228,-5.168876,-3.240312,2.678037,4.610755E-10,4.610755E-10,1.570349,2.299577
'[19:13:01.532 20/01/2026]',4.242532,-6.90638,-8.618411,-13.15861,4.610755E-10,4.610755E-10,-16.47977,-14.49402
'[19:13:01.540 20/01/2026]',-11.661,14.29147,12.81978,11.37917,4.610755E-10,4.610755E-10,13.8827,13.49316
'[19:13:01.548 20/01/2026]',-2.398639,-20.60152,-8.847808,-9.488666,4.610755E-10,4.610755E-10,-0.4488874,-4.631954
'[19:13:01.556 20/01/2026]',16.28078,21.16022,6.689199,7.509579,4.610755E-10,4.610755E-10,-4.462185,0.04518585
'[19:13:01.564 20/01/2026]',-1.138699,5.416956,5.666639,10.6597,4.610755E-10,4.610755E-10,8.91814,7.852877
'[19:13:01.572 20/01/2026]',-6.31554,-17.91238,-10.87118,-17.59617,4.610755E-10,4.610755E-10,-4.352621,-7.872606
'[19:13:01.580 20/01/2026]',4.733367,10.80165,7.410423,7.936955,4.610755E-10,4.610755E-10,1.278135,4.741516
'[19:13:01.588 20/01/2026]',-7.680006,-5.628875,-6.057448,-1.237484,4.610755E-10,4.610755E-10,-4.851629,-5.141693
'[19:13:01.596 20/01/2026]',11.19004,2.841975,2.623152,-9.854761,4.610755E-10,4.610755E-10,1.408239,0.1170541
'[19:13:01.604 20/01/2026]',-12.9151,-2.096763,1.741848,24.08055,4.610755E-10,4.610755E-10,4.996806,9.613485
'[19:13:01.612 20/01/2026]',25.34539,-2.641065,-2.850891,-7.574374,4.610755E-10,4.610755E-10,-5.964088,-7.083039
'[19:13:01.620 20/01/2026]',-30.76843,9.569356,2.016112,-29.53341,4.610755E-10,4.610755E-10,1.819689,-5.171033
'[19:13:01.628 20/01/2026]',8.050011,-14.30685,-8.228548,24.51423,4.610755E-10,4.610755E-10,-4.576271,4.697333
'[19:13:01.636 20/01/2026]',17.17149,15.57186,14.68231,11.92762,4.610755E-10,4.610755E-10,10.88231,6.962607
'[19:13:01.644 20/01/2026]',-19.45044,-11.29888,-13.40903,-24.0909,4.610755E-10,4.610755E-10,-13.79854,-14.47523
'[19:13:01.652 20/01/2026]',-9.380922,-4.421843,-5.067982,-6.418664,4.610755E-10,4.610755E-10,-2.560487,-2.265701
'[19:13:01.660 20/01/2026]',-9.380922,-4.421843,-5.067982,-6.418664,4.610755E-10,4.610755E-10,-2.560487,-2.265701
'[19:13:01.668 20/01/2026]',27.52575,4.01435,6.253264,17.36581,4.610755E-10,4.610755E-10,7.523328,8.532856
'[19:13:01.676 20/01/2026]',-13.7257,0.7999546,0.8083962,-2.35723,4.610755E-10,4.610755E-10,-3.848663,-3.167691
'[19:13:01.684 20/01/2026]',-0.3467,3.314083,2.189613,-6.54156,4.610755E-10,4.610755E-10,5.168153,2.897169
'[19:13:01.692 20/01/2026]',-0.3467,3.314083,2.189613,-6.54156,4.610755E-10,4.610755E-10,5.168153,2.897169
'[19:13:01.700 20/01/2026]',-0.3467,3.314083,2.189613,-6.54156,4.610755E-10,4.610755E-10,5.168153,2.897169
'[19:13:01.708 20/01/2026]',-0.3467,3.314083,2.189613,-6.54156,4.610755E-10,4.610755E-10,5.168153,2.897169
'[19:13:01.716 20/01/2026]',-1.999219,-7.992889,-6.624462,3.267626,4.610755E-10,4.610755E-10,-4.280479,-2.441962
'[19:13:01.724 20/01/2026]',3.467582,4.824241,1.645933,-0.5299295,4.610755E-10,4.610755E-10,-3.051423,-3.304219
'[19:13:01.732 20/01/2026]',3.467582,4.824241,1.645933,-0.5299295,4.610755E-10,4.610755E-10,-3.051423,-3.304219
'[19:13:01.740 20/01/2026]',3.467582,4.824241,1.645933,-0.5299295,4.610755E-10,4.610755E-10,-3.051423,-3.304219
'[19:13:01.748 20/01/2026]',3.467582,4.824241,1.645933,-0.5299295,4.610755E-10,4.610755E-10,-3.051423,-3.304219
'[19:13:01.756 20/01/2026]',4.576897,1.723303,4.477273,2.858343,4.610755E-10,4.610755E-10,5.818522,3.748867
'[19:13:01.764 20/01/2026]',-14.61419,-8.347469,-6.001236,-5.449127,4.610755E-10,4.610755E-10,-1.042586,1.939043
'[19:13:01.772 20/01/2026]',3.662329,3.878188,0.8178461,-1.687667,4.610755E-10,4.610755E-10,-6.267254,-7.987483
'[19:13:01.780 20/01/2026]',3.662329,3.878188,0.8178461,-1.687667,4.610755E-10,4.610755E-10,-6.267254,-7.987483
'[19:13:01.788 20/01/2026]',3.662329,3.878188,0.8178461,-1.687667,4.610755E-10,4.610755E-10,-6.267254,-7.987483
'[19:13:01.796 20/01/2026]',3.662329,3.878188,0.8178461,-1.687667,4.610755E-10,4.610755E-10,-6.267254,-7.987483
'[19:13:01.804 20/01/2026]',10.18258,1.88462,3.56342,6.990224,4.610755E-10,4.610755E-10,1.328177,2.451498
'[19:13:01.812 20/01/2026]',-3.476837,0.3465599,2.899183,1.597181,4.610755E-10,4.610755E-10,15.17817,12.33494
'[19:13:01.820 20/01/2026]',-10.61941,-4.425135,-6.920209,-9.552287,4.610755E-10,4.610755E-10,-14.84069,-12.19118
'[19:13:01.828 20/01/2026]',-10.61941,-4.425135,-6.920209,-9.552287,4.610755E-10,4.610755E-10,-14.84069,-12.19118
'[19:13:01.836 20/01/2026]',-10.61941,-4.425135,-6.920209,-9.552287,4.610755E-10,4.610755E-10,-14.84069,-12.19118
'[19:13:01.844 20/01/2026]',-10.61941,-4.425135,-6.920209,-9.552287,4.610755E-10,4.610755E-10,-14.84069,-12.19118
'[19:13:01.852 20/01/2026]',5.105531,4.972816,3.680233,9.57423,4.610755E-10,4.610755E-10,-3.721475,-3.188816
'[19:13:01.860 20/01/2026]',25.50021,0.1425459,0.7635386,0.120871,4.610755E-10,4.610755E-10,15.22613,12.92366
'[19:13:01.868 20/01/2026]',25.50021,0.1425459,0.7635386,0.120871,4.610755E-10,4.610755E-10,15.22613,12.92366
'[19:13:01.876 20/01/2026]',25.50021,0.1425459,0.7635386,0.120871,4.610755E-10,4.610755E-10,15.22613,12.92366
'[19:13:01.884 20/01/2026]',25.50021,0.1425459,0.7635386,0.120871,4.610755E-10,4.610755E-10,15.22613,12.92366
'[19:13:01.892 20/01/2026]',25.50021,0.1425459,0.7635386,0.120871,4.610755E-10,4.610755E-10,15.22613,12.92366
'[19:13:01.900 20/01/2026]',-44.31484,-0.8321583,-1.149327,-13.61124,4.610755E-10,4.610755E-10,-4.462548,-2.490141
'[19:13:01.908 20/01/2026]',23.02848,-4.695541,-3.09293,19.87508,4.610755E-10,4.610755E-10,-14.0254,-14.40062
'[19:13:01.916 20/01/2026]',17.10343,6.562387,5.517087,-9.848821,4.610755E-10,4.610755E-10,15.69395,13.38163
'[19:13:01.924 20/01/2026]',17.10343,6.562387,5.517087,-9.848821,4.610755E-10,4.610755E-10,15.69395,13.38163
'[19:13:01.932 20/01/2026]',17.10343,6.562387,5.517087,-9.848821,4.610755E-10,4.610755E-10,15.69395,13.38163
'[19:13:01.940 20/01/2026]',-44.75443,0.988745,-1.588475,-19.23111,4.610755E-10,4.610755E-10,0.2839924,-1.773607
'[19:13:01.948 20/01/2026]',33.03215,-7.565091,-6.348812,19.224,4.610755E-10,4.610755E-10,-16.63072,-10.9406
'[19:13:01.956 20/01/2026]',-10.81555,7.156926,12.64367,12.27362,4.610755E-10,4.610755E-10,18.67926,16.93737
'[19:13:01.964 20/01/2026]',0.1800139,-5.091091,-9.992167,-26.24497,4.610755E-10,4.610755E-10,-6.008673,-9.465581
'[19:13:01.972 20/01/2026]',-2.985925,3.216619,1.045982,13.07153,4.610755E-10,4.610755E-10,-8.761201,-1.522977
'[19:13:01.980 20/01/2026]',27.4428,-0.4662353,3.519148,8.19569,4.610755E-10,4.610755E-10,3.199694,1.420535
'[19:13:01.988 20/01/2026]',-41.7378,-1.708515,-3.389856,-22.2701,4.610755E-10,4.610755E-10,9.431359,-0.6110307
'[19:13:01.996 20/01/2026]',34.23218,4.911438,3.505986,16.38202,4.610755E-10,4.610755E-10,-4.791586,5.638757
'[19:13:02.004 20/01/2026]',-23.80965,-3.41424,-2.772292,4.607895,4.610755E-10,4.610755E-10,-5.38732,-4.659246
'[19:13:02.012 20/01/2026]',11.96395,-2.95862,-0.3088649,-13.64109,4.610755E-10,4.610755E-10,9.431757,0.7841922
'[19:13:02.020 20/01/2026]',-0.1225904,2.784316,-2.17714,4.630311,4.610755E-10,4.610755E-10,-10.3587,-0.1756316
'[19:13:02.028 20/01/2026]',9.538708,10.13698,13.9224,9.894274,4.610755E-10,4.610755E-10,12.93357,4.038702
'[19:13:02.036 20/01/2026]',-22.86679,-16.05551,-15.82491,-13.34743,4.610755E-10,4.610755E-10,-8.689344,-6.630859
'[19:13:02.044 20/01/2026]',15.49371,4.183645,1.254218,6.108161,4.610755E-10,4.610755E-10,-1.423204,3.401124
'[19:13:02.052 20/01/2026]',-0.8852588,6.303282,4.821316,-4.831255,4.610755E-10,4.610755E-10,-0.7440518,-3.523284
'[19:13:02.060 20/01/2026]',-8.342783,-5.680758,0.9153816,3.560964,4.610755E-10,4.610755E-10,6.926901,4.481683
'[19:13:02.068 20/01/2026]',13.80758,1.474854,-3.518403,4.542409,4.610755E-10,4.610755E-10,-3.982557,-2.36565
'[19:13:02.076 20/01/2026]',-4.158171,1.396784,0.6042159,-19.48907,4.610755E-10,4.610755E-10,-3.360904,-2.273239
'[19:13:02.084 20/01/2026]',-34.7397,-5.273405,-2.339823,22.98923,4.610755E-10,4.610755E-10,0.9112145,4.628592
'[19:13:02.092 20/01/2026]',69.7767,-1.341565,0.6171017,1.255351,4.610755E-10,4.610755E-10,2.010213,-4.52368
'[19:13:02.100 20/01/2026]',-66.42211,7.290612,3.462388,-29.94813,4.610755E-10,4.610755E-10,-0.4664438,1.035808
'[19:13:02.108 20/01/2026]',26.54403,-6.280017,-7.671138,19.96851,4.610755E-10,4.610755E-10,-3.850742,0.03215197
'[19:13:02.116 20/01/2026]',11.94396,5.62319,10.01357,6.0242,4.610755E-10,4.610755E-10,8.632038,2.230454
'[19:13:02.124 20/01/2026]',-23.12903,0.7434441,-0.02198095,-4.907018,4.610755E-10,4.610755E-10,-2.426582,2.055216
'[19:13:02.132 20/01/2026]',2.55435,-16.75876,-10.90675,-13.53047,4.610755E-10,4.610755E-10,-8.199669,-9.138547
'[19:13:02.140 20/01/2026]',16.29646,20.61624,7.965169,17.49595,4.610755E-10,4.610755E-10,4.995292,5.763333
'[19:13:02.148 20/01/2026]',-0.4534324,0.9605473,4.568814,1.775771,4.610755E-10,4.610755E-10,10.74858,10.36058
'[19:13:02.156 20/01/2026]',-17.68777,-12.42954,-8.706023,-17.58029,4.610755E-10,4.610755E-10,-16.83685,-17.36976
'[19:13:02.164 20/01/2026]',5.396883,5.761662,5.085539,14.30739,4.610755E-10,4.610755E-10,8.95656,9.698291
'[19:13:02.172 20/01/2026]',0.2085558,-0.5991722,-4.60278,-5.07422,4.610755E-10,4.610755E-10,-1.637735,-3.273568
'[19:13:02.180 20/01/2026]',18.41685,-3.543967,1.721416,0.05893745,4.610755E-10,4.610755E-10,0.6196785,3.384274
'[19:13:02.188 20/01/2026]',-57.82528,-22.53731,-9.51539,-6.722021,4.610755E-10,4.610755E-10,-3.165573,-5.577369
'[19:13:02.196 20/01/2026]',71.92304,52.45925,22.95757,16.81701,4.610755E-10,4.610755E-10,6.872185,6.31959
'[19:13:02.204 20/01/2026]',0.01272326,-4.261733,-1.86461,2.278916,4.610755E-10,4.610755E-10,-2.547224,-0.7452381
'[19:13:02.212 20/01/2026]',-49.50632,-43.41708,-23.01812,-25.79163,4.610755E-10,4.610755E-10,-6.292126,-6.099824
'[19:13:02.220 20/01/2026]',23.80437,24.89381,18.47749,25.92022,4.610755E-10,4.610755E-10,10.23338,10.94774
'[19:13:02.228 20/01/2026]',-2.464967,3.141929,-3.017352,-7.552629,4.610755E-10,4.610755E-10,-5.53961,-10.25659
'[19:13:02.236 20/01/2026]',10.75875,-12.80711,-5.894727,-8.369304,4.610755E-10,4.610755E-10,-4.869791,0.7827041
'[19:13:02.244 20/01/2026]',-29.85274,-4.119938,-2.059453,0.5379279,4.610755E-10,4.610755E-10,2.405802,4.341186
'[19:13:02.252 20/01/2026]',29.42296,4.165556,4.373025,22.29359,4.610755E-10,4.610755E-10,10.03174,3.002198
'[19:13:02.260 20/01/2026]',-6.653371,18.41781,4.645373,-21.41081,4.610755E-10,4.610755E-10,-8.036543,-4.085452
'[19:13:02.268 20/01/2026]',5.07677,7.268486,3.80424,-1.675727,4.610755E-10,4.610755E-10,-3.518838,-6.105966
'[19:13:02.276 20/01/2026]',-1.294162,-31.94472,-12.25158,10.15307,4.610755E-10,4.610755E-10,3.182114,5.40059
'[19:13:02.284 20/01/2026]',-20.11459,9.807539,3.703496,-3.29962,4.610755E-10,4.610755E-10,4.939847,4.501545
'[19:13:02.292 20/01/2026]',-20.11459,9.807539,3.703496,-3.29962,4.610755E-10,4.610755E-10,4.939847,4.501545
'[19:13:02.300 20/01/2026]',10.20222,11.32223,4.369227,-1.829475,4.610755E-10,4.610755E-10,-4.674657,-5.609391
'[19:13:02.308 20/01/2026]',10.20222,11.32223,4.369227,-1.829475,4.610755E-10,4.610755E-10,-4.674657,-5.609391
'[19:13:02.316 20/01/2026]',10.20222,11.32223,4.369227,-1.829475,4.610755E-10,4.610755E-10,-4.674657,-5.609391
'[19:13:02.324 20/01/2026]',5.960316,-12.58672,-7.301767,-2.560486,4.610755E-10,4.610755E-10,-1.138711,-2.226134
'[19:13:02.332 20/01/2026]',5.960316,-12.58672,-7.301767,-2.560486,4.610755E-10,4.610755E-10,-1.138711,-2.226134
'[19:13:02.340 20/01/2026]',5.960316,-12.58672,-7.301767,-2.560486,4.610755E-10,4.610755E-10,-1.138711,-2.226134
'[19:13:02.348 20/01/2026]',5.960316,-12.58672,-7.301767,-2.560486,4.610755E-10,4.610755E-10,-1.138711,-2.226134
'[19:13:02.356 20/01/2026]',5.960316,-12.58672,-7.301767,-2.560486,4.610755E-10,4.610755E-10,-1.138711,-2.226134
'[19:13:02.364 20/01/2026]',5.960316,-12.58672,-7.301767,-2.560486,4.610755E-10,4.610755E-10,-1.138711,-2.226134
'[19:13:02.372 20/01/2026]',11.08862,4.991734,9.497372,14.48658,4.610755E-10,4.610755E-10,7.690708,10.5206
'[19:13:02.380 20/01/2026]',11.08862,4.991734,9.497372,14.48658,4.610755E-10,4.610755E-10,7.690708,10.5206
'[19:13:02.388 20/01/2026]',11.08862,4.991734,9.497372,14.48658,4.610755E-10,4.610755E-10,7.690708,10.5206
'[19:13:02.396 20/01/2026]',11.08862,4.991734,9.497372,14.48658,4.610755E-10,4.610755E-10,7.690708,10.5206
'[19:13:02.404 20/01/2026]',-17.68012,3.943504,-2.102241,-10.19365,4.610755E-10,4.610755E-10,-5.39606,-6.565429
'[19:13:02.412 20/01/2026]',-5.130607,-10.72717,-11.89273,-5.999679,4.610755E-10,4.610755E-10,-4.572065,-3.032521
'[19:13:02.420 20/01/2026]',9.970311,7.694926,9.104441,8.766117,4.610755E-10,4.610755E-10,6.137076,3.24929
'[19:13:02.428 20/01/2026]',6.467307,-0.5810283,2.809647,0.09947708,4.610755E-10,4.610755E-10,-0.492515,-0.1629785
'[19:13:02.436 20/01/2026]',6.467307,-0.5810283,2.809647,0.09947708,4.610755E-10,4.610755E-10,-0.492515,-0.1629785
'[19:13:02.444 20/01/2026]',-10.94054,-2.254496,-2.729235,-1.344403,4.610755E-10,4.610755E-10,1.985914,2.461824
'[19:13:02.452 20/01/2026]',-4.971481,1.713212,-2.604165,-6.308977,4.610755E-10,4.610755E-10,-5.925239,-4.728484
'[19:13:02.460 20/01/2026]',-4.971481,1.713212,-2.604165,-6.308977,4.610755E-10,4.610755E-10,-5.925239,-4.728484
'[19:13:02.468 20/01/2026]',19.57044,2.926698,8.386136,13.66744,4.610755E-10,4.610755E-10,11.26199,8.29931
'[19:13:02.476 20/01/2026]',-18.81502,-6.135041,-9.071512,-12.97273,4.610755E-10,4.610755E-10,-11.98008,-10.78667
'[19:13:02.484 20/01/2026]',-18.81502,-6.135041,-9.071512,-12.97273,4.610755E-10,4.610755E-10,-11.98008,-10.78667
'[19:13:02.492 20/01/2026]',6.445311,3.422582,5.167547,4.349699,4.610755E-10,4.610755E-10,2.651889,5.413487
'[19:13:02.500 20/01/2026]',6.445311,3.422582,5.167547,4.349699,4.610755E-10,4.610755E-10,2.651889,5.413487
'[19:13:02.508 20/01/2026]',3.549971,-0.2989144,0.691965,3.933832,4.610755E-10,4.610755E-10,5.999415,3.899231
'[19:13:02.516 20/01/2026]',3.549971,-0.2989144,0.691965,3.933832,4.610755E-10,4.610755E-10,5.999415,3.899231
'[19:13:02.524 20/01/2026]',3.549971,-0.2989144,0.691965,3.933832,4.610755E-10,4.610755E-10,5.999415,3.899231
'[19:13:02.532 20/01/2026]',3.549971,-0.2989144,0.691965,3.933832,4.610755E-10,4.610755E-10,5.999415,3.899231
'[19:13:02.540 20/01/2026]',2.998088,1.598785,-3.861776,-2.048854,4.610755E-10,4.610755E-10,-5.363378,-6.432617
'[19:13:02.548 20/01/2026]',-8.39945,3.885245,6.620494,-4.912152,4.610755E-10,4.610755E-10,2.578008,3.822536
'[19:13:02.556 20/01/2026]',-5.012568,-2.673152,-2.929443,13.95355,4.610755E-10,4.610755E-10,-0.8954914,-0.9893671
'[19:13:02.564 20/01/2026]',33.65583,-2.36779,0.2911579,-3.623035,4.610755E-10,4.610755E-10,6.363924,8.47711
'[19:13:02.572 20/01/2026]',-65.98056,2.109057,-1.986663,-24.87948,4.610755E-10,4.610755E-10,-8.669155,-15.42087
'[19:13:02.580 20/01/2026]',62.58295,-0.297507,0.02750666,25.39867,4.610755E-10,4.610755E-10,2.173492,6.80832
'[19:13:02.588 20/01/2026]',-33.27211,-2.140049,1.206298,-4.79669,4.610755E-10,4.610755E-10,4.066288,3.398834
'[19:13:02.596 20/01/2026]',7.043742,4.998354,1.996683,-5.950033,4.610755E-10,4.610755E-10,-4.432606,-5.22587
'[19:13:02.604 20/01/2026]',-4.737305,-3.639385,-2.96277,4.864082,4.610755E-10,4.610755E-10,4.426148,5.571911
'[19:13:02.612 20/01/2026]',33.13139,4.542387,7.338151,11.47576,4.610755E-10,4.610755E-10,4.756336,4.334037
'[19:13:02.620 20/01/2026]',-35.14139,-0.2522572,-5.154688,-10.56986,4.610755E-10,4.610755E-10,-8.99675,-7.735582
'[19:13:02.628 20/01/2026]',4.646872,-9.044989,-6.225236,-12.54311,4.610755E-10,4.610755E-10,-1.202609,-4.784159
'[19:13:02.636 20/01/2026]',-0.4880256,0.6279298,3.414737,15.3156,4.610755E-10,4.610755E-10,4.725169,7.52073
'[19:13:02.644 20/01/2026]',10.67915,13.02599,8.878437,5.28726,4.610755E-10,4.610755E-10,2.618588,6.253656
'[19:13:02.652 20/01/2026]',11.12928,-5.738886,-4.282026,-3.352845,4.610755E-10,4.610755E-10,-1.833344,-7.240511
'[19:13:02.660 20/01/2026]',-29.09907,-9.393047,-9.584823,-12.713,4.610755E-10,4.610755E-10,-2.556375,-1.518936
'[19:13:02.668 20/01/2026]',19.83297,2.604298,2.890134,7.157997,4.610755E-10,4.610755E-10,-3.303141,-1.160369
'[19:13:02.676 20/01/2026]',-11.35108,12.77866,11.79187,9.90352,4.610755E-10,4.610755E-10,5.291312,6.798355
'[19:13:02.684 20/01/2026]',21.16315,-3.783347,-3.451917,-7.773731,4.610755E-10,4.610755E-10,8.386856,-0.5814727
'[19:13:02.692 20/01/2026]',-28.36661,-11.29134,-7.320222,-1.856792,4.610755E-10,4.610755E-10,-6.755671,1.669296
'[19:13:02.700 20/01/2026]',21.65986,0.5764644,1.626002,2.528816,4.610755E-10,4.610755E-10,-13.7287,-13.69631
'[19:13:02.708 20/01/2026]',14.84433,17.58249,8.742599,12.34497,4.610755E-10,4.610755E-10,19.57651,16.10487
'[19:13:02.716 20/01/2026]',-55.43082,-16.04413,-11.77118,-23.47393,4.610755E-10,4.610755E-10,-4.469482,-0.4253343
'[19:13:02.724 20/01/2026]',67.15576,0.5472488,5.519467,33.05328,4.610755E-10,4.610755E-10,-3.194147,-4.998353
'[19:13:02.732 20/01/2026]',-32.91356,4.377053,-1.724835,-30.98426,4.610755E-10,4.610755E-10,-5.860171,-4.653616
'[19:13:02.740 20/01/2026]',-27.92307,-1.643626,-1.924421,-2.441642,4.610755E-10,4.610755E-10,6.60145,0.4537477
'[19:13:02.748 20/01/2026]',55.34454,2.336756,5.202203,24.20156,4.610755E-10,4.610755E-10,6.853729,10.29277
'[19:13:02.756 20/01/2026]',-51.68531,-7.253994,-7.335603,-12.69553,4.610755E-10,4.610755E-10,-13.54992,-9.16933
'[19:13:02.764 20/01/2026]',15.60344,1.578869,-2.855374,-9.165256,4.610755E-10,4.610755E-10,7.692886,1.679625
'[19:13:02.772 20/01/2026]',18.53859,14.5952,17.09019,16.72551,4.610755E-10,4.610755E-10,2.078354,3.982759
'[19:13:02.780 20/01/2026]',7.59958,-13.89988,-10.11812,1.877578,4.610755E-10,4.610755E-10,-5.690405,-3.370936
'[19:13:02.788 20/01/2026]',-41.77577,6.008084,-0.2704904,-12.61203,4.610755E-10,4.610755E-10,6.797504,3.739151
'[19:13:02.796 20/01/2026]',31.68306,-11.54317,-5.602335,-3.604809,4.610755E-10,4.610755E-10,-11.06814,-10.46618
'[19:13:02.804 20/01/2026]',-29.41408,9.05092,6.133388,11.87514,4.610755E-10,4.610755E-10,5.631588,7.655839
'[19:13:02.812 20/01/2026]',51.33861,6.075246,5.147232,-0.02117387,4.610755E-10,4.610755E-10,6.032391,2.773423
'[19:13:02.820 20/01/2026]',-34.16067,-9.431949,-4.904715,0.2316494,4.610755E-10,4.610755E-10,-3.687413,-0.6655599
'[19:13:02.828 20/01/2026]',-11.22595,-1.983612,-5.572014,-11.19153,4.610755E-10,4.610755E-10,-7.773797,-7.594489
'[19:13:02.836 20/01/2026]',21.96391,8.549292,11.12858,9.786098,4.610755E-10,4.610755E-10,12.71359,9.333433
'[19:13:02.844 20/01/2026]',2.015947,-1.270178,-3.640245,6.275864,4.610755E-10,4.610755E-10,-0.1554493,2.81307
'[19:13:02.852 20/01/2026]',-16.69689,-6.29284,-2.541616,-11.02421,4.610755E-10,4.610755E-10,-9.3206,-11.18559
'[19:13:02.860 20/01/2026]',0.8236893,-8.119447,-5.753814,-3.22721,4.610755E-10,4.610755E-10,4.024877,6.306996
'[19:13:02.868 20/01/2026]',0.8236893,-8.119447,-5.753814,-3.22721,4.610755E-10,4.610755E-10,4.024877,6.306996
'[19:13:02.876 20/01/2026]',-3.799796,4.757249,4.916404,11.93342,4.610755E-10,4.610755E-10,2.660947,4.372132
'[19:13:02.884 20/01/2026]',65.28657,40.98575,21.14077,13.00306,4.610755E-10,4.610755E-10,2.778011,-1.82295
'[19:13:02.892 20/01/2026]',-56.53299,-32.15678,-16.87399,-26.23213,4.610755E-10,4.610755E-10,-2.006803,-2.868353
'[19:13:02.900 20/01/2026]',-56.53299,-32.15678,-16.87399,-26.23213,4.610755E-10,4.610755E-10,-2.006803,-2.868353
'[19:13:02.908 20/01/2026]',-56.53299,-32.15678,-16.87399,-26.23213,4.610755E-10,4.610755E-10,-2.006803,-2.868353
'[19:13:02.916 20/01/2026]',-13.44665,-16.30301,-10.55462,19.99972,4.610755E-10,4.610755E-10,-5.290642,0.8451138
'[19:13:02.924 20/01/2026]',-13.44665,-16.30301,-10.55462,19.99972,4.610755E-10,4.610755E-10,-5.290642,0.8451138
'[19:13:02.932 20/01/2026]',-13.44665,-16.30301,-10.55462,19.99972,4.610755E-10,4.610755E-10,-5.290642,0.8451138
'[19:13:02.940 20/01/2026]',45.84311,22.63705,16.33659,-8.869817,4.610755E-10,4.610755E-10,5.853575,5.696789
'[19:13:02.948 20/01/2026]',-50.67441,-5.066176,-6.481932,-17.98275,4.610755E-10,4.610755E-10,-5.279564,-12.00899
'[19:13:02.956 20/01/2026]',-50.67441,-5.066176,-6.481932,-17.98275,4.610755E-10,4.610755E-10,-5.279564,-12.00899
'[19:13:02.964 20/01/2026]',34.31814,-1.381824,0.4850697,29.54473,4.610755E-10,4.610755E-10,6.914156,11.54093
'[19:13:02.972 20/01/2026]',34.31814,-1.381824,0.4850697,29.54473,4.610755E-10,4.610755E-10,6.914156,11.54093
'[19:13:02.980 20/01/2026]',34.31814,-1.381824,0.4850697,29.54473,4.610755E-10,4.610755E-10,6.914156,11.54093
'[19:13:02.988 20/01/2026]',34.31814,-1.381824,0.4850697,29.54473,4.610755E-10,4.610755E-10,6.914156,11.54093
'[19:13:02.996 20/01/2026]',-7.004248,-0.3752617,2.263451,-14.12488,4.610755E-10,4.610755E-10,-2.24283,-2.285486
'[19:13:03.004 20/01/2026]',-10.85863,-2.666754,-3.867755,0.05185555,4.610755E-10,4.610755E-10,-5.124676,-4.845406
'[19:13:03.012 20/01/2026]',-10.85863,-2.666754,-3.867755,0.05185555,4.610755E-10,4.610755E-10,-5.124676,-4.845406
'[19:13:03.020 20/01/2026]',-10.85863,-2.666754,-3.867755,0.05185555,4.610755E-10,4.610755E-10,-5.124676,-4.845406
'[19:13:03.028 20/01/2026]',13.76921,6.107015,2.070502,-1.455891,4.610755E-10,4.610755E-10,6.813116,4.647055
'[19:13:03.036 20/01/2026]',13.76921,6.107015,2.070502,-1.455891,4.610755E-10,4.610755E-10,6.813116,4.647055
'[19:13:03.044 20/01/2026]',13.76921,6.107015,2.070502,-1.455891,4.610755E-10,4.610755E-10,6.813116,4.647055
'[19:13:03.052 20/01/2026]',6.68065,-3.689405,-0.5169227,9.030417,4.610755E-10,4.610755E-10,0.03789935,2.869241
'[19:13:03.060 20/01/2026]',-11.26518,-1.496233,2.189162,-2.661465,4.610755E-10,4.610755E-10,-4.848772,-4.775097
'[19:13:03.068 20/01/2026]',2.399359,3.6946,-1.442948,-8.702954,4.610755E-10,4.610755E-10,3.169256,0.09435681
'[19:13:03.076 20/01/2026]',2.399359,3.6946,-1.442948,-8.702954,4.610755E-10,4.610755E-10,3.169256,0.09435681
'[19:13:03.084 20/01/2026]',0.8098735,-2.425204,1.632521,14.93555,4.610755E-10,4.610755E-10,2.886824,6.358354
'[19:13:03.092 20/01/2026]',0.8098735,-2.425204,1.632521,14.93555,4.610755E-10,4.610755E-10,2.886824,6.358354
'[19:13:03.100 20/01/2026]',-1.323187,-13.53946,-1.264043,-9.913958,4.610755E-10,4.610755E-10,1.231145,-2.522144
'[19:13:03.108 20/01/2026]',-1.323187,-13.53946,-1.264043,-9.913958,4.610755E-10,4.610755E-10,1.231145,-2.522144
'[19:13:03.116 20/01/2026]',-1.323187,-13.53946,-1.264043,-9.913958,4.610755E-10,4.610755E-10,1.231145,-2.522144
'[19:13:03.124 20/01/2026]',-18.1775,-12.20635,-11.37327,-9.117097,4.610755E-10,4.610755E-10,-13.97935,-13.01148
'[19:13:03.132 20/01/2026]',58.52421,73.25552,32.11787,27.7278,4.610755E-10,4.610755E-10,14.99912,18.40925
'[19:13:03.140 20/01/2026]',-27.55426,-36.16162,-17.06761,-13.28453,4.610755E-10,4.610755E-10,-0.9415756,-3.452974
'[19:13:03.148 20/01/2026]',-33.78563,-35.63595,-14.11421,-10.53292,4.610755E-10,4.610755E-10,-11.59846,-11.61562
'[19:13:03.156 20/01/2026]',21.30915,25.84145,11.43443,2.501753,4.610755E-10,4.610755E-10,8.090719,8.091265
'[19:13:03.164 20/01/2026]',15.27144,12.21897,7.211228,12.47704,4.610755E-10,4.610755E-10,3.867376,3.463566
'[19:13:03.172 20/01/2026]',-18.91381,-16.24585,-8.999782,0.9854601,4.610755E-10,4.610755E-10,-5.67514,-2.980221
'[19:13:03.180 20/01/2026]',2.901741,-5.864725,-6.298211,-14.9264,4.610755E-10,4.610755E-10,-4.441233,-9.402247
'[19:13:03.188 20/01/2026]',-7.626643,14.22321,13.66787,-6.561205,4.610755E-10,4.610755E-10,8.345993,11.00266
'[19:13:03.196 20/01/2026]',2.168455,-11.09547,-14.73291,27.99957,4.610755E-10,4.610755E-10,-6.172781,-4.343386
'[19:13:03.204 20/01/2026]',37.79446,15.93337,12.46428,-15.23556,4.610755E-10,4.610755E-10,7.145314,3.094205
'[19:13:03.212 20/01/2026]',-79.07111,-15.63509,-4.119053,-18.13416,4.610755E-10,4.610755E-10,-10.5948,-9.952122
'[19:13:03.220 20/01/2026]',61.67318,-7.858644,-10.26285,12.24261,4.610755E-10,4.610755E-10,-1.6841,-1.303532
'[19:13:03.228 20/01/2026]',-18.99608,18.14668,15.93535,10.70704,4.610755E-10,4.610755E-10,13.45979,14.62409
'[19:13:03.236 20/01/2026]',-4.490109,-1.379385,-2.624291,-4.93454,4.610755E-10,4.610755E-10,-2.953152,-2.874452
'[19:13:03.244 20/01/2026]',5.215108,-7.919031,-5.074643,-6.581267,4.610755E-10,4.610755E-10,-5.681509,-8.117186
'[19:13:03.252 20/01/2026]',-1.644091,-0.8274231,-0.4175354,12.47437,4.610755E-10,4.610755E-10,0.8049974,4.545637
'[19:13:03.260 20/01/2026]',5.658231,5.379492,2.970081,-7.396424,4.610755E-10,4.610755E-10,2.887328,1.029762
'[19:13:03.268 20/01/2026]',-16.53944,-5.535719,-4.833226,-13.41875,4.610755E-10,4.610755E-10,-7.435019,-9.30758
'[19:13:03.276 20/01/2026]',16.01545,3.881747,3.297688,12.25718,4.610755E-10,4.610755E-10,6.90597,9.55309
'[19:13:03.284 20/01/2026]',-1.235419,-0.3532661,1.19265,6.511722,4.610755E-10,4.610755E-10,-0.413524,-3.530062
'[19:13:03.292 20/01/2026]',-1.951119,-5.253969,-4.600563,-10.02606,4.610755E-10,4.610755E-10,-4.619017,0.1058706
'[19:13:03.300 20/01/2026]',4.465198,9.154235,6.689639,1.255472,4.610755E-10,4.610755E-10,7.232134,3.5705
'[19:13:03.308 20/01/2026]',-13.75138,-2.440701,-2.72526,3.421216,4.610755E-10,4.610755E-10,-2.479838,-3.217139
'[19:13:03.316 20/01/2026]',16.99492,-3.748421,-2.141398,1.742842,4.610755E-10,4.610755E-10,-2.664673,0.725988
'[19:13:03.324 20/01/2026]',-10.93052,0.7751921,0.8351986,-5.702424,4.610755E-10,4.610755E-10,-0.8648711,-2.91891
'[19:13:03.332 20/01/2026]',2.429145,4.940486,2.864446,-3.702361,4.610755E-10,4.610755E-10,5.134777,3.332724
'[19:13:03.340 20/01/2026]',-3.391864,-8.952052,-7.28038,4.102876,4.610755E-10,4.610755E-10,-7.772723,-6.305431
'[19:13:03.348 20/01/2026]',-3.687976,4.505059,2.729526,8.505913,4.610755E-10,4.610755E-10,5.862479,6.300781
'[19:13:03.356 20/01/2026]',23.66804,3.895874,4.921626,-17.25724,4.610755E-10,4.610755E-10,-0.04234228,-2.600553
'[19:13:03.364 20/01/2026]',-40.35351,-6.036594,-5.765159,15.33718,4.610755E-10,4.610755E-10,-3.119315,1.465275
'[19:13:03.372 20/01/2026]',53.65271,-0.2701578,-3.08646,6.226534,4.610755E-10,4.610755E-10,-0.3603162,-0.691927
'[19:13:03.380 20/01/2026]',-42.32744,7.835191,9.167607,-22.4156,4.610755E-10,4.610755E-10,6.179313,1.241707
'[19:13:03.388 20/01/2026]',-0.3079262,-8.365362,-5.907934,9.527107,4.610755E-10,4.610755E-10,-8.079916,-4.36339
'[19:13:03.396 20/01/2026]',31.96652,-2.594798,-2.14047,-1.574783,4.610755E-10,4.610755E-10,3.823711,0.289841
'[19:13:03.404 20/01/2026]',-38.13315,-5.604442,2.140432,2.055539,4.610755E-10,4.610755E-10,-2.745044,0.1064793
'[19:13:03.412 20/01/2026]',2.45707,20.4109,-0.2800004,-8.819513,4.610755E-10,4.610755E-10,-1.457848,-0.5093799
'[19:13:03.420 20/01/2026]',33.63301,-9.200442,0.2516912,10.09884,4.610755E-10,4.610755E-10,2.723803,0.02755506
'[19:13:03.428 20/01/2026]',-18.01842,-3.605112,-0.5750157,7.78429,4.610755E-10,4.610755E-10,2.820985,6.999527
'[19:13:03.436 20/01/2026]',2.759764,7.624739,4.39064,-9.502475,4.610755E-10,4.610755E-10,2.617353,-2.237185
'[19:13:03.444 20/01/2026]',-6.758431,-7.502668,-8.523007,-9.525344,4.610755E-10,4.610755E-10,-13.06769,-12.51978
'[19:13:03.452 20/01/2026]',-6.758431,-7.502668,-8.523007,-9.525344,4.610755E-10,4.610755E-10,-13.06769,-12.51978
'[19:13:03.460 20/01/2026]',-6.758431,-7.502668,-8.523007,-9.525344,4.610755E-10,4.610755E-10,-13.06769,-12.51978
'[19:13:03.468 20/01/2026]',-19.47198,-2.611291,0.9610857,10.3912,4.610755E-10,4.610755E-10,4.342259,10.73932
'[19:13:03.476 20/01/2026]',35.51815,10.68081,7.919042,2.903917,4.610755E-10,4.610755E-10,9.641506,1.597937
'[19:13:03.484 20/01/2026]',-10.57507,-16.72283,-14.63887,-12.16337,4.610755E-10,4.610755E-10,-14.41033,-11.40658
'[19:13:03.492 20/01/2026]',-10.57507,-16.72283,-14.63887,-12.16337,4.610755E-10,4.610755E-10,-14.41033,-11.40658
'[19:13:03.500 20/01/2026]',-10.57507,-16.72283,-14.63887,-12.16337,4.610755E-10,4.610755E-10,-14.41033,-11.40658
'[19:13:03.508 20/01/2026]',-10.57507,-16.72283,-14.63887,-12.16337,4.610755E-10,4.610755E-10,-14.41033,-11.40658
'[19:13:03.516 20/01/2026]',-33.12191,11.91386,11.78297,8.033392,4.610755E-10,4.610755E-10,7.534806,10.49707
'[19:13:03.524 20/01/2026]',55.83094,3.870228,0.5784413,-0.5928043,4.610755E-10,4.610755E-10,1.821192,-1.346369
'[19:13:03.532 20/01/2026]',55.83094,3.870228,0.5784413,-0.5928043,4.610755E-10,4.610755E-10,1.821192,-1.346369
'[19:13:03.540 20/01/2026]',55.83094,3.870228,0.5784413,-0.5928043,4.610755E-10,4.610755E-10,1.821192,-1.346369
'[19:13:03.548 20/01/2026]',55.83094,3.870228,0.5784413,-0.5928043,4.610755E-10,4.610755E-10,1.821192,-1.346369
'[19:13:03.556 20/01/2026]',-28.81975,-10.8924,-7.240847,-11.03455,4.610755E-10,4.610755E-10,-4.915985,-4.38052
'[19:13:03.564 20/01/2026]',-18.72732,-3.252237,-2.574153,5.964023,4.610755E-10,4.610755E-10,-6.781491,-4.906082
'[19:13:03.572 20/01/2026]',36.66952,9.767357,7.580516,12.60833,4.610755E-10,4.610755E-10,13.96119,12.25854
'[19:13:03.580 20/01/2026]',36.66952,9.767357,7.580516,12.60833,4.610755E-10,4.610755E-10,13.96119,12.25854
'[19:13:03.588 20/01/2026]',36.66952,9.767357,7.580516,12.60833,4.610755E-10,4.610755E-10,13.96119,12.25854
'[19:13:03.596 20/01/2026]',36.66952,9.767357,7.580516,12.60833,4.610755E-10,4.610755E-10,13.96119,12.25854
'[19:13:03.604 20/01/2026]',-17.98882,1.030588,0.3837103,-13.54853,4.610755E-10,4.610755E-10,-2.409968,-4.381118
'[19:13:03.612 20/01/2026]',1.95522,-12.16236,-15.06657,-10.31108,4.610755E-10,4.610755E-10,-13.36774,-12.42241
'[19:13:03.620 20/01/2026]',-6.329463,3.228353,6.233281,7.986416,4.610755E-10,4.610755E-10,1.442562,3.949286
'[19:13:03.628 20/01/2026]',-6.329463,3.228353,6.233281,7.986416,4.610755E-10,4.610755E-10,1.442562,3.949286
'[19:13:03.636 20/01/2026]',-6.329463,3.228353,6.233281,7.986416,4.610755E-10,4.610755E-10,1.442562,3.949286
'[19:13:03.644 20/01/2026]',-6.329463,3.228353,6.233281,7.986416,4.610755E-10,4.610755E-10,1.442562,3.949286
'[19:13:03.652 20/01/2026]',8.915092,10.94398,16.21962,23.75381,4.610755E-10,4.610755E-10,18.28673,19.41711
'[19:13:03.660 20/01/2026]',11.28524,-12.20501,-14.89327,-12.30386,4.610755E-10,4.610755E-10,-11.07864,-11.76414
'[19:13:03.668 20/01/2026]',11.28524,-12.20501,-14.89327,-12.30386,4.610755E-10,4.610755E-10,-11.07864,-11.76414
'[19:13:03.676 20/01/2026]',11.28524,-12.20501,-14.89327,-12.30386,4.610755E-10,4.610755E-10,-11.07864,-11.76414
'[19:13:03.684 20/01/2026]',11.28524,-12.20501,-14.89327,-12.30386,4.610755E-10,4.610755E-10,-11.07864,-11.76414
'[19:13:03.692 20/01/2026]',-31.95849,-5.855574,-3.58394,-34.85171,4.610755E-10,4.610755E-10,-5.313204,-8.064805
'[19:13:03.700 20/01/2026]',3.369282,8.63192,6.086703,26.9635,4.610755E-10,4.610755E-10,6.650134,6.946159
'[19:13:03.708 20/01/2026]',55.8219,22.27683,8.300754,14.95244,4.610755E-10,4.610755E-10,-3.249891,-1.169683
'[19:13:03.716 20/01/2026]',-49.64233,-19.21381,-5.355687,-7.357652,4.610755E-10,4.610755E-10,4.233532,5.523641
'[19:13:03.724 20/01/2026]',-2.563686,-10.23199,-8.736847,-21.82794,4.610755E-10,4.610755E-10,-5.928512,-11.41984
'[19:13:03.732 20/01/2026]',12.5232,7.880878,4.327039,14.6318,4.610755E-10,4.610755E-10,1.438821,4.707424
'[19:13:03.740 20/01/2026]',6.413568,2.989892,4.030303,8.512057,4.610755E-10,4.610755E-10,0.6485413,1.764617
'[19:13:03.748 20/01/2026]',-6.641783,2.913803,1.369471,-13.77972,4.610755E-10,4.610755E-10,5.34642,2.096101
'[19:13:03.756 20/01/2026]',-14.84527,-6.166078,-8.012383,5.466847,4.610755E-10,4.610755E-10,-4.694173,0.6708632
'[19:13:03.764 20/01/2026]',12.05904,0.3692819,2.980781,-2.10937,4.610755E-10,4.610755E-10,-6.47343,-9.221836
'[19:13:03.772 20/01/2026]',18.36255,-0.5794829,4.478817,2.306617,4.610755E-10,4.610755E-10,9.834881,5.891641
'[19:13:03.780 20/01/2026]',-29.58308,0.6098787,-7.790198,-4.851754,4.610755E-10,4.610755E-10,-5.85311,-0.5227317
'[19:13:03.788 20/01/2026]',13.25332,0.3729692,3.958477,2.610188,4.610755E-10,4.610755E-10,0.3724352,-0.01000767
'[19:13:03.796 20/01/2026]',-15.1009,-2.129656,-0.12987,1.03454,4.610755E-10,4.610755E-10,0.2143403,-4.736386
'[19:13:03.804 20/01/2026]',25.43369,-9.041123,0.2540262,-8.209009,4.610755E-10,4.610755E-10,2.534908,3.182733
'[19:13:03.812 20/01/2026]',-13.4422,18.89276,-1.272516,7.366035,4.610755E-10,4.610755E-10,-6.549743,0.4879562
'[19:13:03.820 20/01/2026]',21.14124,-3.740718,5.038343,10.44774,4.610755E-10,4.610755E-10,8.224678,3.120518
'[19:13:03.828 20/01/2026]',-34.23996,-12.02854,-8.531681,-13.43608,4.610755E-10,4.610755E-10,-4.426651,-6.807797
'[19:13:03.836 20/01/2026]',19.84438,5.086696,-1.924137,-14.72062,4.610755E-10,4.610755E-10,-4.727674,-1.159953
'[19:13:03.844 20/01/2026]',-25.67907,1.943508,6.868661,25.48082,4.610755E-10,4.610755E-10,2.604442,2.937419
'[19:13:03.852 20/01/2026]',46.12159,2.04696,4.529722,16.67683,4.610755E-10,4.610755E-10,7.881653,9.51396
'[19:13:03.860 20/01/2026]',-13.29323,-4.781837,-11.3496,-60.02147,4.610755E-10,4.610755E-10,-9.069576,-17.23422
'[19:13:03.868 20/01/2026]',-69.37215,-3.712738,-0.3863191,32.45712,4.610755E-10,4.610755E-10,-5.849047,0.01176161
'[19:13:03.876 20/01/2026]',94.50768,8.645789,5.898316,12.10087,4.610755E-10,4.610755E-10,14.18297,13.84477
'[19:13:03.884 20/01/2026]',-43.26122,-0.6314145,2.354237,-10.41125,4.610755E-10,4.610755E-10,-4.446817,-3.896873
'[19:13:03.892 20/01/2026]',-14.73886,-8.106606,-7.899422,-8.705407,4.610755E-10,4.610755E-10,-10.36752,-8.744834
'[19:13:03.900 20/01/2026]',40.44799,6.059639,4.03726,3.906951,4.610755E-10,4.610755E-10,12.66601,6.397334
'[19:13:03.908 20/01/2026]',-31.60385,1.438969,4.814011,15.02292,4.610755E-10,4.610755E-10,-0.5160278,6.295826
'[19:13:03.916 20/01/2026]',11.66318,-4.354647,-4.808366,-11.77834,4.610755E-10,4.610755E-10,-4.745686,-9.130252
'[19:13:03.924 20/01/2026]',-13.57591,2.732889,-1.150472,-9.043595,4.610755E-10,4.610755E-10,0.1769464,-0.4977255
'[19:13:03.932 20/01/2026]',4.903665,-0.01158281,2.198708,11.17222,4.610755E-10,4.610755E-10,0.4924154,4.919522
'[19:13:03.940 20/01/2026]',0.1859676,-15.60103,-12.21185,1.218367,4.610755E-10,4.610755E-10,-0.4724654,-0.4959857
'[19:13:03.948 20/01/2026]',3.199327,19.55536,12.00735,-9.967359,4.610755E-10,4.610755E-10,-1.680435,-5.149979
'[19:13:03.956 20/01/2026]',13.41318,15.00853,10.78175,10.22216,4.610755E-10,4.610755E-10,2.951426,1.749625
'[19:13:03.964 20/01/2026]',67.15218,-28.71801,-17.09616,-0.399796,4.610755E-10,4.610755E-10,-4.460834,0.8118415
'[19:13:03.972 20/01/2026]',-61.71066,6.319211,4.840178,-5.1347,4.610755E-10,4.610755E-10,5.121163,-0.1988596
'[19:13:03.980 20/01/2026]',-39.02996,6.995822,4.73824,-0.6975703,4.610755E-10,4.610755E-10,0.6116148,3.026481
'[19:13:03.988 20/01/2026]',57.75284,-4.634762,-8.156814,-1.880014,4.610755E-10,4.610755E-10,-7.094673,-5.677968
'[19:13:03.996 20/01/2026]',1.962897,0.5495149,5.09796,12.37899,4.610755E-10,4.610755E-10,7.113692,2.456176
'[19:13:04.004 20/01/2026]',-64.51778,1.798889,-0.2763706,-8.26407,4.610755E-10,4.610755E-10,-0.6909484,3.584738
'[19:13:04.012 20/01/2026]',25.12709,-17.25507,-10.62924,-18.32312,4.610755E-10,4.610755E-10,-9.844886,-10.36783
'[19:13:04.020 20/01/2026]',3.245798,18.64502,11.2005,43.49868,4.610755E-10,4.610755E-10,7.057669,8.027516
'[19:13:04.028 20/01/2026]',3.245798,18.64502,11.2005,43.49868,4.610755E-10,4.610755E-10,7.057669,8.027516
'[19:13:04.036 20/01/2026]',38.48677,3.680538,0.9521468,-34.52737,4.610755E-10,4.610755E-10,1.620724,0.5690874
'[19:13:04.044 20/01/2026]',-87.60796,-13.44899,-9.701237,-10.49405,4.610755E-10,4.610755E-10,-8.08424,-11.68324
'[19:13:04.052 20/01/2026]',72.65672,2.483664,6.012414,27.24773,4.610755E-10,4.610755E-10,6.339748,12.93238
'[19:13:04.060 20/01/2026]',72.65672,2.483664,6.012414,27.24773,4.610755E-10,4.610755E-10,6.339748,12.93238
'[19:13:04.068 20/01/2026]',72.65672,2.483664,6.012414,27.24773,4.610755E-10,4.610755E-10,6.339748,12.93238
'[19:13:04.076 20/01/2026]',72.65672,2.483664,6.012414,27.24773,4.610755E-10,4.610755E-10,6.339748,12.93238
'[19:13:04.084 20/01/2026]',-24.77152,6.370879,1.149395,-3.337362,4.610755E-10,4.610755E-10,0.3705806,-5.705345
'[19:13:04.092 20/01/2026]',8.563082,4.881953,4.723343,-4.843547,4.610755E-10,4.610755E-10,3.524306,5.887961
'[19:13:04.100 20/01/2026]',-26.38151,-22.73545,-12.9222,-17.01636,4.610755E-10,4.610755E-10,-8.368889,-8.665333
'[19:13:04.108 20/01/2026]',-26.38151,-22.73545,-12.9222,-17.01636,4.610755E-10,4.610755E-10,-8.368889,-8.665333
'[19:13:04.116 20/01/2026]',-26.38151,-22.73545,-12.9222,-17.01636,4.610755E-10,4.610755E-10,-8.368889,-8.665333
'[19:13:04.124 20/01/2026]',-26.38151,-22.73545,-12.9222,-17.01636,4.610755E-10,4.610755E-10,-8.368889,-8.665333
'[19:13:04.132 20/01/2026]',40.49188,22.54045,11.61194,31.75074,4.610755E-10,4.610755E-10,6.69929,6.094901
'[19:13:04.140 20/01/2026]',-22.54362,-7.950893,-9.411895,-21.00331,4.610755E-10,4.610755E-10,-11.96344,-8.890601
'[19:13:04.148 20/01/2026]',-22.54362,-7.950893,-9.411895,-21.00331,4.610755E-10,4.610755E-10,-11.96344,-8.890601
'[19:13:04.156 20/01/2026]',-22.54362,-7.950893,-9.411895,-21.00331,4.610755E-10,4.610755E-10,-11.96344,-8.890601
'[19:13:04.164 20/01/2026]',-22.54362,-7.950893,-9.411895,-21.00331,4.610755E-10,4.610755E-10,-11.96344,-8.890601
'[19:13:04.172 20/01/2026]',-22.54362,-7.950893,-9.411895,-21.00331,4.610755E-10,4.610755E-10,-11.96344,-8.890601
'[19:13:04.180 20/01/2026]',-10.20162,-4.601704,0.7492774,-7.984435,4.610755E-10,4.610755E-10,9.654701,4.07736
'[19:13:04.188 20/01/2026]',12.78738,3.266903,2.779526,16.0732,4.610755E-10,4.610755E-10,-1.581142,5.722314
'[19:13:04.196 20/01/2026]',3.51511,3.98337,3.088709,6.241019,4.610755E-10,4.610755E-10,1.529256,-1.746145
'[19:13:04.204 20/01/2026]',3.51511,3.98337,3.088709,6.241019,4.610755E-10,4.610755E-10,1.529256,-1.746145
'[19:13:04.212 20/01/2026]',3.51511,3.98337,3.088709,6.241019,4.610755E-10,4.610755E-10,1.529256,-1.746145
'[19:13:04.220 20/01/2026]',3.51511,3.98337,3.088709,6.241019,4.610755E-10,4.610755E-10,1.529256,-1.746145
'[19:13:04.228 20/01/2026]',-19.09325,-0.5295934,-3.395613,-16.05091,4.610755E-10,4.610755E-10,-1.221649,-4.482724
'[19:13:04.236 20/01/2026]',26.06542,-4.578013,-0.9123513,5.84855,4.610755E-10,4.610755E-10,-1.977233,4.325547
'[19:13:04.244 20/01/2026]',-5.001194,-0.1787999,-1.405849,3.37436,4.610755E-10,4.610755E-10,0.4973928,-0.9680535
'[19:13:04.252 20/01/2026]',-5.001194,-0.1787999,-1.405849,3.37436,4.610755E-10,4.610755E-10,0.4973928,-0.9680535
'[19:13:04.260 20/01/2026]',-5.001194,-0.1787999,-1.405849,3.37436,4.610755E-10,4.610755E-10,0.4973928,-0.9680535
'[19:13:04.268 20/01/2026]',-5.001194,-0.1787999,-1.405849,3.37436,4.610755E-10,4.610755E-10,0.4973928,-0.9680535
'[19:13:04.276 20/01/2026]',-13.48981,-1.478352,-3.301671,-12.93441,4.610755E-10,4.610755E-10,-7.209056,-10.15828
'[19:13:04.284 20/01/2026]',7.681819,10.28127,11.7422,8.592463,4.610755E-10,4.610755E-10,11.89754,11.78683
'[19:13:04.292 20/01/2026]',21.45114,-5.959826,-7.89762,1.913743,4.610755E-10,4.610755E-10,-4.753431,-0.9356935
'[19:13:04.300 20/01/2026]',-33.65098,-9.193396,-6.31806,0.7369925,4.610755E-10,4.610755E-10,-4.7718,-6.508878
'[19:13:04.308 20/01/2026]',29.34735,16.43816,13.63832,-1.341971,4.610755E-10,4.610755E-10,11.22965,9.449203
'[19:13:04.316 20/01/2026]',-21.32266,-7.542392,-7.822521,-10.41704,4.610755E-10,4.610755E-10,-9.900691,-7.455002
'[19:13:04.324 20/01/2026]',15.96175,0.5264098,3.704208,30.7177,4.610755E-10,4.610755E-10,7.828755,7.985553
'[19:13:04.332 20/01/2026]',-4.076539,-5.243704,-5.935812,-27.51018,4.610755E-10,4.610755E-10,-8.311463,-10.18113
'[19:13:04.340 20/01/2026]',-28.32584,5.965124,5.434021,-6.575285,4.610755E-10,4.610755E-10,3.781347,2.86252
'[19:13:04.348 20/01/2026]',23.40556,-4.877165,-5.86918,14.89377,4.610755E-10,4.610755E-10,-3.373277,-2.223576
'[19:13:04.356 20/01/2026]',10.8775,7.565127,7.655905,3.658828,4.610755E-10,4.610755E-10,8.427299,9.773847
'[19:13:04.364 20/01/2026]',-30.3095,-9.642998,-9.835535,-19.38571,4.610755E-10,4.610755E-10,-12.52659,-13.94112
'[19:13:04.372 20/01/2026]',-8.71025,-6.355628,-7.767187,-7.833663,4.610755E-10,4.610755E-10,-5.693724,-11.49296
'[19:13:04.380 20/01/2026]',39.09798,14.80166,16.31494,32.06078,4.610755E-10,4.610755E-10,17.25758,27.00982
'[19:13:04.388 20/01/2026]',-15.41142,-3.762225,-3.993903,-7.41001,4.610755E-10,4.610755E-10,-4.842022,-7.65162
'[19:13:04.396 20/01/2026]',-7.871912,-5.798389,-4.610996,-18.32929,4.610755E-10,4.610755E-10,-4.614195,-10.68907
'[19:13:04.404 20/01/2026]',17.5518,11.51276,7.651721,20.62638,4.610755E-10,4.610755E-10,8.704715,17.28008
'[19:13:04.412 20/01/2026]',-31.14511,-15.82752,-11.39001,-18.13338,4.610755E-10,4.610755E-10,-13.29166,-18.95409
'[19:13:04.420 20/01/2026]',17.55588,8.100999,6.138211,4.492562,4.610755E-10,4.610755E-10,2.997921,4.349247
'[19:13:04.428 20/01/2026]',0.6107726,5.006264,-2.265876,3.066896,4.610755E-10,4.610755E-10,11.3444,11.28139
'[19:13:04.436 20/01/2026]',1.177936,-3.660208,4.949886,-1.319397,4.610755E-10,4.610755E-10,-11.43717,-10.66104
'[19:13:04.444 20/01/2026]',-12.28839,-1.263044,-2.563448,5.076551,4.610755E-10,4.610755E-10,1.203209,0.960266
'[19:13:04.452 20/01/2026]',18.71258,0.4653957,-0.9618894,-10.15085,4.610755E-10,4.610755E-10,5.659696,2.225326
'[19:13:04.460 20/01/2026]',-8.662395,-3.696031,-3.148511,12.25586,4.610755E-10,4.610755E-10,-8.136928,-0.1824872
'[19:13:04.468 20/01/2026]',-11.45023,6.624981,4.462035,3.298376,4.610755E-10,4.610755E-10,12.69986,7.570511
'[19:13:04.476 20/01/2026]',26.48345,0.09913091,3.111042,-15.94757,4.610755E-10,4.610755E-10,-7.74389,-10.23405
'[19:13:04.484 20/01/2026]',-44.09243,-13.10192,-11.47018,-11.99394,4.610755E-10,4.610755E-10,-12.17793,-8.919081
'[19:13:04.492 20/01/2026]',59.20201,12.2023,13.71601,49.72968,4.610755E-10,4.610755E-10,22.64371,22.60515
'[19:13:04.500 20/01/2026]',-27.5564,-8.311534,-13.72241,-40.78619,4.610755E-10,4.610755E-10,-17.3781,-14.85088
'[19:13:04.508 20/01/2026]',-45.31553,-1.784971,1.597212,-10.6716,4.610755E-10,4.610755E-10,-1.635913,-9.235009
'[19:13:04.516 20/01/2026]',58.67572,3.488031,6.807322,24.83518,4.610755E-10,4.610755E-10,9.172841,12.544
'[19:13:04.524 20/01/2026]',-32.26776,-8.176581,-8.605333,-9.220167,4.610755E-10,4.610755E-10,-3.135036,1.511316
'[19:13:04.532 20/01/2026]',-15.18611,-16.25374,-13.0069,-15.09933,4.610755E-10,4.610755E-10,-8.020008,-11.8103
'[19:13:04.540 20/01/2026]',41.07239,50.28329,36.2524,19.9158,4.610755E-10,4.610755E-10,8.43459,5.502731
'[19:13:04.548 20/01/2026]',23.12829,-5.563205,-7.027138,16.62778,4.610755E-10,4.610755E-10,5.841972,10.3704
'[19:13:04.556 20/01/2026]',-62.34995,-38.08663,-24.26138,-27.05112,4.610755E-10,4.610755E-10,-10.3254,-8.934657
'[19:13:04.564 20/01/2026]',6.397799,4.696264,0.3714102,-17.89503,4.610755E-10,4.610755E-10,-8.954166,-18.28851
'[19:13:04.572 20/01/2026]',24.42412,21.9388,20.46956,34.90269,4.610755E-10,4.610755E-10,18.00379,27.84633
'[19:13:04.580 20/01/2026]',-10.04002,-9.940926,-6.29107,-5.346447,4.610755E-10,4.610755E-10,-3.766679,-4.565814
'[19:13:04.588 20/01/2026]',2.322902,-10.16288,-10.14079,-13.94584,4.610755E-10,4.610755E-10,-8.939769,-17.91745
'[19:13:04.596 20/01/2026]',-10.97121,17.61053,7.070262,4.489166,4.610755E-10,4.610755E-10,3.610126,11.42461
'[19:13:04.604 20/01/2026]',15.67153,-9.050195,1.156632,6.961956,4.610755E-10,4.610755E-10,3.0858,2.35217
'[19:13:04.612 20/01/2026]',-13.48211,0.09466767,-0.4096259,-4.415111,4.610755E-10,4.610755E-10,-0.5495667,-4.666059
'[19:13:04.620 20/01/2026]',4.785661,1.52608,-3.9806,-6.755538,4.610755E-10,4.610755E-10,-4.256588,-0.3587674
'[19:13:04.628 20/01/2026]',-3.765846,6.236183,2.802245,17.29997,4.610755E-10,4.610755E-10,7.033738,10.49737
'[19:13:04.636 20/01/2026]',9.122785,-9.487525,1.854591,-13.66404,4.610755E-10,4.610755E-10,-8.284539,-15.78738
'[19:13:04.644 20/01/2026]',9.122785,-9.487525,1.854591,-13.66404,4.610755E-10,4.610755E-10,-8.284539,-15.78738
'[19:13:04.652 20/01/2026]',9.122785,-9.487525,1.854591,-13.66404,4.610755E-10,4.610755E-10,-8.284539,-15.78738
'[19:13:04.660 20/01/2026]',9.122785,-9.487525,1.854591,-13.66404,4.610755E-10,4.610755E-10,-8.284539,-15.78738
'[19:13:04.668 20/01/2026]',2.863892,1.991444,-3.622591,-0.8528052,4.610755E-10,4.610755E-10,3.711901,6.208948
'[19:13:04.676 20/01/2026]',-10.10786,2.263552,3.322545,3.126416,4.610755E-10,4.610755E-10,2.985721,3.096092
'[19:13:04.684 20/01/2026]',3.902424,-1.206928,-0.6845653,17.35006,4.610755E-10,4.610755E-10,-3.169029,3.522046
'[19:13:04.692 20/01/2026]',3.902424,-1.206928,-0.6845653,17.35006,4.610755E-10,4.610755E-10,-3.169029,3.522046
'[19:13:04.700 20/01/2026]',3.902424,-1.206928,-0.6845653,17.35006,4.610755E-10,4.610755E-10,-3.169029,3.522046
'[19:13:04.708 20/01/2026]',3.902424,-1.206928,-0.6845653,17.35006,4.610755E-10,4.610755E-10,-3.169029,3.522046
'[19:13:04.716 20/01/2026]',5.982737,-3.717109,-5.633258,-26.11555,4.610755E-10,4.610755E-10,-5.816631,-14.29238
'[19:13:04.724 20/01/2026]',-26.63473,5.110078,6.138594,-2.185588,4.610755E-10,4.610755E-10,7.699848,6.269229
'[19:13:04.732 20/01/2026]',30.93657,2.77369,-2.063495,18.26917,4.610755E-10,4.610755E-10,1.275231,7.759371
'[19:13:04.740 20/01/2026]',30.93657,2.77369,-2.063495,18.26917,4.610755E-10,4.610755E-10,1.275231,7.759371
'[19:13:04.748 20/01/2026]',30.93657,2.77369,-2.063495,18.26917,4.610755E-10,4.610755E-10,1.275231,7.759371
'[19:13:04.756 20/01/2026]',30.93657,2.77369,-2.063495,18.26917,4.610755E-10,4.610755E-10,1.275231,7.759371
'[19:13:04.764 20/01/2026]',30.93657,2.77369,-2.063495,18.26917,4.610755E-10,4.610755E-10,1.275231,7.759371
'[19:13:04.772 20/01/2026]',30.93657,2.77369,-2.063495,18.26917,4.610755E-10,4.610755E-10,1.275231,7.759371
'[19:13:04.780 20/01/2026]',30.93657,2.77369,-2.063495,18.26917,4.610755E-10,4.610755E-10,1.275231,7.759371
'[19:13:04.788 20/01/2026]',30.93657,2.77369,-2.063495,18.26917,4.610755E-10,4.610755E-10,1.275231,7.759371
'[19:13:04.796 20/01/2026]',30.93657,2.77369,-2.063495,18.26917,4.610755E-10,4.610755E-10,1.275231,7.759371
'[19:13:04.804 20/01/2026]',30.93657,2.77369,-2.063495,18.26917,4.610755E-10,4.610755E-10,1.275231,7.759371
'[19:13:04.812 20/01/2026]',-6.629852,-3.691406,2.422723,-0.6250206,4.610755E-10,4.610755E-10,-6.646928,-6.745251
'[19:13:04.820 20/01/2026]',-12.64345,-2.598072,-0.6506007,-12.57262,4.610755E-10,4.610755E-10,3.518524,-0.3160339
'[19:13:04.828 20/01/2026]',3.434965,3.054169,-3.172293,-4.003532,4.610755E-10,4.610755E-10,0.09635109,-3.665223
'[19:13:04.836 20/01/2026]',11.52064,-2.326675,0.3253068,21.24447,4.610755E-10,4.610755E-10,-1.905437,6.831236
'[19:13:04.844 20/01/2026]',-7.639485,3.870332,5.232061,-8.204108,4.610755E-10,4.610755E-10,5.130909,4.337223
'[19:13:04.852 20/01/2026]',-5.294127,-8.727038,-10.80833,-16.60285,4.610755E-10,4.610755E-10,-8.976753,-15.6878
'[19:13:04.860 20/01/2026]',2.028894,6.921699,8.180321,17.37052,4.610755E-10,4.610755E-10,3.704147,10.42566
'[19:13:04.868 20/01/2026]',4.595828,-0.2227277,-0.5544628,-3.559123,4.610755E-10,4.610755E-10,3.651339,0.3697573
'[19:13:04.876 20/01/2026]',-5.799909,-0.3182436,-2.922199,-0.9995887,4.610755E-10,4.610755E-10,-1.135143,-0.4340223
'[19:13:04.884 20/01/2026]',10.01624,-1.666723,2.410815,-0.41602,4.610755E-10,4.610755E-10,-5.248419,-3.712909
'[19:13:04.892 20/01/2026]',0.6957731,1.263519,1.539823,4.212699,4.610755E-10,4.610755E-10,5.834617,4.396712
'[19:13:04.900 20/01/2026]',-13.77383,-4.237234,-6.456284,-8.21778,4.610755E-10,4.610755E-10,-5.695595,-6.998823
'[19:13:04.908 20/01/2026]',7.956027,4.924244,3.879534,-2.649661,4.610755E-10,4.610755E-10,0.4242244,1.814985
'[19:13:04.916 20/01/2026]',3.159382,-2.818639,-0.907452,13.53339,4.610755E-10,4.610755E-10,2.756077,3.757945
'[19:13:04.924 20/01/2026]',-0.9057567,5.813382,4.929151,-3.460005,4.610755E-10,4.610755E-10,4.024434,-0.8689422
'[19:13:04.932 20/01/2026]',-7.70674,-8.113252,-5.788621,-4.2142,4.610755E-10,4.610755E-10,-6.065893,-0.8011454
'[19:13:04.940 20/01/2026]',0.7483594,5.74126,1.794122,-5.492065,4.610755E-10,4.610755E-10,0.8849695,-1.664897
'[19:13:04.948 20/01/2026]',21.446,-1.855579,-1.119191,20.06636,4.610755E-10,4.610755E-10,2.341132,1.87128
'[19:13:04.956 20/01/2026]',-19.02277,-1.373015,2.279569,-13.49087,4.610755E-10,4.610755E-10,-2.923828,2.123037
'[19:13:04.964 20/01/2026]',-37.97997,2.976942,-0.7521582,-13.8999,4.610755E-10,4.610755E-10,0.478426,-7.662632
'[19:13:04.972 20/01/2026]',68.62239,-7.119382,-4.76413,9.114928,4.610755E-10,4.610755E-10,0.3136313,-0.4703216
'[19:13:04.980 20/01/2026]',-43.18926,7.875608,7.556219,19.64779,4.610755E-10,4.610755E-10,-2.772335,9.72675
'[19:13:04.988 20/01/2026]',13.08206,-3.947301,1.259349,-22.59496,4.610755E-10,4.610755E-10,4.369095,-5.995039
'[19:13:04.996 20/01/2026]',-7.911016,2.658861,-5.430231,-6.107491,4.610755E-10,4.610755E-10,-0.6776965,-6.120453
'[19:13:05.004 20/01/2026]',16.4318,-6.353543,-5.353766,23.65337,4.610755E-10,4.610755E-10,-6.310987,10.11591
'[19:13:05.012 20/01/2026]',-21.51967,10.68605,14.16578,-11.25939,4.610755E-10,4.610755E-10,13.26998,2.878426
'[19:13:05.020 20/01/2026]',19.97241,-8.594662,-7.999063,-12.00101,4.610755E-10,4.610755E-10,-12.72448,-15.10138
'[19:13:05.028 20/01/2026]',-20.9239,-1.967359,-4.846734,14.47704,4.610755E-10,4.610755E-10,0.3300629,7.623021
'[19:13:05.036 20/01/2026]',13.20834,5.183119,6.358913,1.236935,4.610755E-10,4.610755E-10,6.09298,1.886187
'[19:13:05.044 20/01/2026]',3.621157,-0.7747921,-0.3821277,-10.24197,4.610755E-10,4.610755E-10,-4.320125,-2.275326
'[19:13:05.052 20/01/2026]',-20.81727,-7.578049,0.1275298,0.9439915,4.610755E-10,4.610755E-10,3.225263,0.4634806
'[19:13:05.060 20/01/2026]',32.20212,9.117445,-0.5297704,13.57709,4.610755E-10,4.610755E-10,-2.915288,-0.4205478
'[19:13:05.068 20/01/2026]',-20.2422,5.473272,1.501132,-10.07368,4.610755E-10,4.610755E-10,2.512353,0.6690849
'[19:13:05.076 20/01/2026]',-5.739068,-10.61713,-3.067121,-11.45628,4.610755E-10,4.610755E-10,-2.421475,-4.531095
'[19:13:05.084 20/01/2026]',10.82458,-2.247333,-2.288772,16.12989,4.610755E-10,4.610755E-10,-0.8021444,6.436539
'[19:13:05.092 20/01/2026]',-3.697554,6.361314,5.255184,3.521747,4.610755E-10,4.610755E-10,5.1874,-1.533677
'[19:13:05.100 20/01/2026]',8.960193,-0.357191,-1.373999,-27.27701,4.610755E-10,4.610755E-10,-4.644238,-3.948043
'[19:13:05.108 20/01/2026]',-23.8669,-0.5877752,1.487586,33.24185,4.610755E-10,4.610755E-10,3.767518,10.86984
'[19:13:05.116 20/01/2026]',43.3281,-0.3347569,-4.0546,-1.883837,4.610755E-10,4.610755E-10,-2.375788,-9.771108
'[19:13:05.124 20/01/2026]',-44.01798,-1.828475,-1.222426,-32.94138,4.610755E-10,4.610755E-10,-5.064453,-3.361414
'[19:13:05.132 20/01/2026]',1.025049,-0.2829013,2.421678,20.59212,4.610755E-10,4.610755E-10,1.286538,1.488814
'[19:13:05.140 20/01/2026]',42.34821,3.273937,2.225784,1.406139,4.610755E-10,4.610755E-10,6.18593,3.475918
'[19:13:05.148 20/01/2026]',-55.79369,-6.816565,-7.462874,-4.435672,4.610755E-10,4.610755E-10,-8.729947,-3.761941
'[19:13:05.156 20/01/2026]',35.201,3.360194,4.346031,-2.688491,4.610755E-10,4.610755E-10,3.653805,0.68834
'[19:13:05.164 20/01/2026]',-11.26218,1.92906,-0.07752002,6.357291,4.610755E-10,4.610755E-10,2.922623,3.771198
'[19:13:05.172 20/01/2026]',13.68717,-4.833252,-2.311356,-2.403538,4.610755E-10,4.610755E-10,-8.472909,-8.510606
'[19:13:05.180 20/01/2026]',-25.87469,3.754265,-1.077769,0.3523833,4.610755E-10,4.610755E-10,5.08099,5.369657
'[19:13:05.188 20/01/2026]',15.3981,1.568566,5.652341,-10.43312,4.610755E-10,4.610755E-10,-0.728902,-0.216996
'[19:13:05.196 20/01/2026]',15.3981,1.568566,5.652341,-10.43312,4.610755E-10,4.610755E-10,-0.728902,-0.216996
'[19:13:05.204 20/01/2026]',15.3981,1.568566,5.652341,-10.43312,4.610755E-10,4.610755E-10,-0.728902,-0.216996
'[19:13:05.212 20/01/2026]',15.3981,1.568566,5.652341,-10.43312,4.610755E-10,4.610755E-10,-0.728902,-0.216996
'[19:13:05.220 20/01/2026]',-17.90431,-6.273436,-4.355709,-3.252351,4.610755E-10,4.610755E-10,-3.66449,-6.783686
'[19:13:05.228 20/01/2026]',22.53036,0.6000754,-4.489758,18.03433,4.610755E-10,4.610755E-10,1.155232,3.360984
'[19:13:05.236 20/01/2026]',-9.062774,3.960776,4.859121,-9.763222,4.610755E-10,4.610755E-10,0.4379509,1.161934
'[19:13:05.244 20/01/2026]',-9.062774,3.960776,4.859121,-9.763222,4.610755E-10,4.610755E-10,0.4379509,1.161934
'[19:13:05.252 20/01/2026]',-9.062774,3.960776,4.859121,-9.763222,4.610755E-10,4.610755E-10,0.4379509,1.161934
'[19:13:05.260 20/01/2026]',8.762737,0.3778671,4.169536,-1.51592,4.610755E-10,4.610755E-10,4.247669,2.26547
'[19:13:05.268 20/01/2026]',-14.04662,-2.618632,-5.645444,15.41321,4.610755E-10,4.610755E-10,-2.676864,-0.8835328
'[19:13:05.276 20/01/2026]',-14.04662,-2.618632,-5.645444,15.41321,4.610755E-10,4.610755E-10,-2.676864,-0.8835328
'[19:13:05.284 20/01/2026]',-14.04662,-2.618632,-5.645444,15.41321,4.610755E-10,4.610755E-10,-2.676864,-0.8835328
'[19:13:05.292 20/01/2026]',-14.04662,-2.618632,-5.645444,15.41321,4.610755E-10,4.610755E-10,-2.676864,-0.8835328
'[19:13:05.300 20/01/2026]',-14.04662,-2.618632,-5.645444,15.41321,4.610755E-10,4.610755E-10,-2.676864,-0.8835328
'[19:13:05.308 20/01/2026]',-14.04662,-2.618632,-5.645444,15.41321,4.610755E-10,4.610755E-10,-2.676864,-0.8835328
'[19:13:05.316 20/01/2026]',9.264941,1.368446,1.100042,-24.8112,4.610755E-10,4.610755E-10,-0.9682055,-0.5294763
'[19:13:05.324 20/01/2026]',1.133589,-3.292371,-0.8483639,14.41652,4.610755E-10,4.610755E-10,-2.230819,-5.851681
'[19:13:05.332 20/01/2026]',-11.79175,1.187234,0.152191,14.92179,4.610755E-10,4.610755E-10,2.596127,9.694186
'[19:13:05.340 20/01/2026]',-11.79175,1.187234,0.152191,14.92179,4.610755E-10,4.610755E-10,2.596127,9.694186
'[19:13:05.348 20/01/2026]',-11.79175,1.187234,0.152191,14.92179,4.610755E-10,4.610755E-10,2.596127,9.694186
'[19:13:05.356 20/01/2026]',33.15303,1.567874,0.9626997,-29.45066,4.610755E-10,4.610755E-10,2.753444,-5.051372
'[19:13:05.364 20/01/2026]',-62.96527,-5.141247,-5.088223,4.494867,4.610755E-10,4.610755E-10,-8.968527,-9.008492
'[19:13:05.372 20/01/2026]',73.36362,14.1371,12.85011,34.72672,4.610755E-10,4.610755E-10,16.47133,24.41084
'[19:13:05.380 20/01/2026]',73.36362,14.1371,12.85011,34.72672,4.610755E-10,4.610755E-10,16.47133,24.41084
'[19:13:05.388 20/01/2026]',73.36362,14.1371,12.85011,34.72672,4.610755E-10,4.610755E-10,16.47133,24.41084
'[19:13:05.396 20/01/2026]',73.36362,14.1371,12.85011,34.72672,4.610755E-10,4.610755E-10,16.47133,24.41084
'[19:13:05.404 20/01/2026]',-20.93937,-11.73731,-17.19082,-36.17432,4.610755E-10,4.610755E-10,-14.47253,-16.26653
'[19:13:05.412 20/01/2026]',-42.50209,7.667069,18.16822,5.403488,4.610755E-10,4.610755E-10,7.416954,2.202813
'[19:13:05.420 20/01/2026]',50.9895,-6.928108,-9.481143,8.314838,4.610755E-10,4.610755E-10,-1.569267,1.284087
'[19:13:05.428 20/01/2026]',-26.83937,-3.79813,-5.325222,2.443479,4.610755E-10,4.610755E-10,-5.046935,-4.470077
'[19:13:05.436 20/01/2026]',-1.716466,10.1352,9.531867,-12.15434,4.610755E-10,4.610755E-10,6.692496,8.196061
'[19:13:05.444 20/01/2026]',15.83293,1.444314,0.7760568,5.622297,4.610755E-10,4.610755E-10,2.953253,-4.101065
'[19:13:05.452 20/01/2026]',1.114467,-11.13908,-4.906789,16.06121,4.610755E-10,4.610755E-10,-7.842176,0.123985
'[19:13:05.460 20/01/2026]',-21.12461,5.574761,-2.732582,-24.64899,4.610755E-10,4.610755E-10,2.210146,-0.1758103
'[19:13:05.468 20/01/2026]',14.83285,-0.7870414,7.459362,3.708076,4.610755E-10,4.610755E-10,2.088663,-1.607689
'[19:13:05.476 20/01/2026]',-10.59565,-14.81659,-10.66356,9.193535,4.610755E-10,4.610755E-10,-9.090034,-4.903147
'[19:13:05.484 20/01/2026]',20.28206,27.29816,10.12483,-1.41621,4.610755E-10,4.610755E-10,10.62376,9.311553
'[19:13:05.492 20/01/2026]',-17.05569,-15.74603,-7.113475,-8.583503,4.610755E-10,4.610755E-10,-4.234179,-6.057816
'[19:13:05.500 20/01/2026]',3.218578,0.4100351,3.756978,10.37695,4.610755E-10,4.610755E-10,-0.9697204,3.63589
'[19:13:05.508 20/01/2026]',14.93352,9.044946,4.149745,2.79123,4.610755E-10,4.610755E-10,7.787437,6.04896
'[19:13:05.516 20/01/2026]',-20.58854,-11.98778,-12.5367,-17.2973,4.610755E-10,4.610755E-10,-12.93294,-15.92475
'[19:13:05.524 20/01/2026]',5.649966,-0.9959152,2.189208,6.082615,4.610755E-10,4.610755E-10,1.066072,3.350004
'[19:13:05.532 20/01/2026]',-2.707983,8.865155,7.194905,6.23066,4.610755E-10,4.610755E-10,8.005283,7.503366
'[19:13:05.540 20/01/2026]',10.88758,-9.256393,-0.3034019,1.094445,4.610755E-10,4.610755E-10,0.8951267,0.4859383
'[19:13:05.548 20/01/2026]',-31.93171,-2.721937,-9.759342,-14.45885,4.610755E-10,4.610755E-10,-13.48106,-12.00449
'[19:13:05.556 20/01/2026]',50.46564,14.55958,5.032019,23.16039,4.610755E-10,4.610755E-10,8.832312,8.553246
'[19:13:05.564 20/01/2026]',-33.06904,-12.20182,-0.5613725,-21.37023,4.610755E-10,4.610755E-10,-2.53731,-4.205768
'[19:13:05.572 20/01/2026]',-23.891,-0.9144885,-3.839828,-6.646002,4.610755E-10,4.610755E-10,-2.992396,-5.089905
'[19:13:05.580 20/01/2026]',47.98108,1.213923,3.600865,14.84734,4.610755E-10,4.610755E-10,6.015494,7.693455
'[19:13:05.588 20/01/2026]',-50.82075,-3.156877,-3.081568,1.259835,4.610755E-10,4.610755E-10,-1.186254,2.142505
'[19:13:05.596 20/01/2026]',54.29407,23.74139,7.490385,-1.256266,4.610755E-10,4.610755E-10,1.15503,-3.290117
'[19:13:05.604 20/01/2026]',-34.28226,-13.81453,-1.838499,-7.425528,4.610755E-10,4.610755E-10,-6.175097,-9.792767
'[19:13:05.612 20/01/2026]',26.176,-12.58239,-5.062559,8.552083,4.610755E-10,4.610755E-10,5.898414,16.29157
'[19:13:05.620 20/01/2026]',-39.59243,7.938678,-0.1369494,-4.040383,4.610755E-10,4.610755E-10,-2.779277,-9.397327
'[19:13:05.628 20/01/2026]',20.23361,-2.338151,0.1599333,-10.11233,4.610755E-10,4.610755E-10,-1.890114,-4.176497
'[19:13:05.636 20/01/2026]',-5.606963,-8.598524,-2.150377,11.75112,4.610755E-10,4.610755E-10,3.797443,9.308638
'[19:13:05.644 20/01/2026]',-11.86602,-1.892394,-0.1487442,-0.03591674,4.610755E-10,4.610755E-10,-1.946631,-5.803723
'[19:13:05.652 20/01/2026]',56.26504,41.75993,19.02711,5.279567,4.610755E-10,4.610755E-10,2.456119,3.907347
'[19:13:05.660 20/01/2026]',-32.52816,-27.13472,-15.05571,-6.289376,4.610755E-10,4.610755E-10,-4.562846,-3.709791
'[19:13:05.668 20/01/2026]',-31.36837,-13.91075,-7.182246,-11.81703,4.610755E-10,4.610755E-10,0.2151945,-3.049001
'[19:13:05.676 20/01/2026]',36.55533,17.58948,12.00302,11.24384,4.610755E-10,4.610755E-10,4.27295,7.031147
'[19:13:05.684 20/01/2026]',-22.59347,-12.39618,-13.23322,-0.04537706,4.610755E-10,4.610755E-10,-12.39478,-13.64193
'[19:13:05.692 20/01/2026]',19.65103,14.69123,16.09126,3.02702,4.610755E-10,4.610755E-10,18.41467,16.57931
'[19:13:05.700 20/01/2026]',-3.168974,-4.085889,-2.61843,-18.51983,4.610755E-10,4.610755E-10,-4.340338,-1.59938
'[19:13:05.708 20/01/2026]',-33.58409,-16.11644,-15.56479,19.88693,4.610755E-10,4.610755E-10,-15.61051,-14.08036
'[19:13:05.716 20/01/2026]',73.89867,16.47733,12.14581,3.161617,4.610755E-10,4.610755E-10,12.42686,9.557344
'[19:13:05.724 20/01/2026]',-78.78547,7.861636,4.429579,-12.33217,4.610755E-10,4.610755E-10,7.524692,11.08864
'[19:13:05.732 20/01/2026]',35.68733,-13.24184,-9.931096,-4.049201,4.610755E-10,4.610755E-10,-16.36375,-21.97601
'[19:13:05.740 20/01/2026]',14.24235,-2.582464,6.743948,11.17482,4.610755E-10,4.610755E-10,7.770454,7.991476
'[19:13:05.748 20/01/2026]',14.24235,-2.582464,6.743948,11.17482,4.610755E-10,4.610755E-10,7.770454,7.991476
'[19:13:05.756 20/01/2026]',14.24235,-2.582464,6.743948,11.17482,4.610755E-10,4.610755E-10,7.770454,7.991476
'[19:13:05.764 20/01/2026]',-33.38136,5.236646,-2.301037,-4.700147,4.610755E-10,4.610755E-10,1.451013,6.768595
'[19:13:05.772 20/01/2026]',12.18612,4.723945,3.348273,-4.571382,4.610755E-10,4.610755E-10,0.05780542,-5.205385
'[19:13:05.780 20/01/2026]',3.541509,-10.10143,-7.059213,6.59846,4.610755E-10,4.610755E-10,-4.216146,-1.427275
'[19:13:05.788 20/01/2026]',3.541509,-10.10143,-7.059213,6.59846,4.610755E-10,4.610755E-10,-4.216146,-1.427275
'[19:13:05.796 20/01/2026]',3.541509,-10.10143,-7.059213,6.59846,4.610755E-10,4.610755E-10,-4.216146,-1.427275
'[19:13:05.804 20/01/2026]',12.76835,2.461666,2.702139,3.122005,4.610755E-10,4.610755E-10,2.373096,2.107317
'[19:13:05.812 20/01/2026]',-26.9689,11.53253,10.24288,-4.264201,4.610755E-10,4.610755E-10,7.296846,3.426085
'[19:13:05.820 20/01/2026]',14.06925,-6.427826,-13.47884,-6.879035,4.610755E-10,4.610755E-10,-5.94114,-0.5816129
'[19:13:05.828 20/01/2026]',14.06925,-6.427826,-13.47884,-6.879035,4.610755E-10,4.610755E-10,-5.94114,-0.5816129
'[19:13:05.836 20/01/2026]',14.06925,-6.427826,-13.47884,-6.879035,4.610755E-10,4.610755E-10,-5.94114,-0.5816129
'[19:13:05.844 20/01/2026]',14.06925,-6.427826,-13.47884,-6.879035,4.610755E-10,4.610755E-10,-5.94114,-0.5816129
'[19:13:05.852 20/01/2026]',-9.608405,-11.9445,-1.627364,5.727277,4.610755E-10,4.610755E-10,-11.64227,-11.10587
'[19:13:05.860 20/01/2026]',30.30958,15.85937,15.26223,7.681998,4.610755E-10,4.610755E-10,19.63289,13.37275
'[19:13:05.868 20/01/2026]',30.30958,15.85937,15.26223,7.681998,4.610755E-10,4.610755E-10,19.63289,13.37275
'[19:13:05.876 20/01/2026]',30.30958,15.85937,15.26223,7.681998,4.610755E-10,4.610755E-10,19.63289,13.37275
'[19:13:05.884 20/01/2026]',30.30958,15.85937,15.26223,7.681998,4.610755E-10,4.610755E-10,19.63289,13.37275
'[19:13:05.892 20/01/2026]',30.30958,15.85937,15.26223,7.681998,4.610755E-10,4.610755E-10,19.63289,13.37275
'[19:13:05.900 20/01/2026]',-29.46109,-0.7645614,-6.985921,-9.610653,4.610755E-10,4.610755E-10,-3.277333,0.5557429
'[19:13:05.908 20/01/2026]',0.06478354,-13.15366,-10.92123,1.752796,4.610755E-10,4.610755E-10,-16.51459,-13.97909
'[19:13:05.916 20/01/2026]',13.68126,9.845658,11.1157,-3.281163,4.610755E-10,4.610755E-10,15.27067,7.965334
'[19:13:05.924 20/01/2026]',13.68126,9.845658,11.1157,-3.281163,4.610755E-10,4.610755E-10,15.27067,7.965334
'[19:13:05.932 20/01/2026]',13.68126,9.845658,11.1157,-3.281163,4.610755E-10,4.610755E-10,15.27067,7.965334
'[19:13:05.940 20/01/2026]',13.68126,9.845658,11.1157,-3.281163,4.610755E-10,4.610755E-10,15.27067,7.965334
'[19:13:05.948 20/01/2026]',1.920189,-1.53706,-1.211187,6.176735,4.610755E-10,4.610755E-10,-4.782077,2.692701
'[19:13:05.956 20/01/2026]',-29.01352,-0.540342,-0.622023,11.39351,4.610755E-10,4.610755E-10,1.765815,2.467876
'[19:13:05.964 20/01/2026]',-29.01352,-0.540342,-0.622023,11.39351,4.610755E-10,4.610755E-10,1.765815,2.467876
'[19:13:05.972 20/01/2026]',-29.01352,-0.540342,-0.622023,11.39351,4.610755E-10,4.610755E-10,1.765815,2.467876
'[19:13:05.980 20/01/2026]',52.40933,-1.613999,0.05493339,-27.75994,4.610755E-10,4.610755E-10,2.620993,-6.659363
'[19:13:05.988 20/01/2026]',-52.9076,-11.01963,-5.77715,8.581708,4.610755E-10,4.610755E-10,-13.35286,-4.301488
'[19:13:05.996 20/01/2026]',25.06693,21.98816,5.913479,23.98444,4.610755E-10,4.610755E-10,11.48546,8.104453
'[19:13:06.004 20/01/2026]',27.27424,-9.869809,1.773965,-24.94374,4.610755E-10,4.610755E-10,2.006168,2.655939
'[19:13:06.012 20/01/2026]',-78.62128,-3.815562,-2.958396,-1.184078,4.610755E-10,4.610755E-10,-7.010869,-7.499956
'[19:13:06.020 20/01/2026]',88.13316,3.936831,-0.3797488,11.44792,4.610755E-10,4.610755E-10,1.860885,0.5845653
'[19:13:06.028 20/01/2026]',-53.06546,0.4544319,1.638442,2.028528,4.610755E-10,4.610755E-10,3.088487,5.622971
'[19:13:06.036 20/01/2026]',2.724399,-4.315528,-4.355145,-18.65557,4.610755E-10,4.610755E-10,-7.705579,-6.853423
'[19:13:06.044 20/01/2026]',12.16589,-4.507337,4.871646,7.051948,4.610755E-10,4.610755E-10,10.27502,3.560366
'[19:13:06.052 20/01/2026]',16.97375,11.0061,3.462458,25.90945,4.610755E-10,4.610755E-10,-1.915957,5.905557
'[19:13:06.060 20/01/2026]',-31.68201,0.5273079,-7.861283,-27.80532,4.610755E-10,4.610755E-10,-7.64971,-10.5298
'[19:13:06.068 20/01/2026]',15.89849,-7.289285,3.399039,-5.000237,4.610755E-10,4.610755E-10,6.645528,3.577362
'[19:13:06.076 20/01/2026]',-9.010176,-3.918235,-4.235852,18.33768,4.610755E-10,4.610755E-10,-5.148804,2.25716
'[19:13:06.084 20/01/2026]',17.14185,5.005155,1.643531,4.348545,4.610755E-10,4.610755E-10,2.206521,-1.664478
'[19:13:06.092 20/01/2026]',-2.413539,1.022642,-0.2641508,-13.79749,4.610755E-10,4.610755E-10,0.4315943,-0.8933232
'[19:13:06.100 20/01/2026]',-24.24156,-10.85611,-10.16996,-12.50364,4.610755E-10,4.610755E-10,-12.44035,-10.37323
'[19:13:06.108 20/01/2026]',19.01974,9.060064,10.35863,22.60568,4.610755E-10,4.610755E-10,12.56017,11.81942
'[19:13:06.116 20/01/2026]',7.363938,12.28524,10.99381,4.102354,4.610755E-10,4.610755E-10,10.01188,9.537366
'[19:13:06.124 20/01/2026]',-10.64507,-17.04125,-14.58673,-18.25026,4.610755E-10,4.610755E-10,-17.06253,-18.39934
'[19:13:06.132 20/01/2026]',-17.1404,0.01725625,-1.905138,7.736766,4.610755E-10,4.610755E-10,3.989519,4.688644
'[19:13:06.140 20/01/2026]',36.52506,8.589869,9.142617,-9.52563,4.610755E-10,4.610755E-10,2.336834,2.961295
'[19:13:06.148 20/01/2026]',-41.9549,-2.971451,-1.585602,22.83829,4.610755E-10,4.610755E-10,3.254814,5.034225
'[19:13:06.156 20/01/2026]',37.45456,-5.138425,-6.667911,-16.23319,4.610755E-10,4.610755E-10,-7.385986,-8.945956
'[19:13:06.164 20/01/2026]',-30.19338,3.11063,2.060775,-15.61795,4.610755E-10,4.610755E-10,-0.4077211,-2.853832
'[19:13:06.172 20/01/2026]',-2.587935,3.504124,1.95509,24.82733,4.610755E-10,4.610755E-10,6.090561,6.619491
'[19:13:06.180 20/01/2026]',45.78495,0.3912101,-0.6741142,-4.637102,4.610755E-10,4.610755E-10,0.4344555,1.954302
'[19:13:06.188 20/01/2026]',-64.71755,-5.085213,-1.542272,-9.057488,4.610755E-10,4.610755E-10,-8.116401,-7.519005
'[19:13:06.196 20/01/2026]',41.72012,-0.2997254,3.794183,-2.200054,4.610755E-10,4.610755E-10,2.86222,-2.034584
'[19:13:06.204 20/01/2026]',-16.51011,1.941401,-5.688279,9.776533,4.610755E-10,4.610755E-10,4.106346,8.884954
'[19:13:06.212 20/01/2026]',25.49865,-4.14051,0.103957,7.523694,4.610755E-10,4.610755E-10,-5.551857,-2.24059
'[19:13:06.220 20/01/2026]',-32.978,8.581251,8.663119,-13.66925,4.610755E-10,4.610755E-10,6.419652,-2.774779
'[19:13:06.228 20/01/2026]',16.95129,-3.917651,-5.147552,-7.523352,4.610755E-10,4.610755E-10,-5.062906,-2.373131
'[19:13:06.236 20/01/2026]',-17.29899,-0.9729695,-4.66762,19.78778,4.610755E-10,4.610755E-10,2.369655,9.62056
'[19:13:06.244 20/01/2026]',37.14884,5.129401,10.13838,-1.521019,4.610755E-10,4.610755E-10,5.610962,-0.7149323
'[19:13:06.252 20/01/2026]',-27.09697,-3.201266,-3.853905,-17.95577,4.610755E-10,4.610755E-10,-8.024943,-12.43893
'[19:13:06.260 20/01/2026]',-7.541516,-7.015396,-7.347717,13.44823,4.610755E-10,4.610755E-10,-1.482606,7.354279
'[19:13:06.268 20/01/2026]',17.89101,4.066507,4.709533,1.87673,4.610755E-10,4.610755E-10,3.618068,1.891752
'[19:13:06.276 20/01/2026]',-4.878689,4.24086,3.054564,-11.95328,4.610755E-10,4.610755E-10,1.933432,-1.977559
'[19:13:06.284 20/01/2026]',-9.740483,-2.69762,-1.286533,9.185457,4.610755E-10,4.610755E-10,-1.35075,1.809011
'[19:13:06.292 20/01/2026]',2.58621,-3.319505,-1.033777,2.130197,4.610755E-10,4.610755E-10,-1.433282,-5.994802
'[19:13:06.300 20/01/2026]',17.04279,5.931308,1.025588,-12.08622,4.610755E-10,4.610755E-10,0.9706222,6.881432
'[19:13:06.308 20/01/2026]',-40.23148,-5.909768,-0.6546174,11.15587,4.610755E-10,4.610755E-10,2.554011,0.4307128
'[19:13:06.316 20/01/2026]',61.89277,3.622275,0.7139238,10.36051,4.610755E-10,4.610755E-10,-4.307705,-4.772745
'[19:13:06.324 20/01/2026]',-40.70704,7.789866,5.747518,-14.80965,4.610755E-10,4.610755E-10,5.116318,6.726027
'[19:13:06.332 20/01/2026]',-40.70704,7.789866,5.747518,-14.80965,4.610755E-10,4.610755E-10,5.116318,6.726027
'[19:13:06.340 20/01/2026]',-14.30687,-14.13303,-13.01938,-10.49176,4.610755E-10,4.610755E-10,-7.483999,-13.59028
'[19:13:06.348 20/01/2026]',38.75612,3.353779,7.08742,11.87343,4.610755E-10,4.610755E-10,4.315528,7.678635
'[19:13:06.356 20/01/2026]',-26.44176,8.82485,4.240896,12.23218,4.610755E-10,4.610755E-10,0.02154038,4.617765
'[19:13:06.364 20/01/2026]',-26.44176,8.82485,4.240896,12.23218,4.610755E-10,4.610755E-10,0.02154038,4.617765
'[19:13:06.372 20/01/2026]',-26.44176,8.82485,4.240896,12.23218,4.610755E-10,4.610755E-10,0.02154038,4.617765
'[19:13:06.380 20/01/2026]',-26.44176,8.82485,4.240896,12.23218,4.610755E-10,4.610755E-10,0.02154038,4.617765
'[19:13:06.388 20/01/2026]',1.96831,-13.34341,-11.88561,-27.40024,4.610755E-10,4.610755E-10,-5.8016,-11.55317
'[19:13:06.396 20/01/2026]',9.981025,12.13683,13.36331,21.31434,4.610755E-10,4.610755E-10,9.502439,11.46561
'[19:13:06.404 20/01/2026]',9.981025,12.13683,13.36331,21.31434,4.610755E-10,4.610755E-10,9.502439,11.46561
'[19:13:06.412 20/01/2026]',9.981025,12.13683,13.36331,21.31434,4.610755E-10,4.610755E-10,9.502439,11.46561
'[19:13:06.420 20/01/2026]',9.981025,12.13683,13.36331,21.31434,4.610755E-10,4.610755E-10,9.502439,11.46561
'[19:13:06.428 20/01/2026]',9.981025,12.13683,13.36331,21.31434,4.610755E-10,4.610755E-10,9.502439,11.46561
'[19:13:06.436 20/01/2026]',0.2590479,-16.63992,-11.43069,-6.228621,4.610755E-10,4.610755E-10,-8.547575,-10.58335
'[19:13:06.444 20/01/2026]',-3.454776,19.11573,7.321242,4.108871,4.610755E-10,4.610755E-10,6.154458,10.97575
'[19:13:06.452 20/01/2026]',-2.81419,-2.361822,0.5841477,-5.024693,4.610755E-10,4.610755E-10,-2.233736,-4.870005
'[19:13:06.460 20/01/2026]',-2.81419,-2.361822,0.5841477,-5.024693,4.610755E-10,4.610755E-10,-2.233736,-4.870005
'[19:13:06.468 20/01/2026]',-2.81419,-2.361822,0.5841477,-5.024693,4.610755E-10,4.610755E-10,-2.233736,-4.870005
'[19:13:06.476 20/01/2026]',-6.577083,-8.295036,-2.711723,-5.761182,4.610755E-10,4.610755E-10,1.429022,-1.579767
'[19:13:06.484 20/01/2026]',12.90754,4.462854,4.973062,17.44065,4.610755E-10,4.610755E-10,-0.5753294,2.748208
'[19:13:06.492 20/01/2026]',12.90754,4.462854,4.973062,17.44065,4.610755E-10,4.610755E-10,-0.5753294,2.748208
'[19:13:06.500 20/01/2026]',12.90754,4.462854,4.973062,17.44065,4.610755E-10,4.610755E-10,-0.5753294,2.748208
'[19:13:06.508 20/01/2026]',12.90754,4.462854,4.973062,17.44065,4.610755E-10,4.610755E-10,-0.5753294,2.748208
'[19:13:06.516 20/01/2026]',12.90754,4.462854,4.973062,17.44065,4.610755E-10,4.610755E-10,-0.5753294,2.748208
'[19:13:06.524 20/01/2026]',-1.768422,2.204283,-3.211115,-14.86711,4.610755E-10,4.610755E-10,0.3988159,-0.6212306
'[19:13:06.532 20/01/2026]',-17.15823,-3.429681,-1.76435,-0.5426805,4.610755E-10,4.610755E-10,-3.566777,-4.610564
'[19:13:06.540 20/01/2026]',16.23933,0.2390399,2.698279,8.77692,4.610755E-10,4.610755E-10,4.301413,4.250845
'[19:13:06.548 20/01/2026]',1.932354,-7.780727,-3.847953,-5.961928,4.610755E-10,4.610755E-10,-0.4666938,0.5299069
'[19:13:06.556 20/01/2026]',-15.86709,6.903069,0.6886588,-1.001866,4.610755E-10,4.610755E-10,-5.650631,-5.434243
'[19:13:06.564 20/01/2026]',12.20734,3.974915,2.098963,4.286325,4.610755E-10,4.610755E-10,4.877973,5.769926
'[19:13:06.572 20/01/2026]',3.104216,-1.250275,3.720635,7.714753,4.610755E-10,4.610755E-10,8.075524,6.077662
'[19:13:06.580 20/01/2026]',4.819534,-6.276719,-7.220179,-16.60558,4.610755E-10,4.610755E-10,-13.01737,-10.94013
'[19:13:06.588 20/01/2026]',-26.22906,4.842196,2.901404,9.261589,4.610755E-10,4.610755E-10,3.556662,3.820426
'[19:13:06.596 20/01/2026]',39.22353,-2.980945,-0.5614133,11.33774,4.610755E-10,4.610755E-10,3.095493,0.9604979
'[19:13:06.604 20/01/2026]',-20.9289,8.354551,6.276049,-19.93114,4.610755E-10,4.610755E-10,4.54335,3.830482
'[19:13:06.612 20/01/2026]',-26.40299,-11.25289,-11.26045,0.08590874,4.610755E-10,4.610755E-10,-12.10016,-10.15383
'[19:13:06.620 20/01/2026]',47.67813,2.370933,5.996482,16.82521,4.610755E-10,4.610755E-10,4.825636,4.226488
'[19:13:06.628 20/01/2026]',-27.70723,5.26101,1.377248,-5.550978,4.610755E-10,4.610755E-10,3.086838,5.548817
'[19:13:06.636 20/01/2026]',0.02655763,-1.336499,-1.563215,-19.44881,4.610755E-10,4.610755E-10,-1.038953,-7.393579
'[19:13:06.644 20/01/2026]',12.59255,-1.453603,2.399674,26.22863,4.610755E-10,4.610755E-10,1.917728,7.985522
'[19:13:06.652 20/01/2026]',6.025224,-1.404156,-3.983092,2.779007,4.610755E-10,4.610755E-10,-6.156977,1.032835
'[19:13:06.660 20/01/2026]',-32.67381,0.08832985,2.965905,-26.51493,4.610755E-10,4.610755E-10,7.249556,-11.25876
'[19:13:06.668 20/01/2026]',26.62892,1.53432,-3.569352,8.338075,4.610755E-10,4.610755E-10,-4.843393,6.603753
'[19:13:06.676 20/01/2026]',-8.729761,4.191585,7.106225,18.28393,4.610755E-10,4.610755E-10,2.641144,5.018516
'[19:13:06.684 20/01/2026]',10.86033,-4.566058,-5.738259,-12.54852,4.610755E-10,4.610755E-10,0.5987549,-7.863785
'[19:13:06.692 20/01/2026]',-14.83774,-1.600207,-2.893207,-11.99094,4.610755E-10,4.610755E-10,-2.519752,2.364395
'[19:13:06.700 20/01/2026]',10.86936,3.144253,6.645197,20.99215,4.610755E-10,4.610755E-10,1.767869,2.508247
'[19:13:06.708 20/01/2026]',3.640146,-0.3535015,-0.320982,-1.490558,4.610755E-10,4.610755E-10,1.245859,-1.304625
'[19:13:06.716 20/01/2026]',-12.89029,-1.629278,-5.308685,-18.16102,4.610755E-10,4.610755E-10,-4.62379,-4.5797
'[19:13:06.724 20/01/2026]',-1.881534,1.145034,3.05766,10.15558,4.610755E-10,4.610755E-10,1.996961,4.646547
'[19:13:06.732 20/01/2026]',4.624822,-5.126198,-2.556038,-3.622861,4.610755E-10,4.610755E-10,-3.967259,-6.096614
'[19:13:06.740 20/01/2026]',3.506517,8.754701,2.557123,9.042332,4.610755E-10,4.610755E-10,9.516047,9.055561
'[19:13:06.748 20/01/2026]',3.464407,-3.900527,0.6809484,-10.07039,4.610755E-10,4.610755E-10,-7.142097,-5.158056
'[19:13:06.756 20/01/2026]',-29.68398,-5.797903,0.2110488,7.17169,4.610755E-10,4.610755E-10,-0.5694976,0.5711344
'[19:13:06.764 20/01/2026]',43.95431,5.92832,-2.055614,10.99428,4.610755E-10,4.610755E-10,6.368992,3.742353
'[19:13:06.772 20/01/2026]',-26.10806,-1.645487,-1.690778,-33.58545,4.610755E-10,4.610755E-10,-10.35892,-11.08
'[19:13:06.780 20/01/2026]',-24.81441,0.9472402,3.306792,18.36175,4.610755E-10,4.610755E-10,6.875553,5.505113
'[19:13:06.788 20/01/2026]',59.33755,-0.7599254,-1.59695,10.09437,4.610755E-10,4.610755E-10,0.9198595,5.562126
'[19:13:06.796 20/01/2026]',-60.64008,-3.12788,-2.639921,-11.48286,4.610755E-10,4.610755E-10,-5.540322,-8.034716
'[19:13:06.804 20/01/2026]',38.79958,0.5922669,1.227335,-4.826424,4.610755E-10,4.610755E-10,1.548058,0.1404756
'[19:13:06.812 20/01/2026]',-25.52311,4.164295,2.57031,7.527363,4.610755E-10,4.610755E-10,1.863165,3.429289
'[19:13:06.820 20/01/2026]',43.66394,-2.531735,1.675004,10.61304,4.610755E-10,4.610755E-10,4.487998,5.497902
'[19:13:06.828 20/01/2026]',-50.36503,3.522867,-6.78706,-19.60338,4.610755E-10,4.610755E-10,-9.173592,-9.981112
'[19:13:06.836 20/01/2026]',22.4745,-5.622479,0.6802846,-1.31141,4.610755E-10,4.610755E-10,-1.303924,-5.730729
'[19:13:06.844 20/01/2026]',-8.906427,5.301795,6.607809,16.20499,4.610755E-10,4.610755E-10,13.70093,20.26373
'[19:13:06.852 20/01/2026]',30.35235,-5.221288,-9.688095,-2.119361,4.610755E-10,4.610755E-10,-12.2137,-11.4259
'[19:13:06.860 20/01/2026]',-26.65891,6.12431,7.024361,-1.14987,4.610755E-10,4.610755E-10,1.427211,-3.742197
'[19:13:06.868 20/01/2026]',-0.0072254,2.254842,-3.264381,-8.567367,4.610755E-10,4.610755E-10,5.849877,8.3606
'[19:13:06.876 20/01/2026]',13.23428,-2.993822,2.987806,6.296132,4.610755E-10,4.610755E-10,-1.692958,-1.409176
'[19:13:06.884 20/01/2026]',-1.864528,-5.772926,-2.760349,-0.2745579,4.610755E-10,4.610755E-10,-7.127507,-7.506901
'[19:13:06.892 20/01/2026]',-8.789867,3.320427,-0.764986,-5.937147,4.610755E-10,4.610755E-10,4.00676,2.410732
'[19:13:06.900 20/01/2026]',5.338637,2.019931,1.29607,6.759823,4.610755E-10,4.610755E-10,4.728917,6.219995
'[19:13:06.908 20/01/2026]',-12.45195,-6.953856,-5.527552,1.706586,4.610755E-10,4.610755E-10,-8.539462,-8.260518
'[19:13:06.916 20/01/2026]',40.19461,8.134623,7.823178,-6.350887,4.610755E-10,4.610755E-10,5.894909,4.320611
'[19:13:06.924 20/01/2026]',-52.91592,2.405065,-1.405746,3.287983,4.610755E-10,4.610755E-10,2.487248,3.38177
'[19:13:06.932 20/01/2026]',40.08435,-12.85112,-8.116661,15.42258,4.610755E-10,4.610755E-10,-8.212401,-6.422667
'[19:13:06.940 20/01/2026]',-13.09013,6.829504,5.745709,-31.15924,4.610755E-10,4.610755E-10,0.2917807,0.139882
'[19:13:06.948 20/01/2026]',-16.52424,5.794797,5.965934,16.89994,4.610755E-10,4.610755E-10,9.388911,6.655104
'[19:13:06.956 20/01/2026]',33.38632,-8.829985,-11.92352,-0.8836278,4.610755E-10,4.610755E-10,-8.134879,-10.13597
'[19:13:06.964 20/01/2026]',-55.03653,-26.13643,-6.781953,-15.18068,4.610755E-10,4.610755E-10,-6.96129,-2.609591
'[19:13:06.972 20/01/2026]',42.12138,40.27244,20.92451,19.82541,4.610755E-10,4.610755E-10,11.62949,11.69821
'[19:13:06.980 20/01/2026]',2.799779,14.87243,1.844045,-2.808983,4.610755E-10,4.610755E-10,0.9189059,-4.311518
'[19:13:06.988 20/01/2026]',3.408115,-41.59185,-18.35748,-1.05218,4.610755E-10,4.610755E-10,-7.693153,-3.450112
'[19:13:06.996 20/01/2026]',-37.57217,12.68433,7.740778,-3.401958,4.610755E-10,4.610755E-10,4.73591,6.09028
'[19:13:07.004 20/01/2026]',42.26877,12.93435,5.453058,-4.431868,4.610755E-10,4.610755E-10,4.375596,-0.2406738
'[19:13:07.012 20/01/2026]',-30.68429,-12.61151,-6.358708,13.83126,4.610755E-10,4.610755E-10,-9.44656,-5.287239
'[19:13:07.020 20/01/2026]',29.92961,1.966038,3.135064,-5.336349,4.610755E-10,4.610755E-10,5.155447,3.331838
'[19:13:07.028 20/01/2026]',-13.38529,6.372766,2.997062,1.380828,4.610755E-10,4.610755E-10,6.792797,7.912551
'[19:13:07.036 20/01/2026]',-11.64668,-5.87046,-6.870198,-6.878595,4.610755E-10,4.610755E-10,-11.17359,-10.85141
'[19:13:07.044 20/01/2026]',20.09182,6.91702,5.47469,3.396524,4.610755E-10,4.610755E-10,8.450443,4.511844
'[19:13:07.052 20/01/2026]',-7.23896,-7.135583,-3.831513,6.41951,4.610755E-10,4.610755E-10,-6.837682,-0.2776615
'[19:13:07.060 20/01/2026]',-5.881684,0.8789457,2.488021,-4.561438,4.610755E-10,4.610755E-10,3.257364,-1.858825
'[19:13:07.068 20/01/2026]',13.06345,5.853149,2.609935,-3.274809,4.610755E-10,4.610755E-10,7.378149,7.049177
'[19:13:07.076 20/01/2026]',-25.12376,-11.83633,-9.72034,-2.355958,4.610755E-10,4.610755E-10,-16.55922,-12.38232
'[19:13:07.084 20/01/2026]',34.55259,11.49446,10.52186,13.33919,4.610755E-10,4.610755E-10,13.84786,8.73141
'[19:13:07.092 20/01/2026]',-18.65618,-4.321089,-5.52331,-20.19694,4.610755E-10,4.610755E-10,-6.53528,-2.164007
'[19:13:07.100 20/01/2026]',-13.81163,-2.811027,1.138455,19.25959,4.610755E-10,4.610755E-10,2.909741,3.988783
'[19:13:07.108 20/01/2026]',42.0492,6.273844,5.101738,2.848946,4.610755E-10,4.610755E-10,4.972635,0.6165978
'[19:13:07.116 20/01/2026]',-50.90369,-4.82398,-5.886426,-25.48557,4.610755E-10,4.610755E-10,-11.28194,-9.733974
'[19:13:07.124 20/01/2026]',28.5605,-1.613075,1.557914,11.52346,4.610755E-10,4.610755E-10,4.948884,6.654515
'[19:13:07.132 20/01/2026]',8.790546,4.988589,3.49475,16.19466,4.610755E-10,4.610755E-10,6.751729,5.901072
'[19:13:07.140 20/01/2026]',-24.69017,0.09310323,0.05667336,-16.07875,4.610755E-10,4.610755E-10,-7.906357,-8.060654
'[19:13:07.148 20/01/2026]',-1.165511,-13.80864,-4.878193,-13.99091,4.610755E-10,4.610755E-10,-2.78941,-4.715038
'[19:13:07.156 20/01/2026]',40.61782,21.61278,6.839031,39.77623,4.610755E-10,4.610755E-10,11.89084,15.94511
'[19:13:07.164 20/01/2026]',-17.0532,-8.50694,-1.043805,-19.95518,4.610755E-10,4.610755E-10,-6.604267,-8.86537
'[19:13:07.172 20/01/2026]',-27.7481,-4.268923,-2.752308,-16.09097,4.610755E-10,4.610755E-10,-2.259014,-4.457088
'[19:13:07.180 20/01/2026]',9.415929,-2.119588,-4.01009,13.97383,4.610755E-10,4.610755E-10,-2.275875,2.748391
'[19:13:07.188 20/01/2026]',23.75767,6.431828,7.387348,3.515769,4.610755E-10,4.610755E-10,5.811496,2.727504
'[19:13:07.196 20/01/2026]',-2.072898,4.12241,0.2344557,2.099996,4.610755E-10,4.610755E-10,3.741287,4.072048
'[19:13:07.204 20/01/2026]',-29.08696,-7.125255,-5.433559,-7.477971,4.610755E-10,4.610755E-10,-6.932248,-7.12949
'[19:13:07.212 20/01/2026]',12.42086,0.07112213,1.300436,-1.762752,4.610755E-10,4.610755E-10,-0.1310942,0.5767803
'[19:13:07.220 20/01/2026]',7.384233,4.015123,0.4581335,5.828112,4.610755E-10,4.610755E-10,2.699146,1.174394
'[19:13:07.228 20/01/2026]',4.428135,1.352438,4.584772,1.302005,4.610755E-10,4.610755E-10,2.933274,3.364897
'[19:13:07.236 20/01/2026]',-19.94246,-5.53171,-5.422753,-9.291089,4.610755E-10,4.610755E-10,-5.832006,-5.743314
'[19:13:07.244 20/01/2026]',4.123602,0.7095414,-0.9559048,6.452517,4.610755E-10,4.610755E-10,1.31017,1.114053
'[19:13:07.252 20/01/2026]',10.94937,3.321458,5.92927,5.075629,4.610755E-10,4.610755E-10,4.717507,3.62766
'[19:13:07.260 20/01/2026]',7.629658,-0.6786054,-3.634694,-14.49814,4.610755E-10,4.610755E-10,-6.080626,-3.608123
'[19:13:07.268 20/01/2026]',-46.42789,-4.597221,-1.23779,8.436511,4.610755E-10,4.610755E-10,1.379763,-2.786959
'[19:13:07.276 20/01/2026]',69.38475,3.012584,3.387033,19.34047,4.610755E-10,4.610755E-10,4.15793,12.70663
'[19:13:07.284 20/01/2026]',-58.26764,1.919949,-1.493378,-35.52395,4.610755E-10,4.610755E-10,-4.504582,-13.21085
'[19:13:07.292 20/01/2026]',14.51232,-1.062725,0.9065638,6.23084,4.610755E-10,4.610755E-10,0.6027222,-2.110776
'[19:13:07.300 20/01/2026]',26.44528,-3.406197,-5.709354,21.65893,4.610755E-10,4.610755E-10,0.1487128,8.540318
'[19:13:07.308 20/01/2026]',-40.15449,-2.012216,1.292238,-9.747021,4.610755E-10,4.610755E-10,-2.90439,-3.54736
'[19:13:07.316 20/01/2026]',29.20096,10.37988,6.319321,-12.04747,4.610755E-10,4.610755E-10,5.294082,-0.8406545
'[19:13:07.324 20/01/2026]',-15.46981,-8.150745,-7.336873,12.4646,4.610755E-10,4.610755E-10,-2.230605,1.099822
'[19:13:07.332 20/01/2026]',17.3631,-0.5982133,1.994391,1.888152,4.610755E-10,4.610755E-10,-3.756593,-1.148207
'[19:13:07.340 20/01/2026]',-20.91243,0.8053424,-1.014479,-13.38338,4.610755E-10,4.610755E-10,1.273182,-3.60685
'[19:13:07.348 20/01/2026]',-20.91243,0.8053424,-1.014479,-13.38338,4.610755E-10,4.610755E-10,1.273182,-3.60685
'[19:13:07.356 20/01/2026]',15.59525,4.82044,5.242527,11.9411,4.610755E-10,4.610755E-10,6.028799,10.37176
'[19:13:07.364 20/01/2026]',-19.06861,-5.64543,-6.117804,-0.1857557,4.610755E-10,4.610755E-10,-6.620495,-9.471558
'[19:13:07.372 20/01/2026]',-19.06861,-5.64543,-6.117804,-0.1857557,4.610755E-10,4.610755E-10,-6.620495,-9.471558
'[19:13:07.380 20/01/2026]',28.57596,5.557681,4.340074,-0.6441762,4.610755E-10,4.610755E-10,4.909632,6.110684
'[19:13:07.388 20/01/2026]',-13.29346,-4.039257,-1.14404,1.33121,4.610755E-10,4.610755E-10,-1.858151,1.590687
'[19:13:07.396 20/01/2026]',-8.528089,-2.04242,-2.787389,-5.292459,4.610755E-10,4.610755E-10,-4.859162,-9.699429
'[19:13:07.404 20/01/2026]',-8.528089,-2.04242,-2.787389,-5.292459,4.610755E-10,4.610755E-10,-4.859162,-9.699429
'[19:13:07.412 20/01/2026]',-8.528089,-2.04242,-2.787389,-5.292459,4.610755E-10,4.610755E-10,-4.859162,-9.699429
'[19:13:07.420 20/01/2026]',10.971,3.673347,-0.3324672,-1.172325,4.610755E-10,4.610755E-10,6.814126,7.50845
'[19:13:07.428 20/01/2026]',10.971,3.673347,-0.3324672,-1.172325,4.610755E-10,4.610755E-10,6.814126,7.50845
'[19:13:07.436 20/01/2026]',-7.336992,1.021016,6.242298,6.64192,4.610755E-10,4.610755E-10,-1.84182,-1.69867
'[19:13:07.444 20/01/2026]',-7.336992,1.021016,6.242298,6.64192,4.610755E-10,4.610755E-10,-1.84182,-1.69867
'[19:13:07.452 20/01/2026]',9.356517,-1.012247,-2.171947,-2.465882,4.610755E-10,4.610755E-10,-1.254436,0.3748062
'[19:13:07.460 20/01/2026]',9.356517,-1.012247,-2.171947,-2.465882,4.610755E-10,4.610755E-10,-1.254436,0.3748062
'[19:13:07.468 20/01/2026]',-11.11476,-2.993974,-4.341063,-4.568487,4.610755E-10,4.610755E-10,1.681966,1.632112
'[19:13:07.476 20/01/2026]',-11.11476,-2.993974,-4.341063,-4.568487,4.610755E-10,4.610755E-10,1.681966,1.632112
'[19:13:07.484 20/01/2026]',9.009622,5.422425,5.135197,13.13695,4.610755E-10,4.610755E-10,-0.06922947,-0.6450043
'[19:13:07.492 20/01/2026]',9.009622,5.422425,5.135197,13.13695,4.610755E-10,4.610755E-10,-0.06922947,-0.6450043
'[19:13:07.500 20/01/2026]',9.009622,5.422425,5.135197,13.13695,4.610755E-10,4.610755E-10,-0.06922947,-0.6450043
'[19:13:07.508 20/01/2026]',9.009622,5.422425,5.135197,13.13695,4.610755E-10,4.610755E-10,-0.06922947,-0.6450043
'[19:13:07.516 20/01/2026]',10.7132,-4.567213,-2.857975,-12.78414,4.610755E-10,4.610755E-10,-2.051817,0.2687256
'[19:13:07.524 20/01/2026]',-42.75521,-0.6014841,-1.327458,4.06566,4.610755E-10,4.610755E-10,0.1699151,-3.781114
'[19:13:07.532 20/01/2026]',65.93632,10.53792,8.334151,19.97714,4.610755E-10,4.610755E-10,10.26355,11.21101
'[19:13:07.540 20/01/2026]',-57.24966,-11.91132,-12.9556,-36.64908,4.610755E-10,4.610755E-10,-14.49197,-14.05037
'[19:13:07.548 20/01/2026]',10.95363,-2.643854,0.6290095,10.15956,4.610755E-10,4.610755E-10,-3.041505,-5.4948
'[19:13:07.556 20/01/2026]',9.781331,6.989676,8.432763,6.509288,4.610755E-10,4.610755E-10,7.254059,8.048916
'[19:13:07.564 20/01/2026]',1.358869,6.518626,2.030497,6.437001,4.610755E-10,4.610755E-10,8.879337,10.554
'[19:13:07.572 20/01/2026]',-2.502443,-12.02761,-9.720352,-10.06638,4.610755E-10,4.610755E-10,-11.08448,-8.788456
'[19:13:07.580 20/01/2026]',-3.888265,2.523304,2.618058,4.107998,4.610755E-10,4.610755E-10,-0.1072205,-6.48142
'[19:13:07.588 20/01/2026]',23.65946,2.338197,2.861152,3.256758,4.610755E-10,4.610755E-10,3.04841,7.430139
'[19:13:07.596 20/01/2026]',-41.49566,0.7731259,-1.949543,-11.37281,4.610755E-10,4.610755E-10,-0.5520031,-2.47796
'[19:13:07.604 20/01/2026]',41.65055,-2.61862,-0.1727616,4.448696,4.610755E-10,4.610755E-10,-0.6611451,2.040196
'[19:13:07.612 20/01/2026]',-29.13278,-2.151528,1.357442,16.8027,4.610755E-10,4.610755E-10,1.849243,3.46859
'[19:13:07.620 20/01/2026]',15.00829,-1.245838,-5.897696,-19.26927,4.610755E-10,4.610755E-10,-3.382738,-9.894537
'[19:13:07.628 20/01/2026]',4.556727,11.25986,8.149127,6.082736,4.610755E-10,4.610755E-10,0.8739581,5.623899
'[19:13:07.636 20/01/2026]',-21.74426,-10.73358,-7.473939,-1.848066,4.610755E-10,4.610755E-10,0.3588268,2.267859
'[19:13:07.644 20/01/2026]',26.4139,2.603905,5.35981,-1.28596,4.610755E-10,4.610755E-10,0.1401038,-5.345657
'[19:13:07.652 20/01/2026]',-16.42099,0.06497218,-2.127261,6.834125,4.610755E-10,4.610755E-10,-0.060809,4.033083
'[19:13:07.660 20/01/2026]',0.1000345,1.027225,-0.4220985,-8.461248,4.610755E-10,4.610755E-10,-2.293687,-4.28547
'[19:13:07.668 20/01/2026]',0.7287134,-1.494836,0.3684284,0.3667317,4.610755E-10,4.610755E-10,1.906922,2.617871
'[19:13:07.676 20/01/2026]',2.325218,3.003634,1.899304,7.217774,4.610755E-10,4.610755E-10,2.190042,0.6605999
'[19:13:07.684 20/01/2026]',-1.534532,-6.005217,-6.226264,-20.00487,4.610755E-10,4.610755E-10,-9.359259,-7.009984
'[19:13:07.692 20/01/2026]',-5.649914,10.19532,9.533127,30.81359,4.610755E-10,4.610755E-10,13.30291,15.72599
'[19:13:07.700 20/01/2026]',25.36388,-3.254441,-3.031734,-12.53537,4.610755E-10,4.610755E-10,-6.407161,-12.33414
'[19:13:07.708 20/01/2026]',-39.04935,-3.428169,-2.100863,-22.46308,4.610755E-10,4.610755E-10,-2.256635,-2.144043
'[19:13:07.716 20/01/2026]',30.79423,3.939774,2.451954,30.65365,4.610755E-10,4.610755E-10,7.316986,15.80364
'[19:13:07.724 20/01/2026]',0.9844441,-5.504656,-4.759563,-14.04693,4.610755E-10,4.610755E-10,-9.335836,-16.03594
'[19:13:07.732 20/01/2026]',-19.43229,-0.3752171,1.648971,-0.3278923,4.610755E-10,4.610755E-10,3.034055,5.30095
'[19:13:07.740 20/01/2026]',16.51355,14.87714,12.05891,16.26133,4.610755E-10,4.610755E-10,15.12244,14.62656
'[19:13:07.748 20/01/2026]',3.009216,-21.79153,-20.86704,-20.19683,4.610755E-10,4.610755E-10,-25.07019,-24.55565
'[19:13:07.756 20/01/2026]',-23.34469,10.60577,10.66123,10.82637,4.610755E-10,4.610755E-10,13.04701,13.44424
'[19:13:07.764 20/01/2026]',23.1422,3.285192,4.943054,-9.441735,4.610755E-10,4.610755E-10,3.200004,-1.356865
'[19:13:07.772 20/01/2026]',-15.97177,-5.204139,-6.678472,12.73398,4.610755E-10,4.610755E-10,-10.24082,-4.468026
'[19:13:07.780 20/01/2026]',0.1882272,0.6811555,-2.842611,-12.1806,4.610755E-10,4.610755E-10,5.761234,1.697088
'[19:13:07.788 20/01/2026]',16.75332,1.216302,6.200631,2.404927,4.610755E-10,4.610755E-10,-0.2085375,2.604416
'[19:13:07.796 20/01/2026]',-14.38111,7.964515,8.864873,17.98877,4.610755E-10,4.610755E-10,7.548345,5.818207
'[19:13:07.804 20/01/2026]',3.931966,-14.98564,-17.57954,-24.27892,4.610755E-10,4.610755E-10,-13.715,-12.88026
'[19:13:07.812 20/01/2026]',-11.64223,3.827406,1.964194,3.109876,4.610755E-10,4.610755E-10,1.981014,0.7590019
'[19:13:07.820 20/01/2026]',20.80497,11.47264,15.03155,11.67937,4.610755E-10,4.610755E-10,13.14785,12.76868
'[19:13:07.828 20/01/2026]',-19.54978,-10.29287,-10.18635,-0.4920885,4.610755E-10,4.610755E-10,-8.641082,-7.309074
'[19:13:07.836 20/01/2026]',16.07297,-4.061495,-10.43475,-16.01655,4.610755E-10,4.610755E-10,-13.22589,-13.81945
'[19:13:07.844 20/01/2026]',16.07297,-4.061495,-10.43475,-16.01655,4.610755E-10,4.610755E-10,-13.22589,-13.81945
'[19:13:07.852 20/01/2026]',-3.016457,16.13771,19.12808,7.958583,4.610755E-10,4.610755E-10,21.81574,22.17962
'[19:13:07.860 20/01/2026]',-3.016457,16.13771,19.12808,7.958583,4.610755E-10,4.610755E-10,21.81574,22.17962
'[19:13:07.868 20/01/2026]',-10.53953,-13.01175,-6.731577,23.70415,4.610755E-10,4.610755E-10,-1.680309,-0.2555678
'[19:13:07.876 20/01/2026]',27.91926,-3.196724,-8.638557,-29.33013,4.610755E-10,4.610755E-10,-16.66209,-15.70738
'[19:13:07.884 20/01/2026]',-53.23123,13.88093,12.0653,-3.801743,4.610755E-10,4.610755E-10,15.00373,5.710675
'[19:13:07.892 20/01/2026]',-53.23123,13.88093,12.0653,-3.801743,4.610755E-10,4.610755E-10,15.00373,5.710675
'[19:13:07.900 20/01/2026]',55.81597,-11.6204,-5.824795,23.62489,4.610755E-10,4.610755E-10,-1.826503,5.914879
'[19:13:07.908 20/01/2026]',-32.67386,3.175806,1.469828,-9.107086,4.610755E-10,4.610755E-10,-8.414446,-5.509743
'[19:13:07.916 20/01/2026]',-32.67386,3.175806,1.469828,-9.107086,4.610755E-10,4.610755E-10,-8.414446,-5.509743
'[19:13:07.924 20/01/2026]',-32.67386,3.175806,1.469828,-9.107086,4.610755E-10,4.610755E-10,-8.414446,-5.509743
'[19:13:07.932 20/01/2026]',-32.67386,3.175806,1.469828,-9.107086,4.610755E-10,4.610755E-10,-8.414446,-5.509743
'[19:13:07.940 20/01/2026]',8.767417,-0.7667801,-2.864898,-12.11827,4.610755E-10,4.610755E-10,5.528516,-1.525892
'[19:13:07.948 20/01/2026]',-17.48787,-0.8260918,0.2955704,8.189038,4.610755E-10,4.610755E-10,0.2285124,3.239594
'[19:13:07.956 20/01/2026]',-17.48787,-0.8260918,0.2955704,8.189038,4.610755E-10,4.610755E-10,0.2285124,3.239594
'[19:13:07.964 20/01/2026]',-17.48787,-0.8260918,0.2955704,8.189038,4.610755E-10,4.610755E-10,0.2285124,3.239594
'[19:13:07.972 20/01/2026]',27.08344,-2.994036,-0.9691331,1.365603,4.610755E-10,4.610755E-10,-6.895841,-4.854027
'[19:13:07.980 20/01/2026]',27.08344,-2.994036,-0.9691331,1.365603,4.610755E-10,4.610755E-10,-6.895841,-4.854027
'[19:13:07.988 20/01/2026]',-15.8051,11.70602,10.03193,4.870909,4.610755E-10,4.610755E-10,12.16661,9.053614
'[19:13:07.996 20/01/2026]',-15.8051,11.70602,10.03193,4.870909,4.610755E-10,4.610755E-10,12.16661,9.053614
'[19:13:08.004 20/01/2026]',-15.8051,11.70602,10.03193,4.870909,4.610755E-10,4.610755E-10,12.16661,9.053614
'[19:13:08.012 20/01/2026]',7.568621,-6.110636,-7.446117,-19.58534,4.610755E-10,4.610755E-10,-6.470476,-7.572377
'[19:13:08.020 20/01/2026]',7.568621,-6.110636,-7.446117,-19.58534,4.610755E-10,4.610755E-10,-6.470476,-7.572377
'[19:13:08.028 20/01/2026]',7.568621,-6.110636,-7.446117,-19.58534,4.610755E-10,4.610755E-10,-6.470476,-7.572377
'[19:13:08.036 20/01/2026]',-5.709027,-3.670012,1.419539,23.40372,4.610755E-10,4.610755E-10,-0.03135191,4.733456
'[19:13:08.044 20/01/2026]',0.6193804,-0.5841367,-4.768891,-4.443594,4.610755E-10,4.610755E-10,-0.926083,-2.424667
'[19:13:08.052 20/01/2026]',20.305,13.88882,12.39178,0.8454961,4.610755E-10,4.610755E-10,8.347897,7.172891
'[19:13:08.060 20/01/2026]',20.305,13.88882,12.39178,0.8454961,4.610755E-10,4.610755E-10,8.347897,7.172891
'[19:13:08.068 20/01/2026]',20.305,13.88882,12.39178,0.8454961,4.610755E-10,4.610755E-10,8.347897,7.172891
'[19:13:08.076 20/01/2026]',-37.93607,-19.47222,-15.07684,-13.50356,4.610755E-10,4.610755E-10,-13.54632,-14.27569
'[19:13:08.084 20/01/2026]',-37.93607,-19.47222,-15.07684,-13.50356,4.610755E-10,4.610755E-10,-13.54632,-14.27569
'[19:13:08.092 20/01/2026]',18.93149,4.300364,2.271399,5.03307,4.610755E-10,4.610755E-10,3.912947,5.347326
'[19:13:08.100 20/01/2026]',18.93149,4.300364,2.271399,5.03307,4.610755E-10,4.610755E-10,3.912947,5.347326
'[19:13:08.108 20/01/2026]',18.38902,17.65979,15.39635,15.28831,4.610755E-10,4.610755E-10,13.0035,11.31949
'[19:13:08.116 20/01/2026]',18.38902,17.65979,15.39635,15.28831,4.610755E-10,4.610755E-10,13.0035,11.31949
'[19:13:08.124 20/01/2026]',-21.36427,-17.59926,-12.73008,-15.01723,4.610755E-10,4.610755E-10,-12.64213,-12.12347
'[19:13:08.132 20/01/2026]',-14.94539,0.7954121,-3.209679,6.067923,4.610755E-10,4.610755E-10,1.540792,2.747355
'[19:13:08.140 20/01/2026]',49.74839,10.67666,12.73484,-2.518137,4.610755E-10,4.610755E-10,5.998805,4.883979
'[19:13:08.148 20/01/2026]',-49.00217,-5.566531,-8.83261,0.1896908,4.610755E-10,4.610755E-10,-3.297906,-5.341315
'[19:13:08.156 20/01/2026]',29.77632,-2.104223,1.121882,19.48634,4.610755E-10,4.610755E-10,-0.6186173,3.674154
'[19:13:08.164 20/01/2026]',-3.06145,-3.057343,-3.843356,-28.38581,4.610755E-10,4.610755E-10,-4.231611,-5.385894
'[19:13:08.172 20/01/2026]',-38.62085,9.681933,5.755001,-2.552032,4.610755E-10,4.610755E-10,5.709254,2.338121
'[19:13:08.180 20/01/2026]',60.66299,-4.476839,-1.465802,13.46346,4.610755E-10,4.610755E-10,-3.376087,-3.671655
'[19:13:08.188 20/01/2026]',-60.21785,-3.815557,-1.773982,7.559986,4.610755E-10,4.610755E-10,3.342761,8.697264
'[19:13:08.196 20/01/2026]',51.55113,6.29339,3.980892,-18.79169,4.610755E-10,4.610755E-10,-2.821199,-4.854952
'[19:13:08.204 20/01/2026]',-33.02105,-0.4517892,0.8347615,17.87566,4.610755E-10,4.610755E-10,3.402508,-1.577896
'[19:13:08.212 20/01/2026]',34.63773,-5.59286,-3.48023,1.52464,4.610755E-10,4.610755E-10,0.06992985,7.751579
'[19:13:08.220 20/01/2026]',-45.48645,2.822677,-2.162041,-21.99284,4.610755E-10,4.610755E-10,-6.7405,-9.903793
'[19:13:08.228 20/01/2026]',33.82982,0.9152422,4.213572,12.51293,4.610755E-10,4.610755E-10,7.568539,5.26306
'[19:13:08.236 20/01/2026]',-8.279028,3.719151,3.021707,12.05083,4.610755E-10,4.610755E-10,-1.237151,3.55859
'[19:13:08.244 20/01/2026]',-0.4044373,-12.34212,-9.842466,-16.887,4.610755E-10,4.610755E-10,-10.28964,-13.38025
'[19:13:08.252 20/01/2026]',-1.672746,9.483315,8.940323,9.533661,4.610755E-10,4.610755E-10,14.94023,17.09282
'[19:13:08.260 20/01/2026]',-1.351213,-2.24867,-4.179187,-10.72333,4.610755E-10,4.610755E-10,-7.549728,-11.74469
'[19:13:08.268 20/01/2026]',7.291062,0.3081557,1.213637,12.03363,4.610755E-10,4.610755E-10,-0.7678421,1.690093
'[19:13:08.276 20/01/2026]',-8.821148,-1.861369,-1.608227,-7.304449,4.610755E-10,4.610755E-10,3.475941,7.40446
'[19:13:08.284 20/01/2026]',1.835231,-2.792493,-3.786803,-5.999674,4.610755E-10,4.610755E-10,-5.889239,-11.66162
'[19:13:08.292 20/01/2026]',5.643684,9.46625,11.41041,21.19253,4.610755E-10,4.610755E-10,9.255254,10.30181
'[19:13:08.300 20/01/2026]',4.730925,-10.34757,-10.06856,-22.4828,4.610755E-10,4.610755E-10,-10.46877,-4.637867
'[19:13:08.308 20/01/2026]',-26.93986,3.436575,1.607542,9.04728,4.610755E-10,4.610755E-10,5.625354,-1.804039
'[19:13:08.316 20/01/2026]',46.73097,2.684668,1.744139,17.0917,4.610755E-10,4.610755E-10,3.065791,6.95405
'[19:13:08.324 20/01/2026]',-38.70098,-0.7077978,0.9936872,-33.69701,4.610755E-10,4.610755E-10,-4.812314,-3.181257
'[19:13:08.332 20/01/2026]',6.754186,-4.477117,-2.370113,11.96737,4.610755E-10,4.610755E-10,-0.5957408,-5.069564
'[19:13:08.340 20/01/2026]',19.87984,1.911564,-0.1864395,17.53834,4.610755E-10,4.610755E-10,2.216368,7.392473
'[19:13:08.348 20/01/2026]',-10.2944,4.721898,4.908369,-11.94505,4.610755E-10,4.610755E-10,5.681987,2.993871
'[19:13:08.356 20/01/2026]',-12.50518,-5.39882,-6.927582,-7.069744,4.610755E-10,4.610755E-10,-11.3414,-11.3436
'[19:13:08.364 20/01/2026]',21.18471,-4.099223,-2.835221,7.870704,4.610755E-10,4.610755E-10,1.930025,1.996101
'[19:13:08.372 20/01/2026]',-7.382946,10.24541,9.587736,4.909893,4.610755E-10,4.610755E-10,9.877157,9.489267
'[19:13:08.380 20/01/2026]',-12.3166,-6.27758,-6.247334,-16.57134,4.610755E-10,4.610755E-10,-11.0185,-10.33043
'[19:13:08.388 20/01/2026]',12.43774,-0.6651269,0.7758219,12.94508,4.610755E-10,4.610755E-10,1.026964,1.773872
'[19:13:08.396 20/01/2026]',-3.615445,2.608798,2.143847,2.75973,4.610755E-10,4.610755E-10,8.616427,5.471855
'[19:13:08.404 20/01/2026]',-2.685149,-2.153932,-3.807404,-15.1647,4.610755E-10,4.610755E-10,-12.26459,-8.398231
'[19:13:08.412 20/01/2026]',2.434851,6.864977,8.395644,15.79197,4.610755E-10,4.610755E-10,12.92862,9.405068
'[19:13:08.420 20/01/2026]',-24.85963,-16.79944,-14.81409,-19.10643,4.610755E-10,4.610755E-10,-16.83216,-18.60745
'[19:13:08.428 20/01/2026]',-24.85963,-16.79944,-14.81409,-19.10643,4.610755E-10,4.610755E-10,-16.83216,-18.60745
'[19:13:08.436 20/01/2026]',28.4911,11.55663,9.881435,6.444572,4.610755E-10,4.610755E-10,9.071032,9.978876
'[19:13:08.444 20/01/2026]',-6.072041,3.654014,4.26233,13.75211,4.610755E-10,4.610755E-10,5.810521,10.89245
'[19:13:08.452 20/01/2026]',-4.957328,-8.492175,-8.118309,-10.97291,4.610755E-10,4.610755E-10,-9.512692,-13.81825
'[19:13:08.460 20/01/2026]',-4.957328,-8.492175,-8.118309,-10.97291,4.610755E-10,4.610755E-10,-9.512692,-13.81825
'[19:13:08.468 20/01/2026]',-4.957328,-8.492175,-8.118309,-10.97291,4.610755E-10,4.610755E-10,-9.512692,-13.81825
'[19:13:08.476 20/01/2026]',-4.957328,-8.492175,-8.118309,-10.97291,4.610755E-10,4.610755E-10,-9.512692,-13.81825
'[19:13:08.484 20/01/2026]',2.744987,-0.3658388,0.5443999,-3.935704,4.610755E-10,4.610755E-10,2.043795,-1.212608
'[19:13:08.492 20/01/2026]',-9.307187,4.467072,3.543458,-4.576686,4.610755E-10,4.610755E-10,2.443236,8.419767
'[19:13:08.500 20/01/2026]',-12.71209,-17.30272,-8.926965,20.91658,4.610755E-10,4.610755E-10,-0.3841056,-0.2872712
'[19:13:08.508 20/01/2026]',-12.71209,-17.30272,-8.926965,20.91658,4.610755E-10,4.610755E-10,-0.3841056,-0.2872712
'[19:13:08.516 20/01/2026]',-12.71209,-17.30272,-8.926965,20.91658,4.610755E-10,4.610755E-10,-0.3841056,-0.2872712
'[19:13:08.524 20/01/2026]',-12.71209,-17.30272,-8.926965,20.91658,4.610755E-10,4.610755E-10,-0.3841056,-0.2872712
'[19:13:08.532 20/01/2026]',44.92261,16.55661,2.430525,-21.8039,4.610755E-10,4.610755E-10,-3.799999,-7.113056
'[19:13:08.540 20/01/2026]',-24.79006,24.57459,20.89907,4.70496,4.610755E-10,4.610755E-10,-0.4522713,-1.019733
'[19:13:08.548 20/01/2026]',-24.79006,24.57459,20.89907,4.70496,4.610755E-10,4.610755E-10,-0.4522713,-1.019733
'[19:13:08.556 20/01/2026]',-24.79006,24.57459,20.89907,4.70496,4.610755E-10,4.610755E-10,-0.4522713,-1.019733
'[19:13:08.564 20/01/2026]',-24.79006,24.57459,20.89907,4.70496,4.610755E-10,4.610755E-10,-0.4522713,-1.019733
'[19:13:08.572 20/01/2026]',8.077495,-29.01853,-15.16378,12.95898,4.610755E-10,4.610755E-10,9.016013,8.418702
'[19:13:08.580 20/01/2026]',-28.57305,-11.6092,-13.19658,-16.35725,4.610755E-10,4.610755E-10,-10.42507,-7.655086
'[19:13:08.588 20/01/2026]',27.38964,20.86881,15.95347,6.917752,4.610755E-10,4.610755E-10,1.737652,3.325897
'[19:13:08.596 20/01/2026]',27.38964,20.86881,15.95347,6.917752,4.610755E-10,4.610755E-10,1.737652,3.325897
'[19:13:08.604 20/01/2026]',27.38964,20.86881,15.95347,6.917752,4.610755E-10,4.610755E-10,1.737652,3.325897
'[19:13:08.612 20/01/2026]',27.38964,20.86881,15.95347,6.917752,4.610755E-10,4.610755E-10,1.737652,3.325897
'[19:13:08.620 20/01/2026]',-5.797029,1.784079,0.6409087,-1.588132,4.610755E-10,4.610755E-10,5.623918,0.443399
'[19:13:08.628 20/01/2026]',9.702943,-12.37801,-6.777103,10.6783,4.610755E-10,4.610755E-10,-1.026459,3.766946
