'Time and date','Fp1','Fp2','F3','Fz','F4','P3','Pz','P4','AccX','AccY','AccZ','GyroX','GyroY','GyroZ','Battery','Event'
'[hh:mm:ss.mmm dd/mm/yyyy]','uV','uV','uV','uV','uV','uV','uV','uV','G','G','G','Deg/s','Deg/s','Deg/s','%','Button'
'[13:33:00.000 20/01/2026]',-105225.3,-188265.1,-113874.7,-134291.9,-375000,-375000,-150668,-121671.6,0.03,-0.02,0.88,-4,0,-2,49,0
'[13:33:00.004 20/01/2026]',-105226.3,-188252.8,-113876.6,-134212.5,-375000,-375000,-150644.7,-121664.6,0.03,-0.02,0.88,-4,0,-2,49,0
'[13:33:00.008 20/01/2026]',-105272.7,-188327.8,-113813.6,-133946.4,-375000,-375000,-150538.5,-121694.3,0.03,-0.02,0.88,-4,0,-2,49,0
'[13:33:00.012 20/01/2026]',-105303,-188359.8,-113838.1,-134032.7,-375000,-375000,-150579.5,-121725.6,0.03,-0.02,0.88,-4,0,-2,49,0
'[13:33:00.016 20/01/2026]',-105291.2,-188341,-113935.9,-134344,-375000,-375000,-150722,-121722.2,0.03,-0.02,0.88,-4,0,-2,49,0
'[13:33:00.020 20/01/2026]',-105274.4,-188316.5,-113937.9,-134294.8,-375000,-375000,-150700.9,-121697.2,0.03,-0.02,0.88,-4,0,-2,49,0
'[13:33:00.024 20/01/2026]',-105287.6,-188337.9,-113833,-133986,-375000,-375000,-150557.6,-121703.8,0.03,-0.02,0.88,-4,0,-2,49,0
'[13:33:00.028 20/01/2026]',-105287.8,-188360.3,-113787.5,-133935,-375000,-375000,-150511.8,-121703.5,0.03,-0.02,0.88,-4,0,-2,49,0
'[13:33:00.032 20/01/2026]',-105282,-188332.1,-113884.1,-134261.9,-375000,-375000,-150656.3,-121706.9,0.03,-0.02,0.88,-4,0,-2,49,0
'[13:33:00.036 20/01/2026]',-105314.1,-188348.5,-114014.9,-134433.3,-375000,-375000,-150782.2,-121732,0.03,0.00,0.91,-4,0,-2,49,0
'[13:33:00.040 20/01/2026]',-105389.4,-188432.2,-114017,-134226.1,-375000,-375000,-150734.1,-121794.8,0.03,0.00,0.91,-4,0,-2,49,0
'[13:33:00.044 20/01/2026]',-105377.3,-188417.2,-113892.7,-133994.3,-375000,-375000,-150600.3,-121783.3,0.03,0.00,0.91,-4,0,-2,49,0
'[13:33:00.048 20/01/2026]',-105326.7,-188352.6,-113903.7,-134241.4,-375000,-375000,-150684.2,-121763.8,0.03,0.00,0.91,-4,0,-2,49,0
'[13:33:00.052 20/01/2026]',-105287.5,-188313.9,-113930.5,-134323,-375000,-375000,-150719.9,-121725.3,0.03,0.00,0.91,-4,0,-2,49,0
'[13:33:00.056 20/01/2026]',-105317.3,-188372.5,-113889.7,-134126,-375000,-375000,-150647,-121734.8,0.03,0.00,0.91,-4,0,-2,49,0
'[13:33:00.060 20/01/2026]',-105351.9,-188425.6,-113854.3,-133982,-375000,-375000,-150586.9,-121760.7,0.03,0.00,0.91,-4,0,-2,49,0
'[13:33:00.064 20/01/2026]',-105330.7,-188400.1,-113896.5,-134193.2,-375000,-375000,-150662.6,-121760.7,0.03,0.00,0.91,-4,0,-2,49,0
'[13:33:00.068 20/01/2026]',-105278.7,-188329.9,-113917.5,-134312.8,-375000,-375000,-150706.3,-121712.6,0.03,0.00,0.91,-4,0,-2,49,0
'[13:33:00.072 20/01/2026]',-105282.9,-188327.3,-113868.3,-134120.3,-375000,-375000,-150619.5,-121702.6,0.02,0.00,0.89,-4,0,-2,49,0
'[13:33:00.076 20/01/2026]',-105296,-188350.6,-113774.8,-133875.4,-375000,-375000,-150495.4,-121706.6,0.02,0.00,0.89,-4,0,-2,49,0
'[13:33:00.080 20/01/2026]',-105285.3,-188329.1,-113794.8,-134063.8,-375000,-375000,-150565.3,-121710.1,0.02,0.00,0.89,-4,0,-2,49,0
'[13:33:00.084 20/01/2026]',-105258.8,-188273.4,-113875.7,-134297.1,-375000,-375000,-150676.4,-121690.1,0.02,0.00,0.89,-4,0,-2,49,0
'[13:33:00.088 20/01/2026]',-105279,-188314.7,-113888,-134196.6,-375000,-375000,-150654.7,-121697.3,0.02,0.00,0.89,-4,0,-2,49,0
'[13:33:00.092 20/01/2026]',-105343,-188404.3,-113861.3,-134004.8,-375000,-375000,-150593.9,-121743.2,0.02,0.00,0.89,-4,0,-2,49,0
'[13:33:00.096 20/01/2026]',-105373.1,-188426.1,-113919.1,-134177.2,-375000,-375000,-150678.9,-121788.9,0.02,0.00,0.89,-4,0,-2,49,0
'[13:33:00.100 20/01/2026]',-105358.9,-188403.3,-114022.1,-134434.7,-375000,-375000,-150798.6,-121785.3,0.02,0.00,0.89,-4,0,-2,49,0
'[13:33:00.104 20/01/2026]',-105303.4,-188347.6,-113917.2,-134214.3,-375000,-375000,-150670.3,-121725,0.02,0.00,0.89,-4,0,-2,49,0
'[13:33:00.108 20/01/2026]',-105300.8,-188355.6,-113771.4,-133891.4,-375000,-375000,-150499.8,-121705.1,0.02,0.00,0.89,-4,0,-2,49,0
'[13:33:00.112 20/01/2026]',-105301.3,-188364.4,-113760.4,-133940.1,-375000,-375000,-150505,-121709,0.02,0.00,0.89,-4,0,-2,49,0
'[13:33:00.116 20/01/2026]',-105268.4,-188316.1,-113842.2,-134232,-375000,-375000,-150630.4,-121695.8,0.02,0.00,0.89,-4,0,-2,49,0
'[13:33:00.120 20/01/2026]',-105238.3,-188287.3,-113832.9,-134190.8,-375000,-375000,-150609.3,-121657.9,0.02,0.00,0.89,-4,0,-2,49,0
'[13:33:00.124 20/01/2026]',-105271,-188320.4,-113759.1,-133937.8,-375000,-375000,-150498.9,-121669.3,0.02,0.00,0.89,-4,0,-2,49,0
'[13:33:00.128 20/01/2026]',-105282.4,-188323.6,-113735.2,-133918.7,-375000,-375000,-150484,-121685.8,0.02,0.00,0.89,-4,0,-2,49,0
'[13:33:00.132 20/01/2026]',-105253.4,-188286.8,-113817,-134206.3,-375000,-375000,-150611.8,-121683.1,0.02,0.00,0.89,-4,0,-2,49,0
'[13:33:00.136 20/01/2026]',-105226.1,-188272.2,-113846.1,-134239.8,-375000,-375000,-150634.9,-121653.7,0.02,0.00,0.89,-4,0,-2,49,0
'[13:33:00.140 20/01/2026]',-105256.1,-188304.5,-113756.8,-133974.8,-375000,-375000,-150520.3,-121664.3,0.02,0.00,0.89,-4,0,-2,49,0
'[13:33:00.144 20/01/2026]',-105286.7,-188334.6,-113732.4,-133887.9,-375000,-375000,-150477.4,-121687.5,0.03,0.00,0.88,-4,0,-2,49,0
'[13:33:00.148 20/01/2026]',-105273.8,-188311.1,-113812.5,-134175.6,-375000,-375000,-150609.1,-121695.2,0.03,0.00,0.88,-4,0,-2,49,0
'[13:33:00.152 20/01/2026]',-105230.5,-188282.9,-113849.2,-134252.4,-375000,-375000,-150644.2,-121658.4,0.03,0.00,0.88,-4,0,-2,49,0
'[13:33:00.156 20/01/2026]',-105227.2,-188291.3,-113767.6,-133993.9,-375000,-375000,-150521.5,-121647,0.03,0.00,0.88,-4,0,-2,49,0
'[13:33:00.160 20/01/2026]',-105242.9,-188295.2,-113699.5,-133813.9,-375000,-375000,-150430.2,-121653,0.03,0.00,0.88,-4,0,-2,49,0
'[13:33:00.164 20/01/2026]',-105232.2,-188263,-113746.6,-134057.6,-375000,-375000,-150531.6,-121652.8,0.03,0.00,0.88,-4,0,-2,49,0
'[13:33:00.168 20/01/2026]',-105190.4,-188227.1,-113787.8,-134210.8,-375000,-375000,-150599.4,-121613.7,0.03,0.00,0.88,-4,0,-2,49,0
'[13:33:00.172 20/01/2026]',-105193.2,-188239.5,-113733.3,-134006,-375000,-375000,-150514,-121605.9,0.03,0.00,0.88,-4,0,-2,49,0
'[13:33:00.176 20/01/2026]',-105220.8,-188262,-113671.5,-133792.6,-375000,-375000,-150418,-121622.9,0.03,0.00,0.88,-4,0,-2,49,0
'[13:33:00.180 20/01/2026]',-105228.1,-188264.1,-113727,-134025.3,-375000,-375000,-150519.1,-121645,0.03,0.00,0.89,-4,0,-2,49,0
'[13:33:00.184 20/01/2026]',-105198.2,-188238.2,-113771.7,-134228,-375000,-375000,-150611.8,-121624.8,0.03,0.00,0.89,-4,0,-2,49,0
'[13:33:00.188 20/01/2026]',-105182,-188235.9,-113728,-134052.5,-375000,-375000,-150531.9,-121609.5,0.03,0.00,0.89,-4,0,-2,49,0
'[13:33:00.192 20/01/2026]',-105210.7,-188278.6,-113655.9,-133797.9,-375000,-375000,-150411.8,-121617.5,0.03,0.00,0.89,-4,0,-2,49,0
'[13:33:00.196 20/01/2026]',-105225.7,-188279.2,-113700.8,-133953.2,-375000,-375000,-150473.2,-121632.6,0.03,0.00,0.89,-4,0,-2,49,0
'[13:33:00.200 20/01/2026]',-105187.8,-188233.3,-113777.3,-134199.1,-375000,-375000,-150584.7,-121618.1,0.03,0.00,0.89,-4,0,-2,49,0
'[13:33:00.204 20/01/2026]',-105161,-188195.4,-113734.3,-134066.6,-375000,-375000,-150525.5,-121588.3,0.03,0.00,0.89,-4,0,-2,49,0
'[13:33:00.208 20/01/2026]',-105205.9,-188243.3,-113674,-133826.1,-375000,-375000,-150419.7,-121605.6,0.03,0.00,0.89,-4,0,-2,49,0
'[13:33:00.212 20/01/2026]',-105237.9,-188270.2,-113713.2,-133925,-375000,-375000,-150470.7,-121644.8,0.03,0.00,0.89,-4,0,-2,49,0
'[13:33:00.216 20/01/2026]',-105209.2,-188252.9,-113785.7,-134197.3,-375000,-375000,-150595.8,-121642.1,0.03,0.00,0.88,-4,0,-2,49,0
'[13:33:00.220 20/01/2026]',-105187.4,-188252.9,-113774.4,-134149.4,-375000,-375000,-150579.2,-121617.9,0.03,0.00,0.88,-4,0,-2,49,0
'[13:33:00.224 20/01/2026]',-105212.9,-188301.5,-113677.7,-133853.7,-375000,-375000,-150446.4,-121628,0.03,0.00,0.88,-4,0,-2,49,0
'[13:33:00.228 20/01/2026]',-105230.8,-188297.4,-113664.3,-133833.1,-375000,-375000,-150426.8,-121636.2,0.03,0.00,0.88,-4,0,-2,49,0
'[13:33:00.232 20/01/2026]',-105202,-188251.2,-113743,-134133,-375000,-375000,-150559.3,-121633.8,0.03,0.00,0.88,-4,0,-2,49,0
'[13:33:00.236 20/01/2026]',-105166.6,-188219.3,-113741.7,-134145.4,-375000,-375000,-150567.4,-121601.6,0.03,0.00,0.88,-4,0,-2,49,0
'[13:33:00.240 20/01/2026]',-105190.9,-188250,-113648.4,-133873.7,-375000,-375000,-150446.6,-121607.4,0.03,0.00,0.88,-4,0,-2,49,0
'[13:33:00.244 20/01/2026]',-105203.9,-188275.5,-113612,-133770.8,-375000,-375000,-150391.4,-121618.9,0.03,0.00,0.88,-4,0,-2,49,0
'[13:33:00.248 20/01/2026]',-105183.5,-188243.5,-113703.1,-134068.9,-375000,-375000,-150524.5,-121628.5,0.03,0.00,0.88,-4,0,-2,49,0
'[13:33:00.252 20/01/2026]',-105158.8,-188193.9,-113747.3,-134170.8,-375000,-375000,-150582.2,-121608.5,0.02,0.00,0.89,-4,0,-2,49,0
'[13:33:00.256 20/01/2026]',-105215,-188265.4,-113750.2,-134008.7,-375000,-375000,-150533.3,-121640.9,0.02,0.00,0.89,-4,0,-2,49,0
'[13:33:00.260 20/01/2026]',-105270.5,-188324,-113735.2,-133886.7,-375000,-375000,-150489.1,-121683.1,0.02,0.00,0.89,-4,0,-2,49,0
'[13:33:00.264 20/01/2026]',-105267.9,-188293.1,-113790.1,-134120.9,-375000,-375000,-150592.2,-121700.9,0.02,0.00,0.89,-4,0,-2,49,0
'[13:33:00.268 20/01/2026]',-105223.6,-188277.5,-113837.5,-134253.9,-375000,-375000,-150650.1,-121664.9,0.02,0.00,0.89,-4,0,-2,49,0
'[13:33:00.272 20/01/2026]',-105243.5,-188298.3,-113805.6,-134084.6,-375000,-375000,-150588.1,-121675.1,0.02,0.00,0.89,-4,0,-2,49,0
'[13:33:00.276 20/01/2026]',-105298.1,-188357.1,-113776.1,-133922.8,-375000,-375000,-150529.6,-121714.9,0.02,0.00,0.89,-4,0,-2,49,0
'[13:33:00.280 20/01/2026]',-105316.8,-188383.9,-113836.3,-134133.4,-375000,-375000,-150629.3,-121747,0.02,0.00,0.89,-4,0,-2,49,0
'[13:33:00.284 20/01/2026]',-105275.5,-188327.7,-113858.7,-134281.4,-375000,-375000,-150690.4,-121716.3,0.02,0.00,0.89,-4,0,-2,49,0
'[13:33:00.288 20/01/2026]',-105257.4,-188293.7,-113798,-134098.9,-375000,-375000,-150599.8,-121687.6,0.02,0.00,0.89,-4,0,-2,49,0
'[13:33:00.292 20/01/2026]',-105277.1,-188332.5,-113715.1,-133844.3,-375000,-375000,-150479.5,-121695.7,0.02,0.00,0.89,-4,0,-2,49,0
'[13:33:00.296 20/01/2026]',-105282.4,-188354,-113738.8,-133989.5,-375000,-375000,-150532.8,-121710.3,0.02,0.00,0.89,-4,0,-2,49,0
'[13:33:00.300 20/01/2026]',-105252.5,-188312.4,-113824.1,-134258.9,-375000,-375000,-150657.9,-121697.7,0.02,0.00,0.89,-4,0,-2,49,0
'[13:33:00.304 20/01/2026]',-105242.3,-188292.9,-113804.4,-134148.3,-375000,-375000,-150614.6,-121677.6,0.02,0.00,0.89,-4,0,-2,49,0
'[13:33:00.308 20/01/2026]',-105283.4,-188337.7,-113743.7,-133903.7,-375000,-375000,-150509,-121700.8,0.02,0.00,0.89,-4,0,-2,49,0
'[13:33:00.312 20/01/2026]',-105302.8,-188364.9,-113771.7,-133990.3,-375000,-375000,-150549.1,-121726.7,0.02,0.00,0.89,-4,0,-2,49,0
'[13:33:00.316 20/01/2026]',-105292.4,-188334,-113877.4,-134312.1,-375000,-375000,-150713.4,-121741.5,0.02,0.00,0.89,-4,0,-2,49,0
'[13:33:00.320 20/01/2026]',-105298.7,-188333.8,-113905.8,-134313.8,-375000,-375000,-150738.3,-121745.7,0.02,0.00,0.89,-4,0,-2,49,0
'[13:33:00.324 20/01/2026]',-105346.6,-188401.2,-113835.8,-134043,-375000,-375000,-150625.9,-121774.3,0.02,0.00,0.88,-4,0,-2,49,0
'[13:33:00.328 20/01/2026]',-105381,-188445.7,-113817.3,-133994.9,-375000,-375000,-150595.1,-121799.3,0.02,0.00,0.88,-4,0,-2,49,0
'[13:33:00.332 20/01/2026]',-105360.4,-188416.9,-113911.5,-134297.9,-375000,-375000,-150726.7,-121801.8,0.02,0.00,0.88,-4,0,-2,49,0
'[13:33:00.336 20/01/2026]',-105341,-188396,-113950.1,-134367.3,-375000,-375000,-150776,-121785.1,0.02,0.00,0.88,-4,0,-2,49,0
'[13:33:00.340 20/01/2026]',-105373.4,-188434.3,-113887.1,-134107.5,-375000,-375000,-150672.2,-121803.2,0.02,0.00,0.88,-4,0,-2,49,0
'[13:33:00.344 20/01/2026]',-105382,-188445.3,-113838.7,-133971.9,-375000,-375000,-150591.9,-121805.1,0.02,0.00,0.88,-4,0,-2,49,0
'[13:33:00.348 20/01/2026]',-105376.2,-188426.4,-113897.3,-134261.4,-375000,-375000,-150716.2,-121814.4,0.02,0.00,0.88,-4,0,-2,49,0
'[13:33:00.352 20/01/2026]',-105341.9,-188380.5,-113922.9,-134348.5,-375000,-375000,-150761.4,-121782.9,0.02,0.00,0.88,-4,0,-2,49,0
'[13:33:00.356 20/01/2026]',-105356.4,-188412.5,-113853.6,-134103.2,-375000,-375000,-150651,-121784.2,0.02,0.00,0.88,-4,0,-2,49,0
'[13:33:00.360 20/01/2026]',-105404.6,-188472.2,-113845.5,-133995,-375000,-375000,-150612.9,-121820.9,0.02,0.00,0.88,-4,0,-2,49,0
'[13:33:00.364 20/01/2026]',-105391.8,-188458.5,-113872,-134219.3,-375000,-375000,-150711.4,-121836.7,0.02,0.00,0.88,-4,0,-2,49,0
'[13:33:00.368 20/01/2026]',-105359.5,-188416.1,-113911.1,-134369.8,-375000,-375000,-150782.9,-121810.4,0.02,0.00,0.88,-4,0,-2,49,0
'[13:33:00.372 20/01/2026]',-105365,-188428.9,-113884.2,-134175.9,-375000,-375000,-150696.3,-121797.3,0.02,0.00,0.88,-4,0,-2,49,0
'[13:33:00.376 20/01/2026]',-105396.4,-188471.4,-113845.7,-133982.7,-375000,-375000,-150609.5,-121816.1,0.02,0.00,0.88,-4,0,-2,49,0
'[13:33:00.380 20/01/2026]',-105389.9,-188454.5,-113856.5,-134143.5,-375000,-375000,-150667.9,-121822.8,0.02,0.00,0.88,-4,0,-2,49,0
'[13:33:00.384 20/01/2026]',-105340.1,-188382.9,-113890.9,-134319.6,-375000,-375000,-150738,-121784.2,0.02,0.00,0.88,-4,0,-2,49,0
'[13:33:00.388 20/01/2026]',-105324.3,-188383.5,-113834.6,-134149,-375000,-375000,-150653.9,-121753.7,0.02,0.00,0.88,-4,0,-2,49,0
'[13:33:00.392 20/01/2026]',-105355.3,-188427.6,-113767,-133911.8,-375000,-375000,-150538.9,-121760.3,0.02,0.00,0.88,-4,0,-2,49,0
'[13:33:00.396 20/01/2026]',-105344.2,-188410,-113773,-134021.7,-375000,-375000,-150570.3,-121771,0.00,0.00,0.88,-4,0,-2,49,0
'[13:33:00.400 20/01/2026]',-105290.7,-188328.7,-113807.1,-134240.7,-375000,-375000,-150657,-121741.6,0.00,0.00,0.88,-4,0,-2,49,0
'[13:33:00.404 20/01/2026]',-105257.4,-188292.3,-113736.9,-134103.4,-375000,-375000,-150584.5,-121702.5,0.00,0.00,0.88,-4,0,-2,49,0
'[13:33:00.408 20/01/2026]',-105280,-188351.4,-113630,-133820.9,-375000,-375000,-150448.6,-121699.3,0.00,0.00,0.88,-4,0,-2,49,0
'[13:33:00.412 20/01/2026]',-105291.7,-188371.4,-113665.2,-133900.9,-375000,-375000,-150475.9,-121710.1,0.00,0.00,0.88,-4,0,-2,49,0
'[13:33:00.416 20/01/2026]',-105275.8,-188333.4,-113774,-134234.1,-375000,-375000,-150642.1,-121722.3,0.00,0.00,0.88,-4,0,-2,49,0
'[13:33:00.420 20/01/2026]',-105257.8,-188317.3,-113772.6,-134188.3,-375000,-375000,-150628.6,-121698.3,0.00,0.00,0.88,-4,0,-2,49,0
'[13:33:00.424 20/01/2026]',-105310.3,-188382.3,-113739.7,-133965.3,-375000,-375000,-150544.1,-121725.2,0.00,0.00,0.88,-4,0,-2,49,0
'[13:33:00.428 20/01/2026]',-105338.7,-188399.5,-113772.9,-133982.3,-375000,-375000,-150560.9,-121765.8,0.00,0.00,0.88,-4,0,-2,49,0
'[13:33:00.432 20/01/2026]',-105304.9,-188369.6,-113843.6,-134263.5,-375000,-375000,-150683.2,-121766.1,0.02,0.00,0.89,-4,0,-2,49,0
'[13:33:00.436 20/01/2026]',-105273.4,-188346.7,-113833.5,-134263.2,-375000,-375000,-150685.9,-121732,0.02,0.00,0.89,-4,0,-2,49,0
'[13:33:00.440 20/01/2026]',-105283.9,-188352.2,-113706.4,-133941.2,-375000,-375000,-150530.7,-121718.4,0.02,0.00,0.89,-4,0,-2,49,0
'[13:33:00.444 20/01/2026]',-105277.8,-188330.3,-113638.5,-133806.7,-375000,-375000,-150443.2,-121709.2,0.02,0.00,0.89,-4,0,-2,49,0
'[13:33:00.448 20/01/2026]',-105257.8,-188304.6,-113724.2,-134136.5,-375000,-375000,-150593.8,-121721.2,0.02,0.00,0.89,-4,0,-2,49,0
'[13:33:00.452 20/01/2026]',-105260,-188321,-113843.7,-134329.4,-375000,-375000,-150711.1,-121717.2,0.02,0.00,0.89,-4,0,-2,49,0
'[13:33:00.456 20/01/2026]',-105329.1,-188395.3,-113868.7,-134168,-375000,-375000,-150672.9,-121755.9,0.02,0.00,0.89,-4,0,-2,49,0
'[13:33:00.460 20/01/2026]',-105383.7,-188461.7,-113834.3,-133993.1,-375000,-375000,-150603,-121792.8,0.02,0.00,0.89,-4,0,-2,49,0
'[13:33:00.464 20/01/2026]',-105368.8,-188444.9,-113845.7,-134179.8,-375000,-375000,-150666,-121793,0.02,0.00,0.89,-4,0,-2,49,0
'[13:33:00.468 20/01/2026]',-105314.8,-188368.5,-113861.7,-134314.1,-375000,-375000,-150717.8,-121753.2,0.03,0.02,0.88,-4,0,-2,49,0
'[13:33:00.472 20/01/2026]',-105314.5,-188368.6,-113798.8,-134098.8,-375000,-375000,-150619.5,-121739.4,0.03,0.02,0.88,-4,0,-2,49,0
'[13:33:00.476 20/01/2026]',-105344.5,-188404.9,-113734.7,-133886.9,-375000,-375000,-150520.9,-121759.4,0.03,0.02,0.88,-4,0,-2,49,0
'[13:33:00.480 20/01/2026]',-105348.4,-188398.2,-113785.5,-134112.8,-375000,-375000,-150620,-121785.8,0.03,0.02,0.88,-4,0,-2,49,0
'[13:33:00.484 20/01/2026]',-105320.6,-188379.3,-113873.5,-134358.4,-375000,-375000,-150747.8,-121777.1,0.03,0.02,0.88,-4,0,-2,49,0
'[13:33:00.488 20/01/2026]',-105335.4,-188392.5,-113865.5,-134234.3,-375000,-375000,-150717,-121784.3,0.03,0.02,0.88,-4,0,-2,49,0
'[13:33:00.492 20/01/2026]',-105376.4,-188459.8,-113819.6,-133988.6,-375000,-375000,-150617.3,-121813.6,0.03,0.02,0.88,-4,0,-2,49,0
'[13:33:00.496 20/01/2026]',-105373.7,-188450.3,-113822.2,-134080.6,-375000,-375000,-150636.2,-121822.5,0.03,0.02,0.88,-4,0,-2,49,0
'[13:33:00.500 20/01/2026]',-105346.8,-188410.6,-113889.7,-134351.9,-375000,-375000,-150759.9,-121813.3,0.03,0.02,0.88,-4,0,-2,49,0
'[13:33:00.504 20/01/2026]',-105345.9,-188408.3,-113882.4,-134270.4,-375000,-375000,-150735.5,-121802.5,0.03,0.00,0.88,-4,0,-2,49,0
'[13:33:00.508 20/01/2026]',-105379.3,-188452.4,-113823.1,-134003.4,-375000,-375000,-150612.8,-121817.3,0.03,0.00,0.88,-4,0,-2,49,0
'[13:33:00.512 20/01/2026]',-105377.8,-188473.8,-113809.9,-134042.4,-375000,-375000,-150609.5,-121821.8,0.03,0.00,0.88,-4,0,-2,49,0
'[13:33:00.516 20/01/2026]',-105359,-188430.7,-113895.5,-134351.4,-375000,-375000,-150750.9,-121819.5,0.03,0.00,0.88,-4,0,-2,49,0
'[13:33:00.520 20/01/2026]',-105350.5,-188400.9,-113905.3,-134322.8,-375000,-375000,-150747.7,-121793.9,0.03,0.00,0.88,-4,0,-2,49,0
'[13:33:00.524 20/01/2026]',-105367.2,-188424.4,-113813.2,-134021.4,-375000,-375000,-150607.2,-121795,0.03,0.00,0.88,-4,0,-2,49,0
'[13:33:00.528 20/01/2026]',-105366.4,-188427.9,-113780.9,-133972.9,-375000,-375000,-150570.1,-121801.5,0.03,0.00,0.88,-4,0,-2,49,0
'[13:33:00.532 20/01/2026]',-105344.8,-188414.3,-113848.7,-134281.5,-375000,-375000,-150710.7,-121804.4,0.03,0.00,0.88,-4,0,-2,49,0
'[13:33:00.536 20/01/2026]',-105313.4,-188379.1,-113866.7,-134289.1,-375000,-375000,-150719.9,-121769.8,0.03,0.00,0.88,-4,0,-2,49,0
'[13:33:00.540 20/01/2026]',-105320.1,-188366.1,-113772.1,-133996.7,-375000,-375000,-150582.7,-121761.4,0.02,-0.02,0.88,-4,0,-2,49,0
'[13:33:00.544 20/01/2026]',-105336.8,-188392.5,-113745.1,-133922.2,-375000,-375000,-150541.4,-121775.3,0.02,-0.02,0.88,-4,0,-2,49,0
'[13:33:00.548 20/01/2026]',-105326.8,-188406.7,-113823.4,-134231.3,-375000,-375000,-150687.8,-121796.8,0.02,-0.02,0.88,-4,0,-2,49,0
'[13:33:00.552 20/01/2026]',-105282,-188365.4,-113834.2,-134288,-375000,-375000,-150712.8,-121758.3,0.02,-0.02,0.88,-4,0,-2,49,0
'[13:33:00.556 20/01/2026]',-105293.3,-188369.9,-113766,-134044.3,-375000,-375000,-150598,-121742.4,0.02,-0.02,0.88,-4,0,-2,49,0
'[13:33:00.560 20/01/2026]',-105319.7,-188384.5,-113716.1,-133873.8,-375000,-375000,-150510.9,-121746.8,0.02,-0.02,0.88,-4,0,-2,49,0
'[13:33:00.564 20/01/2026]',-105300.8,-188354.8,-113758.6,-134106.3,-375000,-375000,-150604,-121757.3,0.02,-0.02,0.88,-4,0,-2,49,0
'[13:33:00.568 20/01/2026]',-105248.5,-188322.7,-113790.2,-134256.7,-375000,-375000,-150668.9,-121719.2,0.02,-0.02,0.88,-4,0,-2,49,0
'[13:33:00.572 20/01/2026]',-105244.7,-188319.1,-113732.6,-134049.8,-375000,-375000,-150574.8,-121700.6,0.02,-0.02,0.88,-4,0,-2,49,0
'[13:33:00.576 20/01/2026]',-105272.7,-188340.1,-113658.7,-133808,-375000,-375000,-150454.2,-121693.1,0.02,0.00,0.89,-4,0,-2,49,0
'[13:33:00.580 20/01/2026]',-105250.4,-188311.9,-113672.4,-133979.2,-375000,-375000,-150509.8,-121691.6,0.02,0.00,0.89,-4,0,-2,49,0
'[13:33:00.584 20/01/2026]',-105200,-188264.7,-113723.8,-134183.7,-375000,-375000,-150601,-121663.9,0.02,0.00,0.89,-4,0,-2,49,0
'[13:33:00.588 20/01/2026]',-105191.4,-188263.9,-113673.5,-134005.7,-375000,-375000,-150524.4,-121644.3,0.02,0.00,0.89,-4,0,-2,49,0
'[13:33:00.592 20/01/2026]',-105231.3,-188294.2,-113627.5,-133792,-375000,-375000,-150431.8,-121665.6,0.02,0.00,0.89,-4,0,-2,49,0
'[13:33:00.596 20/01/2026]',-105255,-188328.2,-113687.9,-133982.1,-375000,-375000,-150523.4,-121714,0.02,0.00,0.89,-4,0,-2,49,0
'[13:33:00.600 20/01/2026]',-105230.2,-188315,-113768.3,-134255.6,-375000,-375000,-150660.5,-121725.8,0.02,0.00,0.89,-4,0,-2,49,0
'[13:33:00.604 20/01/2026]',-105256.9,-188327.1,-113807.5,-134213.5,-375000,-375000,-150668.6,-121726.8,0.02,0.00,0.89,-4,0,-2,49,0
'[13:33:00.608 20/01/2026]',-105324.4,-188402,-113787.5,-133990.2,-375000,-375000,-150586.3,-121758.5,0.02,0.00,0.89,-4,0,-2,49,0
'[13:33:00.612 20/01/2026]',-105330.7,-188410,-113766.2,-133993.3,-375000,-375000,-150572.7,-121771.4,0.02,0.00,0.89,-4,0,-2,49,0
'[13:33:00.616 20/01/2026]',-105330.1,-188386.4,-113872.5,-134341.1,-375000,-375000,-150747.8,-121790.9,0.02,0.00,0.89,-4,0,-2,49,0
'[13:33:00.620 20/01/2026]',-105334.2,-188370.1,-113896.5,-134307.1,-375000,-375000,-150750.9,-121780.8,0.02,0.00,0.89,-4,0,-2,49,0
'[13:33:00.624 20/01/2026]',-105359.1,-188420.3,-113813.2,-134006.1,-375000,-375000,-150611.8,-121782.7,0.02,0.00,0.89,-4,0,-2,49,0
'[13:33:00.628 20/01/2026]',-105378,-188451.7,-113816.6,-134009.5,-375000,-375000,-150609,-121808,0.02,0.00,0.89,-4,0,-2,49,0
'[13:33:00.632 20/01/2026]',-105357.7,-188425,-113874.7,-134298.4,-375000,-375000,-150736.7,-121816.1,0.02,0.00,0.89,-4,0,-2,49,0
'[13:33:00.636 20/01/2026]',-105317.7,-188373.3,-113860.2,-134292.7,-375000,-375000,-150732,-121777.8,0.02,0.00,0.89,-4,0,-2,49,0
'[13:33:00.640 20/01/2026]',-105338.8,-188402.8,-113808,-134050,-375000,-375000,-150628.9,-121778.4,0.02,0.00,0.89,-4,0,-2,49,0
'[13:33:00.644 20/01/2026]',-105350.6,-188434,-113756.8,-133918.5,-375000,-375000,-150555.8,-121783.9,0.02,0.00,0.89,-4,0,-2,49,0
'[13:33:00.648 20/01/2026]',-105308.3,-188398,-113763.3,-134137.9,-375000,-375000,-150624.8,-121769,0.03,0.00,0.88,-4,0,-2,49,0
'[13:33:00.652 20/01/2026]',-105248.9,-188326,-113717.7,-134164,-375000,-375000,-150618.9,-121709.1,0.03,0.00,0.88,-4,0,-2,49,0
'[13:33:00.656 20/01/2026]',-105266,-188336.4,-113685.8,-133966.6,-375000,-375000,-150536.7,-121704.3,0.03,0.00,0.88,-4,0,-2,49,0
'[13:33:00.660 20/01/2026]',-105273.5,-188347.9,-113622.8,-133759.9,-375000,-375000,-150426.3,-121695.1,0.03,0.00,0.88,-4,0,-2,49,0
'[13:33:00.664 20/01/2026]',-105256.7,-188319.6,-113666.8,-134028.3,-375000,-375000,-150531.5,-121702.3,0.03,0.00,0.88,-4,0,-2,49,0
'[13:33:00.668 20/01/2026]',-105243.1,-188290.9,-113757.1,-134262.2,-375000,-375000,-150662.3,-121702.2,0.03,0.00,0.88,-4,0,-2,49,0
'[13:33:00.672 20/01/2026]',-105306.8,-188364.6,-113822.3,-134185.7,-375000,-375000,-150683.9,-121752.4,0.03,0.00,0.88,-4,0,-2,49,0
'[13:33:00.676 20/01/2026]',-105368.2,-188441.7,-113823.8,-133993.6,-375000,-375000,-150622.1,-121803,0.03,0.00,0.88,-4,0,-2,49,0
'[13:33:00.680 20/01/2026]',-105372.7,-188439.8,-113843.6,-134159.8,-375000,-375000,-150689.4,-121833.2,0.03,0.00,0.88,-4,0,-2,49,0
'[13:33:00.684 20/01/2026]',-105335.4,-188400.7,-113864.6,-134341,-375000,-375000,-150768.8,-121813.4,0.02,0.00,0.88,-4,0,-2,49,0
'[13:33:00.688 20/01/2026]',-105341,-188420.1,-113839.4,-134197.5,-375000,-375000,-150713.2,-121802.3,0.02,0.00,0.88,-4,0,-2,49,0
'[13:33:00.692 20/01/2026]',-105383.3,-188456.8,-113787,-133958.3,-375000,-375000,-150604.3,-121813.5,0.02,0.00,0.88,-4,0,-2,49,0
'[13:33:00.696 20/01/2026]',-105403,-188468.5,-113821.6,-134102.7,-375000,-375000,-150663.2,-121840.4,0.02,0.00,0.88,-4,0,-2,49,0
'[13:33:00.700 20/01/2026]',-105378.3,-188448.5,-113885.5,-134365.2,-375000,-375000,-150785,-121838.4,0.02,0.00,0.88,-4,0,-2,49,0
'[13:33:00.704 20/01/2026]',-105363.2,-188421.7,-113851.3,-134254.5,-375000,-375000,-150741,-121819.8,0.02,0.00,0.88,-4,0,-2,49,0
'[13:33:00.708 20/01/2026]',-105388.4,-188457.5,-113784.7,-133982.3,-375000,-375000,-150618.8,-121827.8,0.02,0.00,0.88,-4,0,-2,49,0
'[13:33:00.712 20/01/2026]',-105395.7,-188466.7,-113781.6,-134014.2,-375000,-375000,-150620,-121835.5,0.02,0.00,0.88,-4,0,-2,49,0
'[13:33:00.716 20/01/2026]',-105366.9,-188427.9,-113845.9,-134288.5,-375000,-375000,-150741.6,-121830.9,0.02,0.00,0.88,-4,0,-2,49,0
'[13:33:00.720 20/01/2026]',-105325.5,-188397.8,-113816.9,-134215,-375000,-375000,-150708.9,-121796.9,0.03,0.00,0.89,-4,0,-2,49,0
'[13:33:00.724 20/01/2026]',-105344.3,-188421.4,-113746.2,-133940.2,-375000,-375000,-150583.5,-121795.6,0.03,0.00,0.89,-4,0,-2,49,0
'[13:33:00.728 20/01/2026]',-105360.2,-188444.2,-113726.2,-133912.3,-375000,-375000,-150554.8,-121805.5,0.03,0.00,0.89,-4,0,-2,49,0
'[13:33:00.732 20/01/2026]',-105338.3,-188426,-113775.2,-134200,-375000,-375000,-150676.3,-121808.6,0.03,0.00,0.89,-4,0,-2,49,0
'[13:33:00.736 20/01/2026]',-105304.9,-188379,-113775,-134213.5,-375000,-375000,-150681.8,-121770.7,0.03,0.00,0.89,-4,0,-2,49,0
'[13:33:00.740 20/01/2026]',-105318.8,-188390.2,-113712.1,-133955.9,-375000,-375000,-150565.4,-121766.2,0.03,0.00,0.89,-4,0,-2,49,0
'[13:33:00.744 20/01/2026]',-105326,-188393.3,-113673.2,-133850.1,-375000,-375000,-150505,-121772.7,0.03,0.00,0.89,-4,0,-2,49,0
'[13:33:00.748 20/01/2026]',-105311.8,-188378.2,-113707.2,-134127,-375000,-375000,-150621,-121786.4,0.03,0.00,0.89,-4,0,-2,49,0
'[13:33:00.752 20/01/2026]',-105292.4,-188352.6,-113746.2,-134226.9,-375000,-375000,-150673.8,-121765.7,0.03,0.00,0.89,-4,0,-2,49,0
'[13:33:00.756 20/01/2026]',-105316.7,-188395.7,-113699.9,-134000.6,-375000,-375000,-150581.1,-121765.5,0.02,0.00,0.88,-4,0,-2,49,0
'[13:33:00.760 20/01/2026]',-105322,-188407.7,-113622.7,-133797.5,-375000,-375000,-150475.9,-121764.7,0.02,0.00,0.88,-4,0,-2,49,0
'[13:33:00.764 20/01/2026]',-105309.2,-188392.6,-113666,-134034.6,-375000,-375000,-150567,-121774.7,0.02,0.00,0.88,-4,0,-2,49,0
'[13:33:00.768 20/01/2026]',-105288.9,-188360.3,-113726.2,-134223.6,-375000,-375000,-150660.2,-121753.7,0.02,0.00,0.88,-4,0,-2,49,0
'[13:33:00.772 20/01/2026]',-105304.1,-188375.2,-113704.3,-134043.2,-375000,-375000,-150590.3,-121747.4,0.02,0.00,0.88,-4,0,-2,49,0
'[13:33:00.776 20/01/2026]',-105313.2,-188389,-113626,-133791.8,-375000,-375000,-150464.5,-121747.3,0.02,0.00,0.88,-4,0,-2,49,0
'[13:33:00.780 20/01/2026]',-105302.1,-188368.2,-113656,-134004.3,-375000,-375000,-150543.6,-121768.5,0.02,0.00,0.88,-4,0,-2,49,0
'[13:33:00.784 20/01/2026]',-105269.4,-188330.7,-113689.9,-134195.2,-375000,-375000,-150625.7,-121741.4,0.02,0.00,0.88,-4,0,-2,49,0
'[13:33:00.788 20/01/2026]',-105274.5,-188321,-113679.7,-134055.3,-375000,-375000,-150571.9,-121725.1,0.02,0.00,0.88,-4,0,-2,49,0
'[13:33:00.792 20/01/2026]',-105308.1,-188379.2,-113630,-133818.3,-375000,-375000,-150467.3,-121734.5,0.02,0.00,0.88,-4,0,-2,49,0
'[13:33:00.796 20/01/2026]',-105309.6,-188407.5,-113621.3,-133927.3,-375000,-375000,-150498.2,-121749.8,0.02,0.00,0.88,-4,0,-2,49,0
'[13:33:00.800 20/01/2026]',-105276.5,-188345.9,-113658.7,-134163.7,-375000,-375000,-150599.3,-121734.6,0.02,0.00,0.88,-4,0,-2,49,0
'[13:33:00.804 20/01/2026]',-105260.7,-188329.4,-113645.2,-134056.5,-375000,-375000,-150553,-121705.5,0.02,0.00,0.88,-4,0,-2,49,0
'[13:33:00.808 20/01/2026]',-105289.7,-188373.6,-113598.3,-133825.4,-375000,-375000,-150455.7,-121720,0.02,0.00,0.88,-4,0,-2,49,0
'[13:33:00.812 20/01/2026]',-105311.2,-188391.9,-113619.1,-133914.5,-375000,-375000,-150500.4,-121756.1,0.02,0.00,0.88,-4,0,-2,49,0
'[13:33:00.816 20/01/2026]',-105302.4,-188382.3,-113715,-134216.8,-375000,-375000,-150645.6,-121773.8,0.02,0.00,0.88,-4,0,-2,49,0
'[13:33:00.820 20/01/2026]',-105296,-188363.2,-113734,-134195.2,-375000,-375000,-150652.1,-121760,0.02,0.00,0.88,-4,0,-2,49,0
'[13:33:00.824 20/01/2026]',-105311.4,-188382.7,-113641.5,-133880.4,-375000,-375000,-150511.2,-121760.6,0.02,0.00,0.88,-4,0,-2,49,0
'[13:33:00.828 20/01/2026]',-105291.5,-188367.8,-113550.4,-133760,-375000,-375000,-150415.6,-121737.6,0.02,0.00,0.89,-4,0,0,49,0
'[13:33:00.832 20/01/2026]',-105263,-188335.3,-113609.8,-134066.1,-375000,-375000,-150539.7,-121737.1,0.02,0.00,0.89,-4,0,0,49,0
'[13:33:00.836 20/01/2026]',-105239,-188309.6,-113628.8,-134110.1,-375000,-375000,-150572,-121713.4,0.02,0.00,0.89,-4,0,0,49,0
'[13:33:00.840 20/01/2026]',-105256.3,-188343.8,-113556.3,-133844.5,-375000,-375000,-150456.8,-121714,0.02,0.00,0.89,-4,0,0,49,0
'[13:33:00.844 20/01/2026]',-105286.8,-188365.5,-113547.6,-133785.2,-375000,-375000,-150434.6,-121744.3,0.02,0.00,0.89,-4,0,0,49,0
'[13:33:00.848 20/01/2026]',-105291.1,-188368.3,-113629.3,-134080.1,-375000,-375000,-150569.1,-121767.7,0.02,0.00,0.89,-4,0,0,49,0
'[13:33:00.852 20/01/2026]',-105270.8,-188348,-113643.7,-134161.4,-375000,-375000,-150613.1,-121743,0.02,0.00,0.89,-4,0,0,49,0
'[13:33:00.856 20/01/2026]',-105285.4,-188381.3,-113594.8,-133930.9,-375000,-375000,-150513.3,-121736.4,0.02,0.00,0.89,-4,0,0,49,0
'[13:33:00.860 20/01/2026]',-105313.6,-188410.3,-113571.8,-133775,-375000,-375000,-150440.3,-121754.3,0.02,0.00,0.89,-4,0,0,49,0
'[13:33:00.864 20/01/2026]',-105306.8,-188402.7,-113605,-134005.9,-375000,-375000,-150536.1,-121775.9,0.02,0.02,0.88,-4,0,-2,49,0
'[13:33:00.868 20/01/2026]',-105259.1,-188362.2,-113608.1,-134132.8,-375000,-375000,-150597,-121756.9,0.02,0.02,0.88,-4,0,-2,49,0
'[13:33:00.872 20/01/2026]',-105264.9,-188342.4,-113549,-133940.9,-375000,-375000,-150513.6,-121744,0.02,0.02,0.88,-4,0,-2,49,0
'[13:33:00.876 20/01/2026]',-105287.3,-188363.1,-113481.2,-133696.3,-375000,-375000,-150380.7,-121724.1,0.02,0.02,0.88,-4,0,-2,49,0
'[13:33:00.880 20/01/2026]',-105277,-188354.6,-113516.1,-133891.1,-375000,-375000,-150440.5,-121720.4,0.02,0.02,0.88,-4,0,-2,49,0
'[13:33:00.884 20/01/2026]',-105269,-188338.7,-113618.3,-134158.3,-375000,-375000,-150580.1,-121726.5,0.02,0.02,0.88,-4,0,-2,49,0
'[13:33:00.888 20/01/2026]',-105269.6,-188339.6,-113570.3,-133975,-375000,-375000,-150503.6,-121707.7,0.02,0.02,0.88,-4,0,-2,49,0
'[13:33:00.892 20/01/2026]',-105292.3,-188357.4,-113492.4,-133717.1,-375000,-375000,-150376.5,-121705.6,0.02,0.02,0.88,-4,0,-2,49,0
'[13:33:00.896 20/01/2026]',-105297.5,-188351.6,-113529.7,-133871.7,-375000,-375000,-150436.7,-121722.2,0.02,0.02,0.88,-4,0,-2,49,0
'[13:33:00.900 20/01/2026]',-105270.3,-188298.5,-113575.4,-134105.9,-375000,-375000,-150542.1,-121714.4,0.02,-0.02,0.88,-4,0,-2,49,0
'[13:33:00.904 20/01/2026]',-105270.3,-188275.2,-113579.2,-134037.6,-375000,-375000,-150528.4,-121710,0.02,-0.02,0.88,-4,0,-2,49,0
'[13:33:00.908 20/01/2026]',-105317,-188364,-113534.9,-133801.1,-375000,-375000,-150433.1,-121725.9,0.02,-0.02,0.88,-4,0,-2,49,0
'[13:33:00.912 20/01/2026]',-105334.1,-188391.6,-113554.1,-133857.3,-375000,-375000,-150450.2,-121744.3,0.02,-0.02,0.88,-4,0,-2,49,0
'[13:33:00.916 20/01/2026]',-105318.3,-188354.2,-113618.3,-134141.5,-375000,-375000,-150582.5,-121749.9,0.02,-0.02,0.88,-4,0,-2,49,0
'[13:33:00.920 20/01/2026]',-105296.4,-188322.5,-113612.1,-134104.2,-375000,-375000,-150576.4,-121730.9,0.02,-0.02,0.88,-4,0,-2,49,0
'[13:33:00.924 20/01/2026]',-105323.2,-188370.8,-113559.2,-133850.6,-375000,-375000,-150466,-121738.9,0.02,-0.02,0.88,-4,0,-2,49,0
'[13:33:00.928 20/01/2026]',-105350.5,-188399,-113546.3,-133829.6,-375000,-375000,-150447.4,-121756.9,0.02,-0.02,0.88,-4,0,-2,49,0
'[13:33:00.932 20/01/2026]',-105344.4,-188378.3,-113629.2,-134127.3,-375000,-375000,-150581.8,-121775.8,0.02,-0.02,0.88,-4,0,-2,49,0
'[13:33:00.936 20/01/2026]',-105311.2,-188323.5,-113610.3,-134109,-375000,-375000,-150567.3,-121736.6,0.03,0.00,0.88,-4,0,-2,49,0
'[13:33:00.940 20/01/2026]',-105326.1,-188364.5,-113544.6,-133865.5,-375000,-375000,-150457.1,-121732.5,0.03,0.00,0.88,-4,0,-2,49,0
'[13:33:00.944 20/01/2026]',-105332.8,-188391.8,-113515.2,-133750.6,-375000,-375000,-150393.1,-121738.1,0.03,0.00,0.88,-4,0,-2,49,0
'[13:33:00.948 20/01/2026]',-105295.8,-188347.8,-113546.9,-134000.7,-375000,-375000,-150489.9,-121735.9,0.03,0.00,0.88,-4,0,-2,49,0
'[13:33:00.952 20/01/2026]',-105255.5,-188300.7,-113554.9,-134088.8,-375000,-375000,-150531.7,-121705.1,0.03,0.00,0.88,-4,0,-2,49,0
'[13:33:00.956 20/01/2026]',-105268,-188319,-113494.8,-133857.3,-375000,-375000,-150429.8,-121700.8,0.03,0.00,0.88,-4,0,-2,49,0
'[13:33:00.960 20/01/2026]',-105279.7,-188324.8,-113421.4,-133655.3,-375000,-375000,-150316.4,-121695.4,0.03,0.00,0.88,-4,0,-2,49,0
'[13:33:00.964 20/01/2026]',-105267.1,-188303.9,-113462.9,-133899.2,-375000,-375000,-150414.5,-121704.7,0.03,0.00,0.88,-4,0,-2,49,0
'[13:33:00.968 20/01/2026]',-105229.6,-188288,-113514.4,-134070.3,-375000,-375000,-150498.8,-121680.3,0.03,0.00,0.88,-4,0,-2,49,0
'[13:33:00.972 20/01/2026]',-105234.5,-188288.7,-113458.8,-133866.6,-375000,-375000,-150412.4,-121665.1,0.03,0.00,0.88,-4,0,-2,49,0
'[13:33:00.976 20/01/2026]',-105298.3,-188330.7,-113452.9,-133724.5,-375000,-375000,-150365.5,-121698.8,0.03,0.00,0.88,-4,0,-2,49,0
'[13:33:00.980 20/01/2026]',-105332.9,-188359.9,-113556.8,-133983.1,-375000,-375000,-150500.1,-121751.8,0.03,0.00,0.88,-4,0,-2,49,0
'[13:33:00.984 20/01/2026]',-105316.8,-188358.2,-113622.6,-134209.4,-375000,-375000,-150618.9,-121753.3,0.03,0.00,0.88,-4,0,-2,49,0
'[13:33:00.988 20/01/2026]',-105319.2,-188371.5,-113590.8,-134045.5,-375000,-375000,-150554.8,-121745.7,0.03,0.00,0.88,-4,0,-2,49,0
'[13:33:00.992 20/01/2026]',-105350.5,-188403.4,-113529.5,-133791.1,-375000,-375000,-150439,-121755.8,0.03,0.00,0.88,-4,0,-2,49,0
'[13:33:00.996 20/01/2026]',-105369.4,-188413.8,-113577.9,-133950.9,-375000,-375000,-150507.7,-121789.1,0.03,0.00,0.88,-4,0,-2,49,0
'[13:33:01.000 20/01/2026]',-105348.1,-188369.1,-113645.1,-134210.8,-375000,-375000,-150633.7,-121794.8,0.03,0.00,0.88,-4,0,-2,49,0
'[13:33:01.004 20/01/2026]',-105337.9,-188370.8,-113630.1,-134114.7,-375000,-375000,-150600.4,-121782.5,0.03,0.00,0.88,-4,0,-2,49,0
'[13:33:01.008 20/01/2026]',-105383.5,-188420.5,-113573.2,-133860.2,-375000,-375000,-150491.7,-121801.6,0.03,-0.02,0.88,-4,0,-2,49,0
'[13:33:01.012 20/01/2026]',-105391.7,-188451.9,-113548.7,-133866.7,-375000,-375000,-150476.3,-121812.9,0.03,-0.02,0.88,-4,0,-2,49,0
'[13:33:01.016 20/01/2026]',-105352.6,-188414,-113593.8,-134135.3,-375000,-375000,-150586.2,-121799.7,0.03,-0.02,0.88,-4,0,-2,49,0
'[13:33:01.020 20/01/2026]',-105314.1,-188365.4,-113569.2,-134074.5,-375000,-375000,-150559.8,-121758.6,0.03,-0.02,0.88,-4,0,-2,49,0
'[13:33:01.024 20/01/2026]',-105338.6,-188392.2,-113512.5,-133824.7,-375000,-375000,-150447.3,-121763.9,0.03,-0.02,0.88,-4,0,-2,49,0
'[13:33:01.028 20/01/2026]',-105366.3,-188402.7,-113507,-133830,-375000,-375000,-150444.8,-121788.2,0.03,-0.02,0.88,-4,0,-2,49,0
'[13:33:01.032 20/01/2026]',-105360,-188381.9,-113598.5,-134145.2,-375000,-375000,-150596.2,-121810,0.03,-0.02,0.88,-4,0,-2,49,0
'[13:33:01.036 20/01/2026]',-105319.8,-188356.2,-113592.2,-134136.1,-375000,-375000,-150597.1,-121776.5,0.03,-0.02,0.88,-4,0,-2,49,0
'[13:33:01.040 20/01/2026]',-105329.4,-188377.1,-113510.9,-133851.5,-375000,-375000,-150465.8,-121771.9,0.03,-0.02,0.88,-4,0,-2,49,0
'[13:33:01.044 20/01/2026]',-105329.3,-188397.6,-113439.2,-133703.9,-375000,-375000,-150375.5,-121763,0.02,0.00,0.89,-4,0,-2,49,0
'[13:33:01.048 20/01/2026]',-105316.6,-188374.7,-113498.2,-134010.8,-375000,-375000,-150506.8,-121780.3,0.02,0.00,0.89,-4,0,-2,49,0
'[13:33:01.052 20/01/2026]',-105289.6,-188320.3,-113533.3,-134105.4,-375000,-375000,-150556.5,-121750.4,0.02,0.00,0.89,-4,0,-2,49,0
'[13:33:01.056 20/01/2026]',-105302.2,-188350.1,-113473.3,-133875.8,-375000,-375000,-150459.6,-121739.4,0.02,0.00,0.89,-4,0,-2,49,0
'[13:33:01.060 20/01/2026]',-105328.1,-188370,-113459.1,-133743.1,-375000,-375000,-150398.6,-121757.3,0.02,0.00,0.89,-4,0,-2,49,0
'[13:33:01.064 20/01/2026]',-105330.4,-188375.4,-113529.9,-134018.4,-375000,-375000,-150525.6,-121790.2,0.02,0.00,0.89,-4,0,-2,49,0
'[13:33:01.068 20/01/2026]',-105302.9,-188337.9,-113558.3,-134176,-375000,-375000,-150608.2,-121772.9,0.02,0.00,0.89,-4,0,-2,49,0
'[13:33:01.072 20/01/2026]',-105306.9,-188356.1,-113519.4,-133981.5,-375000,-375000,-150527.2,-121763.7,0.02,0.00,0.89,-4,0,-2,49,0
'[13:33:01.076 20/01/2026]',-105304.8,-188384.6,-113435.8,-133712.3,-375000,-375000,-150390,-121754.3,0.02,0.00,0.89,-4,0,-2,49,0
'[13:33:01.080 20/01/2026]',-105307,-188378.2,-113474.4,-133914.2,-375000,-375000,-150471.4,-121773.8,0.02,0.00,0.88,-4,0,-2,49,0
'[13:33:01.084 20/01/2026]',-105296.9,-188338.1,-113548.4,-134141.1,-375000,-375000,-150585,-121761.4,0.02,0.00,0.88,-4,0,-2,49,0
'[13:33:01.088 20/01/2026]',-105302.8,-188332.3,-113506.9,-133982.3,-375000,-375000,-150523.4,-121747.7,0.02,0.00,0.88,-4,0,-2,49,0
'[13:33:01.092 20/01/2026]',-105331.7,-188351.7,-113446.5,-133740.9,-375000,-375000,-150415.9,-121763.2,0.02,0.00,0.88,-4,0,-2,49,0
'[13:33:01.096 20/01/2026]',-105316.5,-188347.8,-113457.7,-133850.9,-375000,-375000,-150449.3,-121777.6,0.02,0.00,0.88,-4,0,-2,49,0
'[13:33:01.100 20/01/2026]',-105279.9,-188329.2,-113511.9,-134113,-375000,-375000,-150566.4,-121762.9,0.02,0.00,0.88,-4,0,-2,49,0
'[13:33:01.104 20/01/2026]',-105267.4,-188313,-113496.3,-134018.2,-375000,-375000,-150529,-121741.2,0.02,0.00,0.88,-4,0,-2,49,0
'[13:33:01.108 20/01/2026]',-105285.3,-188346.2,-113414.3,-133730.7,-375000,-375000,-150391.9,-121739.6,0.02,0.00,0.88,-4,0,-2,49,0
'[13:33:01.112 20/01/2026]',-105298.3,-188358.5,-113415.8,-133795.8,-375000,-375000,-150409.8,-121751.1,0.02,0.00,0.88,-4,0,-2,49,0
'[13:33:01.116 20/01/2026]',-105270.2,-188340.2,-113482.6,-134099.2,-375000,-375000,-150551.7,-121752.5,0.02,0.00,0.88,-4,0,-2,49,0
'[13:33:01.120 20/01/2026]',-105248.9,-188309.5,-113497.2,-134060,-375000,-375000,-150543.9,-121728.4,0.02,0.00,0.88,-4,0,-2,49,0
'[13:33:01.124 20/01/2026]',-105302.6,-188346.1,-113486.5,-133838.9,-375000,-375000,-150458.2,-121751.9,0.02,0.00,0.88,-4,0,-2,49,0
'[13:33:01.128 20/01/2026]',-105323.5,-188377.7,-113467.7,-133796.1,-375000,-375000,-150430.4,-121769.7,0.02,0.00,0.88,-4,0,-2,49,0
'[13:33:01.132 20/01/2026]',-105288.7,-188346.2,-113504,-134066.2,-375000,-375000,-150541.6,-121768.2,0.02,0.00,0.88,-4,0,-2,49,0
'[13:33:01.136 20/01/2026]',-105247.8,-188294.4,-113506.8,-134074.2,-375000,-375000,-150541.8,-121727.2,0.02,0.00,0.88,-4,0,-2,49,0
'[13:33:01.140 20/01/2026]',-105273.5,-188316.2,-113457.5,-133836.6,-375000,-375000,-150439.2,-121726.9,0.02,0.00,0.88,-4,0,-2,49,0
'[13:33:01.144 20/01/2026]',-105297.9,-188329.3,-113432.9,-133746.9,-375000,-375000,-150397.3,-121745.7,0.02,0.00,0.88,-4,0,-2,49,0
'[13:33:01.148 20/01/2026]',-105282.6,-188313.3,-113498.6,-134047.1,-375000,-375000,-150532.6,-121766.3,0.02,0.00,0.88,-4,0,-2,49,0
'[13:33:01.152 20/01/2026]',-105239.9,-188281.6,-113509.5,-134117.5,-375000,-375000,-150561.7,-121727.2,0.02,0.00,0.88,-4,0,0,49,0
'[13:33:01.156 20/01/2026]',-105242.2,-188290.2,-113425.7,-133840.2,-375000,-375000,-150428.8,-121704.5,0.02,0.00,0.88,-4,0,0,49,0
'[13:33:01.160 20/01/2026]',-105247.8,-188316.6,-113362,-133639.2,-375000,-375000,-150318,-121692.7,0.02,0.00,0.88,-4,0,0,49,0
'[13:33:01.164 20/01/2026]',-105226.6,-188287.3,-113417.4,-133900.1,-375000,-375000,-150425.4,-121700.4,0.02,0.00,0.88,-4,0,0,49,0
'[13:33:01.168 20/01/2026]',-105196,-188232.8,-113459.5,-134072.4,-375000,-375000,-150509.2,-121673.1,0.02,0.00,0.88,-4,0,0,49,0
'[13:33:01.172 20/01/2026]',-105214.6,-188245,-113438,-133915.1,-375000,-375000,-150452,-121671.1,0.02,0.00,0.88,-4,0,0,49,0
'[13:33:01.176 20/01/2026]',-105245,-188302,-113422.5,-133728.3,-375000,-375000,-150372.2,-121690.3,0.02,0.00,0.88,-4,0,0,49,0
'[13:33:01.180 20/01/2026]',-105252.8,-188294.2,-113460.2,-133913.8,-375000,-375000,-150447.2,-121713.7,0.02,0.00,0.88,-4,0,0,49,0
'[13:33:01.184 20/01/2026]',-105227.7,-188256.8,-113515.4,-134119.9,-375000,-375000,-150546.2,-121695.8,0.02,0.00,0.88,-4,0,0,49,0
'[13:33:01.188 20/01/2026]',-105223.8,-188270.8,-113489.5,-133968.1,-375000,-375000,-150483.5,-121677.4,0.02,0.00,0.89,-4,0,-2,49,0
'[13:33:01.192 20/01/2026]',-105259.1,-188308.3,-113454.6,-133749.9,-375000,-375000,-150389.4,-121695.3,0.02,0.00,0.89,-4,0,-2,49,0
'[13:33:01.196 20/01/2026]',-105286.5,-188337.4,-113519.3,-133927,-375000,-375000,-150482,-121743.3,0.02,0.00,0.89,-4,0,-2,49,0
'[13:33:01.200 20/01/2026]',-105257.3,-188296.6,-113568.6,-134155.2,-375000,-375000,-150590.1,-121740.8,0.02,0.00,0.89,-4,0,-2,49,0
'[13:33:01.204 20/01/2026]',-105230.8,-188250.8,-113517.7,-134024.8,-375000,-375000,-150527.6,-121705.1,0.02,0.00,0.89,-4,0,-2,49,0
'[13:33:01.208 20/01/2026]',-105250.9,-188279.7,-113449.4,-133755.6,-375000,-375000,-150399.1,-121703.4,0.02,0.00,0.89,-4,0,-2,49,0
'[13:33:01.212 20/01/2026]',-105249.7,-188291.2,-113437.8,-133771.6,-375000,-375000,-150379.8,-121696.6,0.02,0.00,0.89,-4,0,-2,49,0
'[13:33:01.216 20/01/2026]',-105223.1,-188265.3,-113493.7,-134066.4,-375000,-375000,-150511,-121690.3,0.02,0.00,0.89,-4,0,-2,49,0
'[13:33:01.220 20/01/2026]',-105203.1,-188237,-113499.6,-134046.4,-375000,-375000,-150515.2,-121667.3,0.02,0.00,0.89,-4,0,-2,49,0
'[13:33:01.224 20/01/2026]',-105214.3,-188257,-113406.5,-133749.2,-375000,-375000,-150375.3,-121665.1,0.02,0.00,0.88,-4,0,-2,49,0
'[13:33:01.228 20/01/2026]',-105213.9,-188262.5,-113374.3,-133694.9,-375000,-375000,-150333.9,-121673.4,0.02,0.00,0.88,-4,0,-2,49,0
'[13:33:01.232 20/01/2026]',-105184.8,-188240.1,-113468.9,-134018.3,-375000,-375000,-150482.1,-121686.1,0.02,0.00,0.88,-4,0,-2,49,0
'[13:33:01.236 20/01/2026]',-105161.6,-188202.2,-113505.1,-134072.2,-375000,-375000,-150522.1,-121661.8,0.02,0.00,0.88,-4,0,-2,49,0
'[13:33:01.240 20/01/2026]',-105206.5,-188250.2,-113456.8,-133826.8,-375000,-375000,-150419.8,-121666.2,0.02,0.00,0.88,-4,0,-2,49,0
'[13:33:01.244 20/01/2026]',-105231.2,-188298.6,-113420,-133732,-375000,-375000,-150368,-121680.2,0.02,0.00,0.88,-4,0,-2,49,0
'[13:33:01.248 20/01/2026]',-105208.3,-188265.3,-113467.2,-134003.7,-375000,-375000,-150482,-121693.6,0.02,0.00,0.88,-4,0,-2,49,0
'[13:33:01.252 20/01/2026]',-105180.6,-188211.4,-113516.4,-134100.9,-375000,-375000,-150527.3,-121658.4,0.02,0.00,0.88,-4,0,-2,49,0
'[13:33:01.256 20/01/2026]',-105207,-188245.7,-113474.2,-133874.9,-375000,-375000,-150427.4,-121655.4,0.02,0.00,0.88,-4,0,-2,49,0
'[13:33:01.260 20/01/2026]',-105218.9,-188255.9,-113394.5,-133680.2,-375000,-375000,-150322.7,-121654.8,0.02,0.00,0.88,-4,0,-2,49,0
'[13:33:01.264 20/01/2026]',-105199.1,-188226.7,-113447.2,-133938,-375000,-375000,-150430.1,-121667.1,0.02,0.00,0.88,-4,0,-2,49,0
'[13:33:01.268 20/01/2026]',-105167.2,-188216.5,-113504.2,-134098.7,-375000,-375000,-150510.3,-121643.3,0.02,0.00,0.88,-4,0,-2,49,0
'[13:33:01.272 20/01/2026]',-105167.4,-188229.3,-113455.5,-133885.5,-375000,-375000,-150413.7,-121620.9,0.02,0.00,0.88,-4,0,-2,49,0
'[13:33:01.276 20/01/2026]',-105188.2,-188240.3,-113399.6,-133667.5,-375000,-375000,-150303.7,-121617.4,0.02,0.00,0.88,-4,0,-2,49,0
'[13:33:01.280 20/01/2026]',-105182.3,-188224.4,-113444.8,-133875,-375000,-375000,-150388.9,-121629.9,0.02,0.00,0.88,-4,0,-2,49,0
'[13:33:01.284 20/01/2026]',-105142.8,-188190,-113485.7,-134082.4,-375000,-375000,-150490.5,-121613.7,0.02,0.00,0.88,-4,0,-2,49,0
'[13:33:01.288 20/01/2026]',-105138,-188185.2,-113446,-133932.6,-375000,-375000,-150427,-121597.1,0.02,0.00,0.88,-4,0,-2,49,0
'[13:33:01.292 20/01/2026]',-105192.5,-188231.8,-113435.9,-133723,-375000,-375000,-150343.5,-121627.7,0.02,0.00,0.88,-4,0,-2,49,0
'[13:33:01.296 20/01/2026]',-105213.8,-188256.7,-113496.2,-133876,-375000,-375000,-150413.2,-121662.4,0.03,0.00,0.88,-4,0,-2,49,0
'[13:33:01.300 20/01/2026]',-105199.5,-188240.4,-113568.8,-134152.4,-375000,-375000,-150554.8,-121675.8,0.03,0.00,0.88,-4,0,-2,49,0
'[13:33:01.304 20/01/2026]',-105204.8,-188226.2,-113562.6,-134077.2,-375000,-375000,-150539.6,-121672.6,0.03,0.00,0.88,-4,0,-2,49,0
'[13:33:01.308 20/01/2026]',-105234.4,-188275.5,-113507.5,-133805.2,-375000,-375000,-150417.2,-121683.6,0.03,0.00,0.88,-4,0,-2,49,0
'[13:33:01.312 20/01/2026]',-105238.9,-188293.3,-113494,-133839.3,-375000,-375000,-150415.3,-121688.1,0.03,0.00,0.88,-4,0,-2,49,0
'[13:33:01.316 20/01/2026]',-105214.8,-188253.2,-113554.4,-134120.1,-375000,-375000,-150540.4,-121682.2,0.03,0.00,0.88,-4,0,-2,49,0
'[13:33:01.320 20/01/2026]',-105189.3,-188220.5,-113556.1,-134068.5,-375000,-375000,-150525,-121648.6,0.03,0.00,0.88,-4,0,-2,49,0
'[13:33:01.324 20/01/2026]',-105211,-188244.9,-113482.6,-133796.8,-375000,-375000,-150397.2,-121638.5,0.03,0.00,0.88,-4,0,-2,49,0
'[13:33:01.328 20/01/2026]',-105218.2,-188256.3,-113457.3,-133757.7,-375000,-375000,-150359.4,-121640.6,0.03,0.00,0.88,-4,0,-2,49,0
'[13:33:01.332 20/01/2026]',-105194.5,-188225.5,-113525.7,-134055.1,-375000,-375000,-150490.5,-121645.7,0.03,0.00,0.89,-4,0,-2,49,0
'[13:33:01.336 20/01/2026]',-105158.3,-188192.1,-113528.4,-134069.5,-375000,-375000,-150506.8,-121619.9,0.03,0.00,0.89,-4,0,-2,49,0
'[13:33:01.340 20/01/2026]',-105181,-188224.2,-113488.3,-133840.2,-375000,-375000,-150408.6,-121625.8,0.03,0.00,0.89,-4,0,-2,49,0
'[13:33:01.344 20/01/2026]',-105204.9,-188248.4,-113477.2,-133742,-375000,-375000,-150355.4,-121638.4,0.03,0.00,0.89,-4,0,-2,49,0
'[13:33:01.348 20/01/2026]',-105189.7,-188237,-113539.8,-134032.1,-375000,-375000,-150486.5,-121653.9,0.03,0.00,0.89,-4,0,-2,49,0
'[13:33:01.352 20/01/2026]',-105171.9,-188193.2,-113571,-134134.7,-375000,-375000,-150543.5,-121634.3,0.03,0.00,0.89,-4,0,-2,49,0
'[13:33:01.356 20/01/2026]',-105205.9,-188202,-113552.9,-133957.7,-375000,-375000,-150473.3,-121642.7,0.03,0.00,0.89,-4,0,-2,49,0
'[13:33:01.360 20/01/2026]',-105280.2,-188292.8,-113588,-133887,-375000,-375000,-150465.6,-121698.6,0.03,0.00,0.89,-4,0,-2,49,0
'[13:33:01.364 20/01/2026]',-105299.6,-188323.6,-113664.5,-134129.6,-375000,-375000,-150584.5,-121731,0.03,0.00,0.89,-4,0,-2,49,0
'[13:33:01.368 20/01/2026]',-105265.7,-188295.5,-113693.3,-134248.3,-375000,-375000,-150642.5,-121706.2,0.03,0.00,0.88,-4,0,-2,49,0
'[13:33:01.372 20/01/2026]',-105267.1,-188301.7,-113638.2,-134047.6,-375000,-375000,-150549.4,-121693.5,0.03,0.00,0.88,-4,0,-2,49,0
'[13:33:01.376 20/01/2026]',-105306.7,-188342.8,-113613.1,-133858.9,-375000,-375000,-150461.2,-121718.3,0.03,0.00,0.88,-4,0,-2,49,0
'[13:33:01.380 20/01/2026]',-105305.6,-188344.7,-113643.9,-134037.5,-375000,-375000,-150534.7,-121741.2,0.03,0.00,0.88,-4,0,-2,49,0
'[13:33:01.384 20/01/2026]',-105250.1,-188273.3,-113657.7,-134209.2,-375000,-375000,-150606.8,-121713.4,0.03,0.00,0.88,-4,0,-2,49,0
'[13:33:01.388 20/01/2026]',-105238.3,-188257.3,-113618.6,-134053.2,-375000,-375000,-150541.6,-121693.4,0.03,0.00,0.88,-4,0,-2,49,0
'[13:33:01.392 20/01/2026]',-105261.5,-188295.3,-113549.6,-133791.9,-375000,-375000,-150416.9,-121695,0.03,0.00,0.88,-4,0,-2,49,0
'[13:33:01.396 20/01/2026]',-105261.5,-188298.5,-113569.7,-133913,-375000,-375000,-150459.8,-121706.4,0.03,0.00,0.88,-4,0,-2,49,0
'[13:33:01.400 20/01/2026]',-105232.4,-188266.5,-113637.6,-134182,-375000,-375000,-150585.6,-121700.1,0.03,0.00,0.88,-4,0,-2,49,0
'[13:33:01.404 20/01/2026]',-105218.5,-188254.8,-113625.4,-134095.1,-375000,-375000,-150555.9,-121681.8,0.03,0.02,0.88,-4,0,-2,49,0
'[13:33:01.408 20/01/2026]',-105240.4,-188285.5,-113547.5,-133818.4,-375000,-375000,-150426.3,-121684.2,0.03,0.02,0.88,-4,0,-2,49,0
'[13:33:01.412 20/01/2026]',-105244.8,-188279.9,-113531.3,-133851.1,-375000,-375000,-150424.3,-121686.4,0.03,0.02,0.88,-4,0,-2,49,0
'[13:33:01.416 20/01/2026]',-105208.5,-188244.5,-113585.9,-134124.1,-375000,-375000,-150539.3,-121674.7,0.03,0.02,0.88,-4,0,-2,49,0
'[13:33:01.420 20/01/2026]',-105177.1,-188217.1,-113585.4,-134072.7,-375000,-375000,-150522,-121639.4,0.03,0.02,0.88,-4,0,-2,49,0
'[13:33:01.424 20/01/2026]',-105192.1,-188226,-113509.4,-133794.3,-375000,-375000,-150390.9,-121627.3,0.03,0.02,0.88,-4,0,-2,49,0
'[13:33:01.428 20/01/2026]',-105206,-188248.6,-113514.8,-133802.4,-375000,-375000,-150385.6,-121639.6,0.03,0.02,0.88,-4,0,-2,49,0
'[13:33:01.432 20/01/2026]',-105233.4,-188254.2,-113685.8,-134214.4,-375000,-375000,-150601.4,-121682.5,0.03,0.02,0.88,-4,0,-2,49,0
'[13:33:01.436 20/01/2026]',-105230.4,-188230.3,-113726.3,-134233.8,-375000,-375000,-150630.8,-121670.9,0.03,0.02,0.88,-4,0,-2,49,0
'[13:33:01.440 20/01/2026]',-105242.3,-188270.3,-113652.5,-133948.6,-375000,-375000,-150497.8,-121667.8,0.02,0.00,0.89,-4,0,-2,49,0
'[13:33:01.444 20/01/2026]',-105239.5,-188298.6,-113590.3,-133797.4,-375000,-375000,-150410.5,-121665,0.02,0.00,0.89,-4,0,-2,49,0
'[13:33:01.448 20/01/2026]',-105196.1,-188247.5,-113607.1,-134036.9,-375000,-375000,-150496,-121654.5,0.02,0.00,0.89,-4,0,-2,49,0
'[13:33:01.452 20/01/2026]',-105164.4,-188186,-113644.5,-134171.8,-375000,-375000,-150570.6,-121630.2,0.02,0.00,0.89,-4,0,-2,49,0
'[13:33:01.456 20/01/2026]',-105197.5,-188220.3,-113625,-133988.4,-375000,-375000,-150508.7,-121645.7,0.02,0.00,0.89,-4,0,-2,49,0
'[13:33:01.460 20/01/2026]',-105239.6,-188264.6,-113590.8,-133813.7,-375000,-375000,-150429.4,-121667.8,0.02,0.00,0.89,-4,0,-2,49,0
'[13:33:01.464 20/01/2026]',-105221.5,-188254,-113611.9,-134002.4,-375000,-375000,-150489.7,-121662.4,0.02,0.00,0.89,-4,0,-2,49,0
'[13:33:01.468 20/01/2026]',-105180.6,-188208.8,-113643.9,-134154.2,-375000,-375000,-150558.7,-121628.4,0.02,0.00,0.89,-4,0,-2,49,0
'[13:33:01.472 20/01/2026]',-105167.6,-188203.2,-113586,-133937.8,-375000,-375000,-150458.1,-121605.8,0.02,0.00,0.89,-4,0,-2,49,0
'[13:33:01.476 20/01/2026]',-105181.9,-188218.6,-113535.3,-133724.1,-375000,-375000,-150347.2,-121603.7,0.03,0.00,0.88,-4,0,-2,49,0
'[13:33:01.480 20/01/2026]',-105195.9,-188219,-113591.8,-133940.6,-375000,-375000,-150444.8,-121635.6,0.03,0.00,0.88,-4,0,-2,49,0
'[13:33:01.484 20/01/2026]',-105151.8,-188173.7,-113624.1,-134122.4,-375000,-375000,-150527.9,-121606.4,0.03,0.00,0.88,-4,0,-2,49,0
'[13:33:01.488 20/01/2026]',-105116.8,-188141.6,-113549,-133935.8,-375000,-375000,-150435.5,-121569.8,0.03,0.00,0.88,-4,0,-2,49,0
'[13:33:01.492 20/01/2026]',-105123.1,-188147.1,-113464.9,-133676,-375000,-375000,-150302.4,-121564.1,0.03,0.00,0.88,-4,0,-2,49,0
'[13:33:01.496 20/01/2026]',-105123.6,-188162.1,-113484.5,-133811,-375000,-375000,-150348.1,-121572.3,0.03,0.00,0.88,-4,0,-2,49,0
'[13:33:01.500 20/01/2026]',-105114.6,-188149.9,-113570.1,-134099.2,-375000,-375000,-150487.3,-121569.9,0.03,0.00,0.88,-4,0,-2,49,0
'[13:33:01.504 20/01/2026]',-105127.1,-188154.6,-113602.9,-134049.5,-375000,-375000,-150484,-121563.6,0.03,0.00,0.88,-4,0,-2,49,0
'[13:33:01.508 20/01/2026]',-105178,-188207.8,-113584.2,-133830.3,-375000,-375000,-150401.4,-121596.8,0.03,0.00,0.88,-4,0,-2,49,0
'[13:33:01.512 20/01/2026]',-105179.1,-188193,-113563.8,-133829.2,-375000,-375000,-150387.2,-121606.3,0.03,0.02,0.88,-4,0,-2,49,0
'[13:33:01.516 20/01/2026]',-105134.1,-188149.2,-113613,-134079,-375000,-375000,-150490.9,-121591.6,0.03,0.02,0.88,-4,0,-2,49,0
'[13:33:01.520 20/01/2026]',-105112.1,-188128.5,-113617.5,-134057.7,-375000,-375000,-150487.2,-121562.9,0.03,0.02,0.88,-4,0,-2,49,0
'[13:33:01.524 20/01/2026]',-105162.8,-188194.3,-113584.7,-133835.5,-375000,-375000,-150400.4,-121584.7,0.03,0.02,0.88,-4,0,-2,49,0
'[13:33:01.528 20/01/2026]',-105171.8,-188194.8,-113571.3,-133804.9,-375000,-375000,-150375.7,-121599.7,0.03,0.02,0.88,-4,0,-2,49,0
'[13:33:01.532 20/01/2026]',-105150.5,-188176.3,-113636.6,-134082.5,-375000,-375000,-150500.3,-121602,0.03,0.02,0.88,-4,0,-2,49,0
'[13:33:01.536 20/01/2026]',-105137.4,-188167.8,-113663.8,-134129.8,-375000,-375000,-150533.7,-121578.6,0.03,0.02,0.88,-4,0,-2,49,0
'[13:33:01.540 20/01/2026]',-105183.4,-188219.5,-113630.9,-133935.6,-375000,-375000,-150466.7,-121609.5,0.03,0.02,0.88,-4,0,-2,49,0
'[13:33:01.544 20/01/2026]',-105236.5,-188260.2,-113659.8,-133886.3,-375000,-375000,-150459.3,-121647.7,0.03,0.02,0.88,-4,0,-2,49,0
'[13:33:01.548 20/01/2026]',-105248.1,-188252.4,-113760.7,-134181.9,-375000,-375000,-150599.7,-121677.4,0.02,0.00,0.88,-4,0,-2,49,0
'[13:33:01.552 20/01/2026]',-105211.5,-188213.7,-113772.9,-134248.8,-375000,-375000,-150636.3,-121654.5,0.02,0.00,0.88,-4,0,-2,49,0
'[13:33:01.556 20/01/2026]',-105211.3,-188226.5,-113691.1,-134000.4,-375000,-375000,-150524.9,-121647.6,0.02,0.00,0.88,-4,0,-2,49,0
'[13:33:01.560 20/01/2026]',-105218.2,-188231.7,-113608.3,-133763.8,-375000,-375000,-150394,-121636.1,0.02,0.00,0.88,-4,0,-2,49,0
'[13:33:01.564 20/01/2026]',-105194.7,-188214.1,-113634.7,-133984.1,-375000,-375000,-150471.1,-121627.5,0.02,0.00,0.88,-4,0,-2,49,0
'[13:33:01.568 20/01/2026]',-105146.8,-188164.8,-113657.8,-134131.8,-375000,-375000,-150537.4,-121595.2,0.02,0.00,0.88,-4,0,-2,49,0
'[13:33:01.572 20/01/2026]',-105141.4,-188159.3,-113604.3,-133939.4,-375000,-375000,-150447.6,-121572.9,0.02,0.00,0.88,-4,0,-2,49,0
'[13:33:01.576 20/01/2026]',-105171.2,-188186.3,-113571.3,-133752.4,-375000,-375000,-150358.4,-121582.9,0.02,0.00,0.88,-4,0,-2,49,0
'[13:33:01.580 20/01/2026]',-105190.4,-188192.6,-113660.3,-133998.8,-375000,-375000,-150479.7,-121623.5,0.02,0.00,0.88,-4,0,-2,49,0
'[13:33:01.584 20/01/2026]',-105174,-188180.8,-113745.2,-134237.3,-375000,-375000,-150609.5,-121627.7,0.03,0.00,0.88,-4,0,-2,49,0
'[13:33:01.588 20/01/2026]',-105183.9,-188203.1,-113710,-134084.8,-375000,-375000,-150548.6,-121616.4,0.03,0.00,0.88,-4,0,-2,49,0
'[13:33:01.592 20/01/2026]',-105229.3,-188248.6,-113654.6,-133847.4,-375000,-375000,-150438.2,-121630.9,0.03,0.00,0.88,-4,0,-2,49,0
'[13:33:01.596 20/01/2026]',-105225.2,-188246.7,-113662,-133943.5,-375000,-375000,-150467.9,-121642.2,0.03,0.00,0.88,-4,0,-2,49,0
'[13:33:01.600 20/01/2026]',-105190.8,-188192.9,-113734.3,-134201.9,-375000,-375000,-150588.1,-121633.1,0.03,0.00,0.88,-4,0,-2,49,0
'[13:33:01.604 20/01/2026]',-105175.7,-188180,-113698.1,-134098.8,-375000,-375000,-150544,-121607.5,0.03,0.00,0.88,-4,0,-2,49,0
'[13:33:01.608 20/01/2026]',-105203,-188228.5,-113617.9,-133811.5,-375000,-375000,-150408.6,-121615.6,0.03,0.00,0.88,-4,0,-2,49,0
'[13:33:01.612 20/01/2026]',-105193,-188216.3,-113597.6,-133828.9,-375000,-375000,-150390.2,-121602.3,0.03,0.00,0.88,-4,0,-2,49,0
'[13:33:01.616 20/01/2026]',-105176.8,-188189.7,-113688.4,-134149.5,-375000,-375000,-150543.5,-121607.5,0.03,0.00,0.88,-4,0,-2,49,0
'[13:33:01.620 20/01/2026]',-105150.3,-188158.7,-113678.1,-134098.2,-375000,-375000,-150528.1,-121579.1,0.03,0.00,0.89,-4,0,-2,49,0
'[13:33:01.624 20/01/2026]',-105197.3,-188197.8,-113667.7,-133886.7,-375000,-375000,-150444.5,-121600.3,0.03,0.00,0.89,-4,0,-2,49,0
'[13:33:01.628 20/01/2026]',-105214.8,-188213,-113652.2,-133842.7,-375000,-375000,-150414.1,-121615.2,0.03,0.00,0.89,-4,0,-2,49,0
'[13:33:01.632 20/01/2026]',-105174.9,-188173.1,-113660.5,-134066.9,-375000,-375000,-150496.3,-121597.6,0.03,0.00,0.89,-4,0,-2,49,0
'[13:33:01.636 20/01/2026]',-105128.2,-188135.2,-113649.1,-134072,-375000,-375000,-150496.5,-121551.8,0.03,0.00,0.89,-4,0,-2,49,0
'[13:33:01.640 20/01/2026]',-105131.4,-188130.9,-113572.4,-133814.6,-375000,-375000,-150373.4,-121539.9,0.03,0.00,0.89,-4,0,-2,49,0
'[13:33:01.644 20/01/2026]',-105144.2,-188135,-113549.4,-133709.7,-375000,-375000,-150312.9,-121544.4,0.03,0.00,0.89,-4,0,-2,49,0
'[13:33:01.648 20/01/2026]',-105125.1,-188126.5,-113606.5,-133984.5,-375000,-375000,-150432.6,-121553.1,0.03,0.00,0.89,-4,0,-2,49,0
'[13:33:01.652 20/01/2026]',-105088.7,-188107.5,-113628.1,-134092,-375000,-375000,-150485,-121521.8,0.03,0.00,0.89,-4,0,-2,49,0
'[13:33:01.656 20/01/2026]',-105115.3,-188143.5,-113607.9,-133927.3,-375000,-375000,-150425.4,-121533,0.02,0.00,0.88,-4,0,-2,49,0
'[13:33:01.660 20/01/2026]',-105153.8,-188175.3,-113582.9,-133750,-375000,-375000,-150346,-121549.9,0.02,0.00,0.88,-4,0,-2,49,0
'[13:33:01.664 20/01/2026]',-105139.3,-188155.2,-113622.3,-133959.5,-375000,-375000,-150433.2,-121568.1,0.02,0.00,0.88,-4,0,-2,49,0
'[13:33:01.668 20/01/2026]',-105097.6,-188089.8,-113639,-134093.7,-375000,-375000,-150493.9,-121536.3,0.02,0.00,0.88,-4,0,-2,49,0
'[13:33:01.672 20/01/2026]',-105118.7,-188124.4,-113628.7,-133953.2,-375000,-375000,-150444.5,-121532.1,0.02,0.00,0.88,-4,0,-2,49,0
'[13:33:01.676 20/01/2026]',-105160.2,-188170.6,-113608.6,-133788,-375000,-375000,-150378.4,-121561.6,0.02,0.00,0.88,-4,0,-2,49,0
'[13:33:01.680 20/01/2026]',-105172.4,-188166.9,-113671.6,-134002.2,-375000,-375000,-150479.4,-121600.4,0.02,0.00,0.88,-4,0,-2,49,0
'[13:33:01.684 20/01/2026]',-105157.3,-188151.9,-113745.3,-134234,-375000,-375000,-150600.4,-121601.2,0.02,0.00,0.88,-4,0,-2,49,0
'[13:33:01.688 20/01/2026]',-105162.5,-188149.6,-113702.5,-134057.6,-375000,-375000,-150525.5,-121581.7,0.02,0.00,0.88,-4,0,-2,49,0
'[13:33:01.692 20/01/2026]',-105198.5,-188202.8,-113658.1,-133813.9,-375000,-375000,-150413.1,-121593.8,0.02,0.00,0.88,-4,0,-2,49,0
'[13:33:01.696 20/01/2026]',-105199.6,-188220.8,-113686.1,-133936.6,-375000,-375000,-150461.8,-121617,0.02,0.00,0.88,-4,0,-2,49,0
'[13:33:01.700 20/01/2026]',-105160.5,-188196.5,-113728.6,-134176.6,-375000,-375000,-150568.3,-121606.9,0.02,0.00,0.88,-4,0,-2,49,0
'[13:33:01.704 20/01/2026]',-105135.4,-188155.1,-113686.5,-134063.5,-375000,-375000,-150511,-121567.9,0.02,0.00,0.88,-4,0,-2,49,0
'[13:33:01.708 20/01/2026]',-105182.1,-188190.5,-113655.2,-133852.9,-375000,-375000,-150422.9,-121586,0.02,0.00,0.88,-4,0,-2,49,0
'[13:33:01.712 20/01/2026]',-105216.5,-188229.8,-113698.2,-133937.5,-375000,-375000,-150466,-121621.3,0.02,0.00,0.88,-4,0,-2,49,0
'[13:33:01.716 20/01/2026]',-105190.5,-188214,-113768.9,-134204.4,-375000,-375000,-150590.9,-121627.6,0.02,0.00,0.88,-4,0,-2,49,0
'[13:33:01.720 20/01/2026]',-105152.2,-188171.8,-113734,-134134.6,-375000,-375000,-150558.9,-121592.8,0.02,0.00,0.88,-4,0,-2,49,0
'[13:33:01.724 20/01/2026]',-105201.1,-188188.7,-113714.2,-133926.8,-375000,-375000,-150476.2,-121615.4,0.02,0.00,0.88,-4,0,-2,49,0
'[13:33:01.728 20/01/2026]',-105225.2,-188204.5,-113720.2,-133905.7,-375000,-375000,-150463.5,-121641.8,0.02,0.00,0.88,-4,0,-2,49,0
'[13:33:01.732 20/01/2026]',-105206.8,-188230.1,-113780.4,-134188.8,-375000,-375000,-150592.1,-121653.2,0.02,0.00,0.88,-4,0,-2,49,0
'[13:33:01.736 20/01/2026]',-105167.6,-188206.2,-113767.6,-134186.1,-375000,-375000,-150590.3,-121615,0.02,0.00,0.88,-4,0,-2,49,0
'[13:33:01.740 20/01/2026]',-105163.7,-188200.9,-113650.1,-133895.2,-375000,-375000,-150442.2,-121595.1,0.02,0.00,0.88,-4,0,-2,49,0
'[13:33:01.744 20/01/2026]',-105176.5,-188210,-113598.7,-133763,-375000,-375000,-150361.2,-121590.6,0.02,0.00,0.88,-4,0,-2,49,0
'[13:33:01.748 20/01/2026]',-105172.4,-188193.2,-113684.6,-134063.9,-375000,-375000,-150495.9,-121609.4,0.02,0.00,0.88,-4,0,-2,49,0
'[13:33:01.752 20/01/2026]',-105148.5,-188161.2,-113731,-134169.7,-375000,-375000,-150556.4,-121586.5,0.02,0.00,0.88,-4,0,-2,49,0
'[13:33:01.756 20/01/2026]',-105167.7,-188183.2,-113683.6,-133961.9,-375000,-375000,-150472.8,-121588.7,0.02,0.00,0.88,-4,0,-2,49,0
'[13:33:01.760 20/01/2026]',-105197.9,-188220.1,-113650.9,-133812,-375000,-375000,-150403,-121607.7,0.02,0.00,0.88,-4,0,-2,49,0
'[13:33:01.764 20/01/2026]',-105205,-188212.7,-113729.1,-134079.7,-375000,-375000,-150523.7,-121633.5,0.02,0.00,0.88,-4,0,-2,49,0
'[13:33:01.768 20/01/2026]',-105172.8,-188167,-113773.5,-134225,-375000,-375000,-150597.5,-121614,0.02,0.00,0.88,-4,0,-2,49,0
'[13:33:01.772 20/01/2026]',-105162.9,-188173.2,-113699.1,-133992.6,-375000,-375000,-150487.8,-121589.4,0.02,0.00,0.88,-4,0,-2,49,0
'[13:33:01.776 20/01/2026]',-105189.9,-188208.6,-113635,-133774.3,-375000,-375000,-150383.6,-121596.4,0.02,0.00,0.88,-4,0,-2,49,0
'[13:33:01.780 20/01/2026]',-105176.4,-188210.1,-113664,-133950.3,-375000,-375000,-150446.2,-121607.4,0.02,0.00,0.88,-4,0,-2,49,0
'[13:33:01.784 20/01/2026]',-105138.4,-188157.8,-113718.5,-134175.7,-375000,-375000,-150554.5,-121592.9,0.02,0.00,0.88,-4,0,-2,49,0
'[13:33:01.788 20/01/2026]',-105136.9,-188148.1,-113682.8,-134023.2,-375000,-375000,-150488.7,-121575.5,0.02,0.00,0.88,-4,0,-2,49,0
'[13:33:01.792 20/01/2026]',-105163.5,-188190.2,-113612.8,-133762.6,-375000,-375000,-150357.9,-121573.4,0.02,0.00,0.88,-4,0,-2,49,0
'[13:33:01.796 20/01/2026]',-105167.7,-188205.4,-113637.5,-133891.6,-375000,-375000,-150407.7,-121588.7,0.02,0.00,0.88,-4,0,-2,49,0
'[13:33:01.800 20/01/2026]',-105153,-188182.2,-113717.4,-134173.3,-375000,-375000,-150553.2,-121597.1,0.03,0.00,0.88,-4,0,-2,49,0
'[13:33:01.804 20/01/2026]',-105164.8,-188181.8,-113743.5,-134134.3,-375000,-375000,-150558.2,-121597.6,0.03,0.00,0.88,-4,0,-2,49,0
'[13:33:01.808 20/01/2026]',-105201.9,-188222.1,-113693.5,-133887.3,-375000,-375000,-150452.6,-121614,0.03,0.00,0.88,-4,0,-2,49,0
'[13:33:01.812 20/01/2026]',-105199.8,-188218.5,-113669.2,-133893.5,-375000,-375000,-150437.2,-121620.9,0.03,0.00,0.88,-4,0,-2,49,0
'[13:33:01.816 20/01/2026]',-105175.9,-188191.5,-113759.8,-134187.5,-375000,-375000,-150569.8,-121619.1,0.03,0.00,0.88,-4,0,-2,49,0
'[13:33:01.820 20/01/2026]',-105143.9,-188167.7,-113752.5,-134135.7,-375000,-375000,-150550.1,-121583.5,0.03,0.00,0.88,-4,0,-2,49,0
'[13:33:01.824 20/01/2026]',-105156.4,-188183.1,-113662.6,-133848.5,-375000,-375000,-150409.3,-121574.9,0.03,0.00,0.88,-4,0,-2,49,0
'[13:33:01.828 20/01/2026]',-105159.2,-188182.7,-113633.7,-133794.8,-375000,-375000,-150365,-121573.7,0.03,0.00,0.88,-4,0,-2,49,0
'[13:33:01.832 20/01/2026]',-105142.2,-188148.1,-113704.1,-134103,-375000,-375000,-150506.3,-121578.2,0.03,0.00,0.88,-4,0,-2,49,0
'[13:33:01.836 20/01/2026]',-105124.8,-188117.1,-113737.5,-134163.9,-375000,-375000,-150550.3,-121560.2,0.03,0.00,0.88,-4,0,-2,49,0
'[13:33:01.840 20/01/2026]',-105149.2,-188156.8,-113682.6,-133917.5,-375000,-375000,-150444.3,-121567.7,0.03,0.00,0.88,-4,0,-2,49,0
'[13:33:01.844 20/01/2026]',-105168.7,-188193.1,-113657.5,-133806.1,-375000,-375000,-150389.3,-121583.3,0.03,0.00,0.88,-4,0,-2,49,0
'[13:33:01.848 20/01/2026]',-105163.6,-188183.8,-113733.2,-134090.1,-375000,-375000,-150516.1,-121600.7,0.03,0.00,0.88,-4,0,-2,49,0
'[13:33:01.852 20/01/2026]',-105137.8,-188155.4,-113770.7,-134192.6,-375000,-375000,-150571.9,-121574.1,0.03,0.00,0.88,-4,0,-2,49,0
'[13:33:01.856 20/01/2026]',-105154.4,-188162.8,-113726.2,-133972.4,-375000,-375000,-150479.8,-121568.1,0.03,0.00,0.88,-4,0,-2,49,0
'[13:33:01.860 20/01/2026]',-105170.9,-188183.2,-113660.2,-133770.8,-375000,-375000,-150375.3,-121571.8,0.03,0.00,0.88,-4,0,-2,49,0
'[13:33:01.864 20/01/2026]',-105147.6,-188175,-113686.2,-133993.2,-375000,-375000,-150459,-121579.7,0.03,0.00,0.88,-4,0,-2,49,0
'[13:33:01.868 20/01/2026]',-105110.9,-188125.5,-113729.7,-134182.8,-375000,-375000,-150551.9,-121559.5,0.03,0.00,0.88,-4,0,-2,49,0
'[13:33:01.872 20/01/2026]',-105122.3,-188145.1,-113713.1,-134013.1,-375000,-375000,-150488.6,-121555.1,0.03,0.00,0.88,-4,0,-2,49,0
'[13:33:01.876 20/01/2026]',-105165.5,-188196.9,-113676.9,-133792.5,-375000,-375000,-150383.6,-121567.7,0.03,0.00,0.88,-4,0,-2,49,0
'[13:33:01.880 20/01/2026]',-105170.4,-188191.7,-113708.7,-133975.3,-375000,-375000,-150458.6,-121591.9,0.03,0.00,0.88,-4,0,-2,49,0
'[13:33:01.884 20/01/2026]',-105136.4,-188147.4,-113766.4,-134200,-375000,-375000,-150568,-121582.4,0.03,0.00,0.88,-4,0,-2,49,0
'[13:33:01.888 20/01/2026]',-105126.9,-188145,-113722.8,-134048.8,-375000,-375000,-150501.5,-121558,0.03,0.00,0.88,-4,0,-2,49,0
'[13:33:01.892 20/01/2026]',-105164.6,-188193.4,-113668.5,-133797.9,-375000,-375000,-150386.5,-121568.9,0.03,0.00,0.88,-4,0,-2,49,0
'[13:33:01.896 20/01/2026]',-105164.4,-188192.7,-113677.1,-133896.3,-375000,-375000,-150419.4,-121587.6,0.03,0.00,0.88,-4,0,-2,49,0
'[13:33:01.900 20/01/2026]',-105123.2,-188143.5,-113724.8,-134146.9,-375000,-375000,-150531.5,-121569.8,0.03,0.00,0.88,-4,0,-2,49,0
'[13:33:01.904 20/01/2026]',-105112.3,-188126.8,-113718.3,-134080.5,-375000,-375000,-150512.3,-121549.3,0.03,0.00,0.88,-4,0,-2,49,0
'[13:33:01.908 20/01/2026]',-105145.2,-188175.4,-113656.3,-133820.4,-375000,-375000,-150397.1,-121562.5,0.00,0.00,0.88,-4,0,-2,49,0
'[13:33:01.912 20/01/2026]',-105155.9,-188188.2,-113648.6,-133850.2,-375000,-375000,-150401,-121580.8,0.00,0.00,0.88,-4,0,-2,49,0
'[13:33:01.916 20/01/2026]',-105140.1,-188171.3,-113723.5,-134147,-375000,-375000,-150541.9,-121586.5,0.00,0.00,0.88,-4,0,-2,49,0
'[13:33:01.920 20/01/2026]',-105112.7,-188145.2,-113701.9,-134075.1,-375000,-375000,-150508,-121546.4,0.00,0.00,0.88,-4,0,-2,49,0
'[13:33:01.924 20/01/2026]',-105111.3,-188140.8,-113592.6,-133754.1,-375000,-375000,-150340.1,-121519.8,0.00,0.00,0.88,-4,0,-2,49,0
'[13:33:01.928 20/01/2026]',-105094.6,-188119,-113527.7,-133674.6,-375000,-375000,-150269.8,-121498.5,0.00,0.00,0.88,-4,0,-2,49,0
'[13:33:01.932 20/01/2026]',-105064.2,-188086,-113598.2,-133981.7,-375000,-375000,-150401.1,-121496.2,0.00,0.00,0.88,-4,0,-2,49,0
'[13:33:01.936 20/01/2026]',-105039.6,-188057.2,-113629.9,-134025.9,-375000,-375000,-150435.1,-121473.2,0.00,0.00,0.88,-4,0,-2,49,0
'[13:33:01.940 20/01/2026]',-105082.3,-188110.3,-113614.7,-133839.9,-375000,-375000,-150367.6,-121493.3,0.00,0.00,0.88,-4,0,-2,49,0
'[13:33:01.944 20/01/2026]',-105136.4,-188158.1,-113648.2,-133798.6,-375000,-375000,-150363,-121538.4,0.02,0.00,0.89,-4,0,-2,49,0
'[13:33:01.948 20/01/2026]',-105119.5,-188128.3,-113692.1,-134044,-375000,-375000,-150476,-121555.6,0.02,0.00,0.89,-4,0,-2,49,0
'[13:33:01.952 20/01/2026]',-105079,-188082.9,-113692.3,-134119.6,-375000,-375000,-150514,-121525.9,0.02,0.00,0.89,-4,0,-2,49,0
'[13:33:01.956 20/01/2026]',-105087,-188117.8,-113636.1,-133898.2,-375000,-375000,-150419.9,-121523.6,0.02,0.00,0.89,-4,0,-2,49,0
'[13:33:01.960 20/01/2026]',-105096.1,-188118.8,-113596.2,-133725.4,-375000,-375000,-150335.5,-121529.2,0.02,0.00,0.89,-4,0,-2,49,0
'[13:33:01.964 20/01/2026]',-105080.9,-188093.5,-113645.4,-133940.3,-375000,-375000,-150409.3,-121517.4,0.02,0.00,0.89,-4,0,-2,49,0
'[13:33:01.968 20/01/2026]',-105057.5,-188054.4,-113696.3,-134098.2,-375000,-375000,-150480.8,-121480,0.02,0.00,0.89,-4,0,-2,49,0
'[13:33:01.972 20/01/2026]',-105069.6,-188075.4,-113656.1,-133913.9,-375000,-375000,-150407.2,-121471.3,0.02,0.00,0.89,-4,0,-2,49,0
'[13:33:01.976 20/01/2026]',-105101.2,-188105.6,-113608.6,-133696.2,-375000,-375000,-150303,-121478.2,0.02,0.00,0.89,-4,0,-2,49,0
'[13:33:01.980 20/01/2026]',-105109.1,-188100.5,-113660.4,-133893.5,-375000,-375000,-150381.7,-121496.3,0.03,0.02,0.89,-4,0,-2,49,0
'[13:33:01.984 20/01/2026]',-105094.9,-188070.5,-113739.6,-134138.2,-375000,-375000,-150507.8,-121497,0.03,0.02,0.89,-4,0,-2,49,0
'[13:33:01.988 20/01/2026]',-105108.2,-188077.1,-113711.6,-133996.2,-375000,-375000,-150457.2,-121495.5,0.03,0.02,0.89,-4,0,-2,49,0
'[13:33:01.992 20/01/2026]',-105145.3,-188118.6,-113650.3,-133759,-375000,-375000,-150351.2,-121518.9,0.03,0.02,0.89,-4,0,-2,49,0
'[13:33:01.996 20/01/2026]',-105149.6,-188121,-113660.5,-133845.5,-375000,-375000,-150370.9,-121525.4,0.03,0.02,0.89,-4,0,-2,49,0
'[13:33:02.000 20/01/2026]',-105116.2,-188071,-113730.3,-134109,-375000,-375000,-150491.4,-121511.2,0.03,0.02,0.89,-4,0,-2,49,0
'[13:33:02.004 20/01/2026]',-105112.9,-188037.3,-113730.8,-134041.8,-375000,-375000,-150472.9,-121494,0.03,0.02,0.89,-4,0,-2,49,0
'[13:33:02.008 20/01/2026]',-105142.9,-188084.3,-113684.4,-133800.3,-375000,-375000,-150368.4,-121507.5,0.03,0.02,0.89,-4,0,-2,49,0
'[13:33:02.012 20/01/2026]',-105141.8,-188089.9,-113666.7,-133812.3,-375000,-375000,-150362.3,-121520.1,0.03,0.02,0.89,-4,0,-2,49,0
'[13:33:02.016 20/01/2026]',-105102.7,-188071.4,-113710.5,-134086.8,-375000,-375000,-150480.8,-121508.1,0.02,0.00,0.88,-4,0,-2,49,0
'[13:33:02.020 20/01/2026]',-105076.4,-188052.2,-113694.3,-134053.8,-375000,-375000,-150473.7,-121480.2,0.02,0.00,0.88,-4,0,-2,49,0
'[13:33:02.024 20/01/2026]',-105111.4,-188087.6,-113657.5,-133811.9,-375000,-375000,-150370.3,-121492,0.02,0.00,0.88,-4,0,-2,49,0
'[13:33:02.028 20/01/2026]',-105136.5,-188108.6,-113663.2,-133779.5,-375000,-375000,-150351.1,-121514.2,0.02,0.00,0.88,-4,0,-2,49,0
'[13:33:02.032 20/01/2026]',-105130.3,-188099.2,-113746.6,-134086.1,-375000,-375000,-150497.2,-121531.9,0.02,0.00,0.88,-4,0,-2,49,0
'[13:33:02.036 20/01/2026]',-105105.9,-188068.3,-113761.4,-134118.8,-375000,-375000,-150524.7,-121511.1,0.02,0.00,0.88,-4,0,-2,49,0
'[13:33:02.040 20/01/2026]',-105123.2,-188082.6,-113691.4,-133865.9,-375000,-375000,-150406.5,-121507.4,0.02,0.00,0.88,-4,0,-2,49,0
'[13:33:02.044 20/01/2026]',-105145.3,-188122,-113664.7,-133749.7,-375000,-375000,-150339,-121515.7,0.02,0.00,0.88,-4,0,-2,49,0
'[13:33:02.048 20/01/2026]',-105124.5,-188093.2,-113711.8,-134000.1,-375000,-375000,-150444.5,-121521.2,0.02,0.00,0.88,-4,0,-2,49,0
'[13:33:02.052 20/01/2026]',-105091.3,-188029,-113733.2,-134103.8,-375000,-375000,-150499.7,-121493.7,0.02,0.00,0.88,-4,0,-2,49,0
'[13:33:02.056 20/01/2026]',-105100.9,-188053.8,-113688.8,-133884.1,-375000,-375000,-150401.8,-121487.5,0.02,0.00,0.88,-4,0,-2,49,0
'[13:33:02.060 20/01/2026]',-105124,-188094.9,-113646.2,-133707.4,-375000,-375000,-150314.4,-121496.2,0.02,0.00,0.88,-4,0,-2,49,0
'[13:33:02.064 20/01/2026]',-105095.3,-188070.6,-113673.2,-133905.8,-375000,-375000,-150384.9,-121495.5,0.02,0.00,0.88,-4,0,-2,49,0
'[13:33:02.068 20/01/2026]',-105050.3,-188016.2,-113711.5,-134073.4,-375000,-375000,-150465.9,-121464.9,0.02,0.00,0.88,-4,0,-2,49,0
'[13:33:02.072 20/01/2026]',-105081.4,-188046.3,-113718.3,-133968.1,-375000,-375000,-150446.4,-121478.6,0.02,0.00,0.88,-4,0,-2,49,0
'[13:33:02.076 20/01/2026]',-105131.6,-188087.3,-113681.9,-133763.3,-375000,-375000,-150364.2,-121506.5,0.02,0.00,0.88,-4,0,-2,49,0
'[13:33:02.080 20/01/2026]',-105124.5,-188086.3,-113718.4,-133924.6,-375000,-375000,-150429.9,-121525.3,0.02,0.00,0.88,-4,0,-2,49,0
'[13:33:02.084 20/01/2026]',-105082.1,-188051.3,-113761.5,-134118.5,-375000,-375000,-150520.8,-121502.6,0.02,0.00,0.88,-4,0,-2,49,0
'[13:33:02.088 20/01/2026]',-105071.3,-188035.4,-113707.6,-133956.9,-375000,-375000,-150446.9,-121478.2,0.02,0.00,0.88,-4,0,-2,49,0
'[13:33:02.092 20/01/2026]',-105110.3,-188069.9,-113671.9,-133744.4,-375000,-375000,-150353.9,-121500.8,0.02,0.00,0.88,-4,0,-2,49,0
'[13:33:02.096 20/01/2026]',-105131.2,-188089.6,-113720.1,-133880.7,-375000,-375000,-150416.1,-121531.9,0.02,0.00,0.88,-4,0,-2,49,0
'[13:33:02.100 20/01/2026]',-105106.2,-188061.2,-113790.5,-134139,-375000,-375000,-150543,-121531.8,0.02,0.00,0.88,-4,0,-2,49,0
'[13:33:02.104 20/01/2026]',-105086.1,-188047.6,-113763.6,-134035.5,-375000,-375000,-150494.9,-121497.9,0.02,0.00,0.88,-4,0,-2,49,0
'[13:33:02.108 20/01/2026]',-105115.2,-188068,-113690.9,-133778.2,-375000,-375000,-150368.1,-121497.9,0.02,0.00,0.88,-4,0,-2,49,0
'[13:33:02.112 20/01/2026]',-105119.2,-188068.3,-113694.2,-133812.3,-375000,-375000,-150368.9,-121511.1,0.02,0.00,0.88,-4,0,-2,49,0
'[13:33:02.116 20/01/2026]',-105088.6,-188062,-113772.6,-134105.2,-375000,-375000,-150503.9,-121515.3,0.02,0.00,0.88,-4,0,-2,49,0
'[13:33:02.120 20/01/2026]',-105073.1,-188040.4,-113771.7,-134072.5,-375000,-375000,-150498.2,-121484.9,0.02,0.00,0.88,-4,0,-2,49,0
'[13:33:02.124 20/01/2026]',-105102.5,-188066.6,-113703.4,-133798.7,-375000,-375000,-150368.9,-121482.2,0.02,0.02,0.88,-4,0,-2,49,0
'[13:33:02.128 20/01/2026]',-105112.8,-188081,-113677.2,-133757.9,-375000,-375000,-150333.6,-121492,0.02,0.02,0.88,-4,0,-2,49,0
'[13:33:02.132 20/01/2026]',-105093,-188054.7,-113749.7,-134058.8,-375000,-375000,-150474.8,-121502.5,0.02,0.02,0.88,-4,0,-2,49,0
'[13:33:02.136 20/01/2026]',-105050.4,-188002.9,-113762.1,-134088.6,-375000,-375000,-150499.3,-121475.7,0.02,0.02,0.88,-4,0,-2,49,0
'[13:33:02.140 20/01/2026]',-105069.3,-188025.7,-113715.2,-133850,-375000,-375000,-150389.4,-121473,0.02,0.02,0.88,-4,0,-2,49,0
'[13:33:02.144 20/01/2026]',-105113.6,-188079.2,-113718.2,-133775.6,-375000,-375000,-150354.1,-121489.3,0.02,0.02,0.88,-4,0,-2,49,0
'[13:33:02.148 20/01/2026]',-105107,-188066.3,-113782.8,-134042.3,-375000,-375000,-150484.1,-121509.9,0.02,0.02,0.88,-4,0,-2,49,0
'[13:33:02.152 20/01/2026]',-105068.8,-188009.7,-113808.5,-134133.8,-375000,-375000,-150533.8,-121481.1,0.02,0.02,0.88,-4,0,-2,49,0
'[13:33:02.156 20/01/2026]',-105084.5,-188041.6,-113771.1,-133935.8,-375000,-375000,-150451.2,-121483.9,0.02,0.02,0.88,-4,0,-2,49,0
'[13:33:02.160 20/01/2026]',-105103,-188067.9,-113725.3,-133764,-375000,-375000,-150367.1,-121496.2,0.02,0.00,0.88,-4,0,-2,49,0
'[13:33:02.164 20/01/2026]',-105085.8,-188036.2,-113731.8,-133937.9,-375000,-375000,-150433.1,-121492.1,0.02,0.00,0.88,-4,0,-2,49,0
'[13:33:02.168 20/01/2026]',-105040.5,-187991.4,-113759.4,-134095.9,-375000,-375000,-150501.2,-121455.9,0.02,0.00,0.88,-4,0,-2,49,0
'[13:33:02.172 20/01/2026]',-105040.3,-187995.9,-113729.9,-133935.3,-375000,-375000,-150433.5,-121450.7,0.02,0.00,0.88,-4,0,-2,49,0
'[13:33:02.176 20/01/2026]',-105078.6,-188047.3,-113693.7,-133719.1,-375000,-375000,-150326.4,-121455.3,0.02,0.00,0.88,-4,0,-2,49,0
'[13:33:02.180 20/01/2026]',-105088.4,-188044.1,-113753.7,-133915.6,-375000,-375000,-150411.6,-121474.8,0.02,0.00,0.88,-4,0,-2,49,0
'[13:33:02.184 20/01/2026]',-105058.6,-187987.6,-113823.1,-134138,-375000,-375000,-150524,-121467,0.02,0.00,0.88,-4,0,-2,49,0
'[13:33:02.188 20/01/2026]',-105052.3,-188004.8,-113804,-134010.4,-375000,-375000,-150476.9,-121453.1,0.02,0.00,0.88,-4,0,-2,49,0
'[13:33:02.192 20/01/2026]',-105075.7,-188042.5,-113762.8,-133794.5,-375000,-375000,-150388.6,-121481.5,0.02,0.00,0.88,-4,0,-2,49,0
'[13:33:02.196 20/01/2026]',-105089.6,-188053.4,-113780.9,-133899.1,-375000,-375000,-150426.1,-121495.3,0.03,0.00,0.88,-4,0,-2,49,0
'[13:33:02.200 20/01/2026]',-105085.5,-188049.2,-113838.2,-134140.5,-375000,-375000,-150532.6,-121483.9,0.03,0.00,0.88,-4,0,-2,49,0
'[13:33:02.204 20/01/2026]',-105060.3,-188024.7,-113793.8,-134020.8,-375000,-375000,-150476.9,-121457.1,0.03,0.00,0.88,-4,0,-2,49,0
'[13:33:02.208 20/01/2026]',-105077.8,-188060.3,-113718.8,-133760.3,-375000,-375000,-150355.4,-121464.7,0.03,0.00,0.88,-4,0,-2,49,0
'[13:33:02.212 20/01/2026]',-105091.1,-188081.5,-113721.1,-133798.8,-375000,-375000,-150357.8,-121476.7,0.03,0.00,0.88,-4,0,-2,49,0
'[13:33:02.216 20/01/2026]',-105047.3,-188037.7,-113763.7,-134052.5,-375000,-375000,-150466.7,-121463.4,0.03,0.00,0.88,-4,0,-2,49,0
'[13:33:02.220 20/01/2026]',-105021.2,-187992.4,-113757.9,-134034.6,-375000,-375000,-150461.5,-121432.3,0.03,0.00,0.88,-4,0,-2,49,0
'[13:33:02.224 20/01/2026]',-105069.9,-188056.7,-113735.6,-133834,-375000,-375000,-150382,-121454.6,0.03,0.00,0.88,-4,0,-2,49,0
'[13:33:02.228 20/01/2026]',-105099.3,-188109.5,-113741.1,-133805.4,-375000,-375000,-150367.7,-121482.9,0.03,0.00,0.88,-4,0,-2,49,0
'[13:33:02.232 20/01/2026]',-105086.2,-188093.2,-113812.2,-134087.3,-375000,-375000,-150497.4,-121489.4,0.02,0.02,0.88,-4,0,-2,49,0
'[13:33:02.236 20/01/2026]',-105059.8,-188067.3,-113826.3,-134126.9,-375000,-375000,-150522.8,-121460.4,0.02,0.02,0.88,-4,0,-2,49,0
'[13:33:02.240 20/01/2026]',-105067.1,-188088.5,-113748.2,-133884,-375000,-375000,-150410.6,-121460.2,0.02,0.02,0.88,-4,0,-2,49,0
'[13:33:02.244 20/01/2026]',-105095.3,-188121.3,-113758.7,-133808.7,-375000,-375000,-150374.7,-121482.2,0.02,0.02,0.88,-4,0,-2,49,0
'[13:33:02.248 20/01/2026]',-105089.6,-188110.8,-113842.3,-134093,-375000,-375000,-150509.4,-121500.5,0.02,0.02,0.88,-4,0,-2,49,0
'[13:33:02.252 20/01/2026]',-105057.3,-188080.3,-113862.6,-134186.3,-375000,-375000,-150563.7,-121479,0.02,0.02,0.88,-4,0,-2,49,0
'[13:33:02.256 20/01/2026]',-105086.1,-188103.5,-113839.3,-133988.4,-375000,-375000,-150482.7,-121481.1,0.02,0.02,0.88,-4,0,-2,49,0
'[13:33:02.260 20/01/2026]',-105120.3,-188120,-113800.9,-133815.7,-375000,-375000,-150398.8,-121497.9,0.02,0.02,0.88,-4,0,-2,49,0
'[13:33:02.264 20/01/2026]',-105093.7,-188099.4,-113818.7,-133994.8,-375000,-375000,-150461,-121498,0.02,0.02,0.88,-4,0,-2,49,0
'[13:33:02.268 20/01/2026]',-105043.2,-188049.5,-113849.8,-134144.5,-375000,-375000,-150524.2,-121460.2,0.02,0.00,0.88,-4,0,-2,49,0
'[13:33:02.272 20/01/2026]',-105035.9,-188050.5,-113810,-133978.4,-375000,-375000,-150455.4,-121448.9,0.02,0.00,0.88,-4,0,-2,49,0
'[13:33:02.276 20/01/2026]',-105067.7,-188085.1,-113775.8,-133785.7,-375000,-375000,-150367.3,-121463.4,0.02,0.00,0.88,-4,0,-2,49,0
'[13:33:02.280 20/01/2026]',-105068.2,-188079.5,-113805.2,-133944.5,-375000,-375000,-150430.7,-121472.5,0.02,0.00,0.88,-4,0,-2,49,0
'[13:33:02.284 20/01/2026]',-105030.4,-188034.8,-113848.8,-134147.6,-375000,-375000,-150529.2,-121455.4,0.02,0.00,0.88,-4,0,-2,49,0
'[13:33:02.288 20/01/2026]',-105023.7,-188043.4,-113824,-134034,-375000,-375000,-150488.5,-121445.7,0.02,0.00,0.88,-4,0,-2,49,0
'[13:33:02.292 20/01/2026]',-105064.7,-188093.4,-113771.4,-133812.2,-375000,-375000,-150395.1,-121473.3,0.02,0.00,0.88,-4,0,-2,49,0
'[13:33:02.296 20/01/2026]',-105071.8,-188108.2,-113787.5,-133914.2,-375000,-375000,-150437.3,-121495.4,0.02,0.00,0.88,-4,0,-2,49,0
'[13:33:02.300 20/01/2026]',-105054,-188083.9,-113884.2,-134192.3,-375000,-375000,-150579.6,-121496.3,0.02,0.00,0.88,-4,0,-2,49,0
'[13:33:02.304 20/01/2026]',-105042.4,-188064.6,-113867.3,-134103.8,-375000,-375000,-150551.5,-121479.8,0.00,0.02,0.88,-4,0,-2,49,0
'[13:33:02.308 20/01/2026]',-105054.7,-188078.2,-113770,-133806.5,-375000,-375000,-150406.8,-121480.5,0.00,0.02,0.88,-4,0,-2,49,0
'[13:33:02.312 20/01/2026]',-105045.2,-188073.5,-113733.6,-133792.5,-375000,-375000,-150377.7,-121479.1,0.00,0.02,0.88,-4,0,-2,49,0
'[13:33:02.316 20/01/2026]',-105006.3,-188023,-113784.3,-134061.1,-375000,-375000,-150494.6,-121467.1,0.00,0.02,0.88,-4,0,-2,49,0
'[13:33:02.320 20/01/2026]',-104983.7,-188000.9,-113778.3,-134046.7,-375000,-375000,-150496.9,-121441.5,0.00,0.02,0.88,-4,0,-2,49,0
'[13:33:02.324 20/01/2026]',-105042.7,-188071.8,-113764,-133867,-375000,-375000,-150435,-121477.3,0.00,0.02,0.88,-4,0,-2,49,0
'[13:33:02.328 20/01/2026]',-105075.1,-188100.8,-113777.6,-133835.3,-375000,-375000,-150418.2,-121504.6,0.00,0.02,0.88,-4,0,-2,49,0
'[13:33:02.332 20/01/2026]',-105040.7,-188042,-113800.6,-134035.2,-375000,-375000,-150494.3,-121489.3,0.00,0.02,0.88,-4,0,-2,49,0
'[13:33:02.336 20/01/2026]',-105000,-188006.2,-113808.1,-134078.5,-375000,-375000,-150512.7,-121458,0.00,0.02,0.88,-4,0,-2,49,0
'[13:33:02.340 20/01/2026]',-105043.6,-188082.5,-113803.9,-133916.2,-375000,-375000,-150456.8,-121487.5,0.02,0.00,0.88,-4,0,-2,49,0
'[13:33:02.344 20/01/2026]',-105085.7,-188120.8,-113788.6,-133821.6,-375000,-375000,-150419.3,-121515.5,0.02,0.00,0.88,-4,0,-2,49,0
'[13:33:02.348 20/01/2026]',-105066.7,-188099.3,-113830,-134048.9,-375000,-375000,-150514.5,-121519.6,0.02,0.00,0.88,-4,0,-2,49,0
'[13:33:02.352 20/01/2026]',-105029.6,-188053,-113841.5,-134130.4,-375000,-375000,-150553.5,-121486.7,0.02,0.00,0.88,-4,0,-2,49,0
'[13:33:02.356 20/01/2026]',-105038,-188056.7,-113774.3,-133919.2,-375000,-375000,-150458.2,-121479.7,0.02,0.00,0.88,-4,0,-2,49,0
'[13:33:02.360 20/01/2026]',-105053.8,-188088.5,-113730.1,-133753.8,-375000,-375000,-150371.8,-121490.3,0.02,0.00,0.88,-4,0,-2,49,0
'[13:33:02.364 20/01/2026]',-105056.1,-188094.9,-113807.5,-133993.8,-375000,-375000,-150474.8,-121507.9,0.02,0.00,0.88,-4,0,-2,49,0
'[13:33:02.368 20/01/2026]',-105023.5,-188043.8,-113836.2,-134131.4,-375000,-375000,-150538.1,-121475.7,0.02,0.00,0.88,-4,0,-2,49,0
'[13:33:02.372 20/01/2026]',-105011.4,-188023.2,-113765,-133923.3,-375000,-375000,-150440.4,-121454.9,0.02,0.00,0.88,-4,0,-2,49,0
'[13:33:02.376 20/01/2026]',-105040.8,-188059.1,-113731.8,-133740,-375000,-375000,-150356.7,-121473.3,0.03,0.02,0.89,-4,0,-2,49,0
'[13:33:02.380 20/01/2026]',-105047.3,-188073.2,-113784.7,-133937,-375000,-375000,-150443.1,-121495.3,0.03,0.02,0.89,-4,0,-2,49,0
'[13:33:02.384 20/01/2026]',-105004.7,-188029,-113803.2,-134102,-375000,-375000,-150517.1,-121468.5,0.03,0.02,0.89,-4,0,-2,49,0
'[13:33:02.388 20/01/2026]',-104993.6,-188017,-113763.7,-133968.1,-375000,-375000,-150458.8,-121451.1,0.03,0.02,0.89,-4,0,-2,49,0
'[13:33:02.392 20/01/2026]',-105040.9,-188080.1,-113743.9,-133779.6,-375000,-375000,-150379.2,-121474.1,0.03,0.02,0.89,-4,0,-2,49,0
'[13:33:02.396 20/01/2026]',-105060.4,-188081.8,-113776.5,-133891.2,-375000,-375000,-150428.6,-121492.9,0.03,0.02,0.89,-4,0,-2,49,0
'[13:33:02.400 20/01/2026]',-105025.3,-188049,-113824.6,-134122.8,-375000,-375000,-150539.5,-121481.4,0.03,0.02,0.89,-4,0,-2,49,0
'[13:33:02.404 20/01/2026]',-105013.3,-188040.8,-113813.6,-134042.4,-375000,-375000,-150510.6,-121461.9,0.03,0.02,0.89,-4,0,-2,49,0
'[13:33:02.408 20/01/2026]',-105049.9,-188070.2,-113767.3,-133815.7,-375000,-375000,-150409.6,-121477.1,0.03,0.02,0.89,-4,0,-2,49,0
'[13:33:02.412 20/01/2026]',-105073.3,-188108.7,-113792.1,-133863.8,-375000,-375000,-150431.4,-121502.9,0.02,0.00,0.88,-4,0,-2,49,0
'[13:33:02.416 20/01/2026]',-105045.8,-188078.6,-113820.8,-134102.1,-375000,-375000,-150534.6,-121496,0.02,0.00,0.88,-4,0,-2,49,0
'[13:33:02.420 20/01/2026]',-105013.8,-188031.8,-113802.1,-134054.5,-375000,-375000,-150511.3,-121460.7,0.02,0.00,0.88,-4,0,-2,49,0
'[13:33:02.424 20/01/2026]',-105042.8,-188068,-113768,-133836.5,-375000,-375000,-150416.7,-121474.4,0.02,0.00,0.88,-4,0,-2,49,0
'[13:33:02.428 20/01/2026]',-105064.9,-188093.7,-113768.8,-133808.6,-375000,-375000,-150396.9,-121485.2,0.02,0.00,0.88,-4,0,-2,49,0
'[13:33:02.432 20/01/2026]',-105043.2,-188064.5,-113822.4,-134062.7,-375000,-375000,-150513.8,-121489.8,0.02,0.00,0.88,-4,0,-2,49,0
'[13:33:02.436 20/01/2026]',-105015.3,-188029.4,-113841.7,-134099.8,-375000,-375000,-150536.5,-121461.9,0.02,0.00,0.88,-4,0,-2,49,0
'[13:33:02.440 20/01/2026]',-105028.1,-188065.7,-113781.1,-133864.7,-375000,-375000,-150426.4,-121462.3,0.02,0.00,0.88,-4,0,-2,49,0
'[13:33:02.444 20/01/2026]',-105053.7,-188092.2,-113751,-133769,-375000,-375000,-150374.1,-121477.4,0.02,0.00,0.88,-4,0,-2,49,0
'[13:33:02.448 20/01/2026]',-105051.5,-188069.5,-113819.4,-134026.3,-375000,-375000,-150486,-121486.4,0.02,0.00,0.89,-4,0,-2,49,0
'[13:33:02.452 20/01/2026]',-105019.4,-188039.8,-113852.9,-134136.2,-375000,-375000,-150542.7,-121457.5,0.02,0.00,0.89,-4,0,-2,49,0
'[13:33:02.456 20/01/2026]',-105031.4,-188048.2,-113816.6,-133942.8,-375000,-375000,-150463.8,-121462.6,0.02,0.00,0.89,-4,0,-2,49,0
'[13:33:02.460 20/01/2026]',-105066.2,-188085.4,-113776.9,-133784.4,-375000,-375000,-150393,-121486.1,0.02,0.00,0.89,-4,0,-2,49,0
'[13:33:02.464 20/01/2026]',-105054.7,-188081.7,-113818.5,-133984,-375000,-375000,-150476,-121494.6,0.02,0.00,0.89,-4,0,-2,49,0
'[13:33:02.468 20/01/2026]',-105008,-188041.3,-113849.8,-134124.7,-375000,-375000,-150537,-121454.7,0.02,0.00,0.89,-4,0,-2,49,0
'[13:33:02.472 20/01/2026]',-105023.4,-188045.1,-113822.2,-133970.2,-375000,-375000,-150469.9,-121446.8,0.02,0.00,0.89,-4,0,-2,49,0
'[13:33:02.476 20/01/2026]',-105073.2,-188082.1,-113794.6,-133805,-375000,-375000,-150395.5,-121476.3,0.02,0.00,0.89,-4,0,-2,49,0
'[13:33:02.480 20/01/2026]',-105066.3,-188077.6,-113823.8,-133948.2,-375000,-375000,-150447.8,-121490,0.02,0.00,0.89,-4,0,-2,49,0
'[13:33:02.484 20/01/2026]',-105023,-188033.3,-113868.4,-134134.5,-375000,-375000,-150528.4,-121459.9,0.02,0.00,0.88,-4,0,-2,48,0
'[13:33:02.488 20/01/2026]',-105021.1,-188043.3,-113854.3,-134024.8,-375000,-375000,-150486.1,-121445.7,0.02,0.00,0.88,-4,0,-2,48,0
'[13:33:02.492 20/01/2026]',-105053.2,-188088.5,-113799.3,-133800.4,-375000,-375000,-150386,-121466.7,0.02,0.00,0.88,-4,0,-2,48,0
'[13:33:02.496 20/01/2026]',-105053.4,-188086.5,-113817.4,-133901.1,-375000,-375000,-150422.9,-121484.3,0.02,0.00,0.88,-4,0,-2,48,0
'[13:33:02.500 20/01/2026]',-105026.5,-188033.8,-113876.4,-134143.6,-375000,-375000,-150539.9,-121474.4,0.02,0.00,0.88,-4,0,-2,48,0
'[13:33:02.504 20/01/2026]',-105005.4,-188015.6,-113845.6,-134045.2,-375000,-375000,-150498,-121446.1,0.02,0.00,0.88,-4,0,-2,48,0
'[13:33:02.508 20/01/2026]',-105035.7,-188061.8,-113780.8,-133803.2,-375000,-375000,-150387.1,-121454.4,0.02,0.00,0.88,-4,0,-2,48,0
'[13:33:02.512 20/01/2026]',-105059.6,-188093.4,-113792.1,-133854.6,-375000,-375000,-150409.5,-121477.7,0.02,0.00,0.88,-4,0,-2,48,0
'[13:33:02.516 20/01/2026]',-105033.6,-188063.4,-113856.6,-134109.2,-375000,-375000,-150525.8,-121475.4,0.02,0.00,0.88,-4,0,-2,48,0
'[13:33:02.520 20/01/2026]',-105002.3,-188026.9,-113844.9,-134076.8,-375000,-375000,-150512.4,-121447.6,0.03,0.00,0.88,-4,0,-2,48,0
'[13:33:02.524 20/01/2026]',-105030.7,-188048.3,-113781.1,-133838.7,-375000,-375000,-150402.3,-121455.2,0.03,0.00,0.88,-4,0,-2,48,0
'[13:33:02.528 20/01/2026]',-105055.8,-188074,-113781.5,-133817.4,-375000,-375000,-150387.2,-121473.4,0.03,0.00,0.88,-4,0,-2,48,0
'[13:33:02.532 20/01/2026]',-105025,-188046,-113795.3,-134037.8,-375000,-375000,-150477.3,-121463,0.03,0.00,0.88,-4,0,-2,48,0
'[13:33:02.536 20/01/2026]',-104976.6,-187982.5,-113788.9,-134047.3,-375000,-375000,-150471.8,-121414.3,0.03,0.00,0.88,-4,0,-2,48,0
'[13:33:02.540 20/01/2026]',-104990.3,-188008.4,-113745.2,-133829.8,-375000,-375000,-150368.8,-121409.4,0.03,0.00,0.88,-4,0,-2,48,0
'[13:33:02.544 20/01/2026]',-105019.8,-188038.9,-113735,-133750.2,-375000,-375000,-150331.3,-121429.4,0.03,0.00,0.88,-4,0,-2,48,0
'[13:33:02.548 20/01/2026]',-105014.3,-188020,-113806.2,-134020.2,-375000,-375000,-150464.2,-121454.4,0.03,0.00,0.88,-4,0,-2,48,0
'[13:33:02.552 20/01/2026]',-104970.3,-187993.9,-113819.2,-134095.8,-375000,-375000,-150504.2,-121422.2,0.03,0.00,0.88,-4,0,-2,48,0
'[13:33:02.556 20/01/2026]',-104988.2,-188008.7,-113781.4,-133897,-375000,-375000,-150414,-121416.3,0.03,0.00,0.88,-4,0,-2,48,0
'[13:33:02.560 20/01/2026]',-105025.8,-188057.3,-113735.6,-133727.9,-375000,-375000,-150330,-121435.7,0.03,0.00,0.88,-4,0,-2,48,0
'[13:33:02.564 20/01/2026]',-105024.8,-188051.1,-113790.4,-133958.8,-375000,-375000,-150431.7,-121451.3,0.03,0.00,0.88,-4,0,-2,48,0
'[13:33:02.568 20/01/2026]',-104978.4,-187994.6,-113804.8,-134095.9,-375000,-375000,-150493.7,-121420.8,0.03,0.00,0.88,-4,0,-2,48,0
'[13:33:02.572 20/01/2026]',-104964.8,-187978.1,-113758.3,-133929,-375000,-375000,-150415.3,-121403.2,0.03,0.00,0.88,-4,0,-2,48,0
'[13:33:02.576 20/01/2026]',-105006.3,-188010.2,-113723.9,-133734.3,-375000,-375000,-150323.3,-121420.6,0.03,0.00,0.88,-4,0,-2,48,0
'[13:33:02.580 20/01/2026]',-105008.5,-188003.4,-113740.2,-133877.6,-375000,-375000,-150380.3,-121435.4,0.03,0.00,0.88,-4,0,-2,48,0
'[13:33:02.584 20/01/2026]',-104964.5,-187977.1,-113786.5,-134078.6,-375000,-375000,-150473.5,-121409.8,0.03,0.00,0.88,-4,0,-2,48,0
'[13:33:02.588 20/01/2026]',-104953.9,-187977.1,-113775.5,-133964.5,-375000,-375000,-150423.8,-121386.2,0.03,0.00,0.88,-4,0,-2,48,0
'[13:33:02.592 20/01/2026]',-105003.6,-188031.7,-113745.7,-133757.8,-375000,-375000,-150333.6,-121411.9,0.03,0.00,0.88,-4,0,-2,48,0
'[13:33:02.596 20/01/2026]',-105018.9,-188043.1,-113773.5,-133859.6,-375000,-375000,-150374,-121433.9,0.03,0.00,0.88,-4,0,-2,48,0
'[13:33:02.600 20/01/2026]',-104993.8,-188011.6,-113839.2,-134108.6,-375000,-375000,-150495,-121425.9,0.03,0.00,0.88,-4,0,-2,48,0
'[13:33:02.604 20/01/2026]',-104977.5,-187994.6,-113821.2,-134028.4,-375000,-375000,-150463,-121400.9,0.03,0.00,0.88,-4,0,-2,48,0
'[13:33:02.608 20/01/2026]',-105006.4,-188026.8,-113763.7,-133786.7,-375000,-375000,-150352,-121412.5,0.03,0.00,0.88,-4,0,-2,48,0
'[13:33:02.612 20/01/2026]',-105021.4,-188031.9,-113764.3,-133818.3,-375000,-375000,-150359.1,-121429.6,0.03,0.00,0.88,-4,0,-2,48,0
'[13:33:02.616 20/01/2026]',-104994.7,-188001.5,-113817.7,-134073,-375000,-375000,-150480.2,-121426.6,0.03,0.00,0.88,-4,0,-2,48,0
'[13:33:02.620 20/01/2026]',-104959.6,-187963.6,-113790.4,-134033,-375000,-375000,-150461.6,-121389.7,0.03,0.00,0.88,-4,0,-2,48,0
'[13:33:02.624 20/01/2026]',-104972.3,-187975.3,-113708.6,-133773.2,-375000,-375000,-150332.4,-121391.2,0.03,0.00,0.88,-4,0,-2,48,0
'[13:33:02.628 20/01/2026]',-104988.9,-188010.4,-113701.7,-133743.5,-375000,-375000,-150311.1,-121405.6,0.03,0.00,0.89,-4,0,-2,48,0
'[13:33:02.632 20/01/2026]',-104979.6,-188009.5,-113767.9,-134018.3,-375000,-375000,-150446,-121417.2,0.03,0.00,0.89,-4,0,-2,48,0
'[13:33:02.636 20/01/2026]',-104958,-187979.6,-113802.2,-134076.3,-375000,-375000,-150490.2,-121399.5,0.03,0.00,0.89,-4,0,-2,48,0
'[13:33:02.640 20/01/2026]',-104978.8,-188001.3,-113766.2,-133856.5,-375000,-375000,-150395.6,-121405.8,0.03,0.00,0.89,-4,0,-2,48,0
'[13:33:02.644 20/01/2026]',-105009.1,-188021.7,-113749.8,-133755.1,-375000,-375000,-150340.7,-121424.1,0.03,0.00,0.89,-4,0,-2,48,0
'[13:33:02.648 20/01/2026]',-105000.5,-188019.3,-113798.6,-133992,-375000,-375000,-150442.6,-121428.4,0.03,0.00,0.89,-4,0,-2,48,0
'[13:33:02.652 20/01/2026]',-104965.1,-187975.6,-113813.2,-134082.1,-375000,-375000,-150484.4,-121393.8,0.03,0.00,0.89,-4,0,-2,48,0
'[13:33:02.656 20/01/2026]',-104986,-187996.3,-113793,-133916.5,-375000,-375000,-150418.8,-121401.4,0.03,0.00,0.89,-4,0,-2,48,0
'[13:33:02.660 20/01/2026]',-105039.1,-188060,-113796.9,-133807.5,-375000,-375000,-150384.5,-121445.2,0.03,0.00,0.89,-4,0,-2,48,0
'[13:33:02.664 20/01/2026]',-105038.3,-188057.9,-113842.4,-134005.9,-375000,-375000,-150476.1,-121460.7,0.02,0.00,0.88,-4,0,-2,48,0
'[13:33:02.668 20/01/2026]',-104999.9,-188001,-113869.8,-134136.1,-375000,-375000,-150536.4,-121429.4,0.02,0.00,0.88,-4,0,-2,48,0
'[13:33:02.672 20/01/2026]',-105003.9,-188017.7,-113827.6,-133971.3,-375000,-375000,-150462.5,-121416.8,0.02,0.00,0.88,-4,0,-2,48,0
'[13:33:02.676 20/01/2026]',-105029.3,-188043.3,-113770,-133759,-375000,-375000,-150354.5,-121424.1,0.02,0.00,0.88,-4,0,-2,48,0
'[13:33:02.680 20/01/2026]',-105013.4,-188021.3,-113797.2,-133902,-375000,-375000,-150404.1,-121424.3,0.02,0.00,0.88,-4,0,-2,48,0
'[13:33:02.684 20/01/2026]',-104970.7,-187972.1,-113838.4,-134095.1,-375000,-375000,-150494,-121399.6,0.02,0.00,0.88,-4,0,-2,48,0
'[13:33:02.688 20/01/2026]',-104978.2,-187972.1,-113841.9,-134017.3,-375000,-375000,-150475.3,-121402.2,0.02,0.00,0.88,-4,0,-2,48,0
'[13:33:02.692 20/01/2026]',-105042.5,-188048.9,-113810.7,-133818.4,-375000,-375000,-150396.7,-121446.5,0.02,0.00,0.88,-4,0,-2,48,0
'[13:33:02.696 20/01/2026]',-105066.6,-188086.1,-113827.5,-133909.6,-375000,-375000,-150433.2,-121479.4,0.02,0.00,0.88,-4,0,-2,48,0
'[13:33:02.700 20/01/2026]',-105022.9,-188045.8,-113864.6,-134122.9,-375000,-375000,-150524.5,-121463.2,0.05,0.00,0.88,-4,0,-2,48,0
'[13:33:02.704 20/01/2026]',-105002.3,-188026.4,-113854.9,-134060.8,-375000,-375000,-150499.7,-121434.6,0.05,0.00,0.88,-4,0,-2,48,0
'[13:33:02.708 20/01/2026]',-105052,-188051.7,-113825.3,-133863.5,-375000,-375000,-150423.2,-121463,0.05,0.00,0.88,-4,0,-2,48,0
'[13:33:02.712 20/01/2026]',-105072,-188065.5,-113842,-133888.2,-375000,-375000,-150435.4,-121486.6,0.05,0.00,0.88,-4,0,-2,48,0
'[13:33:02.716 20/01/2026]',-105036.6,-188045.8,-113893.2,-134135.8,-375000,-375000,-150543.1,-121473.5,0.05,0.00,0.88,-4,0,-2,48,0
'[13:33:02.720 20/01/2026]',-105015.7,-188029,-113896.5,-134136.9,-375000,-375000,-150551,-121448.1,0.05,0.00,0.88,-4,0,-2,48,0
'[13:33:02.724 20/01/2026]',-105048.3,-188062.4,-113853.4,-133914,-375000,-375000,-150457.4,-121468.5,0.05,0.00,0.88,-4,0,-2,48,0
'[13:33:02.728 20/01/2026]',-105045.1,-188080.3,-113822.1,-133837.5,-375000,-375000,-150415.5,-121481.3,0.05,0.00,0.88,-4,0,-2,48,0
'[13:33:02.732 20/01/2026]',-105010.7,-188039.9,-113876.3,-134081.6,-375000,-375000,-150518.8,-121468,0.05,0.00,0.88,-4,0,-2,48,0
'[13:33:02.736 20/01/2026]',-104999.8,-188012.8,-113895.1,-134121.8,-375000,-375000,-150531.9,-121418.7,0.02,0.00,0.88,-4,0,-2,48,0
'[13:33:02.740 20/01/2026]',-105047.9,-188057.6,-113849.8,-133905.7,-375000,-375000,-150434.5,-121425,0.02,0.00,0.88,-4,0,-2,48,0
'[13:33:02.744 20/01/2026]',-105084.2,-188084.6,-113822.2,-133797.5,-375000,-375000,-150384.2,-121452,0.02,0.00,0.88,-4,0,-2,48,0
'[13:33:02.748 20/01/2026]',-105070.7,-188042.1,-113888.7,-134060.2,-375000,-375000,-150498.2,-121456.8,0.02,0.00,0.88,-4,0,-2,48,0
'[13:33:02.752 20/01/2026]',-105037.5,-187998.4,-113913,-134150.7,-375000,-375000,-150536,-121415.5,0.02,0.00,0.88,-4,0,-2,48,0
'[13:33:02.756 20/01/2026]',-105048.9,-188022,-113864.8,-133943.8,-375000,-375000,-150441.7,-121409.5,0.02,0.00,0.88,-4,0,-2,48,0
'[13:33:02.760 20/01/2026]',-105093.5,-188051.9,-113834.5,-133788.2,-375000,-375000,-150369.4,-121433.6,0.02,0.00,0.88,-4,0,-2,48,0
'[13:33:02.764 20/01/2026]',-105083.8,-188021,-113870.4,-133996.2,-375000,-375000,-150460.7,-121449.4,0.02,0.00,0.88,-4,0,-2,48,0
'[13:33:02.768 20/01/2026]',-105042,-187955.5,-113904.4,-134162,-375000,-375000,-150537.4,-121422.8,0.02,0.00,0.88,-4,0,-2,48,0
'[13:33:02.772 20/01/2026]',-105057.3,-188015.5,-113909.1,-134031.2,-375000,-375000,-150488.1,-121419.4,0.03,0.00,0.88,-4,0,-2,48,0
'[13:33:02.776 20/01/2026]',-105113.2,-188095.8,-113880.2,-133843.7,-375000,-375000,-150412.2,-121451.5,0.03,0.00,0.88,-4,0,-2,48,0
'[13:33:02.780 20/01/2026]',-105115.7,-188082.4,-113891.6,-133978.1,-375000,-375000,-150466.8,-121468.3,0.03,0.00,0.88,-4,0,-2,48,0
'[13:33:02.784 20/01/2026]',-105079.3,-188023.5,-113946.4,-134185.9,-375000,-375000,-150562.1,-121449.7,0.03,0.00,0.88,-4,0,-2,48,0
'[13:33:02.788 20/01/2026]',-105058.3,-188003.5,-113919.8,-134051.5,-375000,-375000,-150499.6,-121423.1,0.03,0.00,0.88,-4,0,-2,48,0
'[13:33:02.792 20/01/2026]',-105088.5,-188049.3,-113863.3,-133824.8,-375000,-375000,-150398.2,-121442.1,0.03,0.00,0.88,-4,0,-2,48,0
'[13:33:02.796 20/01/2026]',-105104,-188092.3,-113893.4,-133928.7,-375000,-375000,-150440.3,-121468.4,0.03,0.00,0.88,-4,0,-2,48,0
'[13:33:02.800 20/01/2026]',-105067.7,-188048,-113946.1,-134158.9,-375000,-375000,-150542.4,-121447.6,0.03,0.00,0.88,-4,0,-2,48,0
'[13:33:02.804 20/01/2026]',-105047.3,-188009,-113915.8,-134069.6,-375000,-375000,-150505.1,-121420.9,0.03,0.00,0.88,-4,0,-2,48,0
'[13:33:02.808 20/01/2026]',-105090.4,-188051.3,-113869.1,-133861.1,-375000,-375000,-150417.8,-121447.9,0.03,0.00,0.88,-4,0,-2,48,0
'[13:33:02.812 20/01/2026]',-105123.4,-188094,-113900.9,-133928.8,-375000,-375000,-150451.6,-121484.8,0.03,0.00,0.88,-4,0,-2,48,0
'[13:33:02.816 20/01/2026]',-105098.2,-188070,-113979.6,-134191.8,-375000,-375000,-150575.3,-121483.4,0.03,0.00,0.88,-4,0,-2,48,0
'[13:33:02.820 20/01/2026]',-105076.6,-188038.6,-113978.4,-134168.4,-375000,-375000,-150569.8,-121456.1,0.03,0.00,0.88,-4,0,-2,48,0
'[13:33:02.824 20/01/2026]',-105113.9,-188069.2,-113902.3,-133928.4,-375000,-375000,-150463.8,-121477.3,0.03,0.00,0.88,-4,0,-2,48,0
'[13:33:02.828 20/01/2026]',-105121.9,-188096.1,-113886.3,-133880.6,-375000,-375000,-150429.4,-121491.6,0.03,0.00,0.88,-4,0,-2,48,0
'[13:33:02.832 20/01/2026]',-105099.6,-188067.3,-113963,-134140.3,-375000,-375000,-150546.3,-121490,0.03,0.00,0.88,-4,0,-2,48,0
'[13:33:02.836 20/01/2026]',-105063.9,-188030.6,-113987.8,-134190.2,-375000,-375000,-150572.5,-121455,0.03,0.00,0.88,-4,0,-2,48,0
'[13:33:02.840 20/01/2026]',-105069.9,-188034.1,-113897.3,-133922.7,-375000,-375000,-150443.9,-121448.5,0.03,0.00,0.88,-4,0,-2,48,0
'[13:33:02.844 20/01/2026]',-105095.9,-188079.4,-113862.2,-133816.8,-375000,-375000,-150387.3,-121464.5,0.03,0.00,0.88,-4,0,-2,48,0
'[13:33:02.848 20/01/2026]',-105079.7,-188067.8,-113935.8,-134085.3,-375000,-375000,-150511.5,-121475.6,0.03,0.00,0.88,-4,0,-2,48,0
'[13:33:02.852 20/01/2026]',-105052.2,-188026.3,-113971.8,-134189.9,-375000,-375000,-150568,-121445.7,0.03,0.00,0.88,-4,0,-2,48,0
'[13:33:02.856 20/01/2026]',-105088,-188052.5,-113935.2,-134000.7,-375000,-375000,-150491.9,-121459.8,0.03,0.00,0.88,-4,0,-2,48,0
'[13:33:02.860 20/01/2026]',-105108.3,-188084.4,-113867.6,-133806.1,-375000,-375000,-150390.1,-121469.1,0.03,0.00,0.88,-4,0,-2,48,0
'[13:33:02.864 20/01/2026]',-105077.4,-188067.2,-113871.7,-133967.9,-375000,-375000,-150438.9,-121457,0.03,0.00,0.88,-4,0,-2,48,0
'[13:33:02.868 20/01/2026]',-105019.4,-187999.7,-113892.3,-134108.5,-375000,-375000,-150493.3,-121411.6,0.03,0.00,0.88,-4,0,-2,48,0
'[13:33:02.872 20/01/2026]',-105005.9,-187975.1,-113851.7,-133950.4,-375000,-375000,-150422.8,-121401,0.03,0.00,0.88,-4,0,-2,48,0
'[13:33:02.876 20/01/2026]',-105039.6,-188023.4,-113801.6,-133763,-375000,-375000,-150337.5,-121420.3,0.03,0.00,0.88,-4,0,-2,48,0
'[13:33:02.880 20/01/2026]',-105056.9,-188027.1,-113848.4,-133950.9,-375000,-375000,-150421.3,-121441.5,0.03,0.00,0.88,-4,0,-2,48,0
'[13:33:02.884 20/01/2026]',-105024.3,-187979.4,-113892.6,-134142.5,-375000,-375000,-150509.8,-121415.2,0.03,0.00,0.88,-4,0,-2,48,0
'[13:33:02.888 20/01/2026]',-105021.1,-187999.2,-113881.6,-134023,-375000,-375000,-150464,-121406.9,0.03,0.00,0.88,-4,0,-2,48,0
'[13:33:02.892 20/01/2026]',-105064.4,-188059.6,-113837.2,-133800.2,-375000,-375000,-150364.8,-121435.7,0.03,0.00,0.88,-4,0,-2,48,0
'[13:33:02.896 20/01/2026]',-105068.4,-188073.4,-113857.1,-133884.4,-375000,-375000,-150394.9,-121451.6,0.03,0.00,0.88,-4,0,-2,48,0
'[13:33:02.900 20/01/2026]',-105014.9,-188005.2,-113873.1,-134080.6,-375000,-375000,-150471.9,-121416.5,0.03,0.00,0.88,-4,0,-2,48,0
'[13:33:02.904 20/01/2026]',-104990.7,-187961.5,-113848.8,-134017.7,-375000,-375000,-150442.6,-121386.4,0.03,0.00,0.88,-4,0,-2,48,0
'[13:33:02.908 20/01/2026]',-105044.9,-188022.5,-113827.3,-133838.8,-375000,-375000,-150377.8,-121429,0.03,0.00,0.88,-4,0,-2,48,0
'[13:33:02.912 20/01/2026]',-105066.9,-188055.9,-113834.6,-133861.2,-375000,-375000,-150384.9,-121456,0.03,0.00,0.88,-4,0,-2,48,0
'[13:33:02.916 20/01/2026]',-105026.6,-188019.5,-113876.7,-134083.8,-375000,-375000,-150473.5,-121427.2,0.03,0.02,0.89,-4,0,-2,48,0
'[13:33:02.920 20/01/2026]',-105009.9,-188001,-113887.4,-134082.8,-375000,-375000,-150480.3,-121396.5,0.03,0.02,0.89,-4,0,-2,48,0
'[13:33:02.924 20/01/2026]',-105041.8,-188025.8,-113819.1,-133842.6,-375000,-375000,-150377.5,-121418.9,0.03,0.02,0.89,-4,0,-2,48,0
'[13:33:02.928 20/01/2026]',-105064.1,-188066.3,-113806.5,-133813.2,-375000,-375000,-150362.4,-121445.4,0.03,0.02,0.89,-4,0,-2,48,0
'[13:33:02.932 20/01/2026]',-105041.9,-188034,-113853,-134074.3,-375000,-375000,-150478.4,-121448.5,0.03,0.02,0.89,-4,0,-2,48,0
'[13:33:02.936 20/01/2026]',-105007.1,-187973.2,-113874.2,-134120.6,-375000,-375000,-150504.8,-121412,0.03,0.02,0.89,-4,0,-2,48,0
'[13:33:02.940 20/01/2026]',-105036.1,-188003.3,-113836.6,-133891.3,-375000,-375000,-150409.1,-121423.3,0.03,0.02,0.89,-4,0,-2,48,0
'[13:33:02.944 20/01/2026]',-105067.8,-188052.4,-113805.4,-133789.7,-375000,-375000,-150362.2,-121452,0.03,0.02,0.89,-4,0,-2,48,0
'[13:33:02.948 20/01/2026]',-105066.4,-188082.8,-113884.3,-134072.9,-375000,-375000,-150499.1,-121478,0.03,0.02,0.89,-4,0,-2,48,0
'[13:33:02.952 20/01/2026]',-105029.6,-188037.4,-113911.4,-134151.1,-375000,-375000,-150536,-121442.8,0.03,0.00,0.89,-4,0,-2,48,0
'[13:33:02.956 20/01/2026]',-105045.2,-188034.7,-113837.2,-133925.5,-375000,-375000,-150432.1,-121441.2,0.03,0.00,0.89,-4,0,-2,48,0
'[13:33:02.960 20/01/2026]',-105082.5,-188068.8,-113789.4,-133757.9,-375000,-375000,-150354.3,-121462.2,0.03,0.00,0.89,-4,0,-2,48,0
'[13:33:02.964 20/01/2026]',-105062.4,-188064.3,-113825.5,-133954.8,-375000,-375000,-150431.9,-121464.9,0.03,0.00,0.89,-4,0,-2,48,0
'[13:33:02.968 20/01/2026]',-104998.8,-188008.5,-113842.3,-134088.5,-375000,-375000,-150480.2,-121414.1,0.03,0.00,0.89,-4,0,-2,48,0
'[13:33:02.972 20/01/2026]',-104999,-188001,-113786.5,-133924.6,-375000,-375000,-150406.5,-121399.4,0.03,0.00,0.89,-4,0,-2,48,0
'[13:33:02.976 20/01/2026]',-105053.5,-188041.6,-113745.2,-133745.9,-375000,-375000,-150335.4,-121434.2,0.03,0.00,0.89,-4,0,-2,48,0
'[13:33:02.980 20/01/2026]',-105064.8,-188058.7,-113802.8,-133914.8,-375000,-375000,-150415.8,-121461.2,0.03,0.00,0.89,-4,0,-2,48,0
'[13:33:02.984 20/01/2026]',-105010.6,-187989.5,-113836.7,-134092.3,-375000,-375000,-150491.5,-121433.5,0.03,0.00,0.89,-4,0,-2,48,0
'[13:33:02.988 20/01/2026]',-104993.9,-187976.1,-113809.1,-133964,-375000,-375000,-150435,-121417.8,0.02,0.00,0.88,-4,0,-2,48,0
'[13:33:02.992 20/01/2026]',-105029.2,-188044,-113734.7,-133717.5,-375000,-375000,-150323.4,-121439,0.02,0.00,0.88,-4,0,-2,48,0
'[13:33:02.996 20/01/2026]',-105047.8,-188054.3,-113747.4,-133827,-375000,-375000,-150364.8,-121448.7,0.02,0.00,0.88,-4,0,-2,48,0
'[13:33:03.000 20/01/2026]',-105019.8,-188005.8,-113840.1,-134097.7,-375000,-375000,-150487.7,-121428.6,0.02,0.00,0.88,-4,0,-2,48,0
'[13:33:03.004 20/01/2026]',-105000.1,-187989.7,-113820.7,-133999.2,-375000,-375000,-150443.2,-121399.9,0.02,0.00,0.88,-4,0,-2,48,0
'[13:33:03.008 20/01/2026]',-105031.4,-188040.8,-113741.8,-133745.2,-375000,-375000,-150329.7,-121419,0.02,0.00,0.88,-4,0,-2,48,0
'[13:33:03.012 20/01/2026]',-105048.2,-188049.1,-113748.4,-133777.8,-375000,-375000,-150340.6,-121436.8,0.02,0.00,0.88,-4,0,-2,48,0
'[13:33:03.016 20/01/2026]',-105012.3,-188018.1,-113803.3,-134036.8,-375000,-375000,-150454.3,-121425.2,0.02,0.00,0.88,-4,0,-2,48,0
'[13:33:03.020 20/01/2026]',-104971.6,-187977.8,-113791.3,-134013.8,-375000,-375000,-150442.2,-121390.7,0.02,0.00,0.88,-4,0,-2,48,0
'[13:33:03.024 20/01/2026]',-105023.8,-188024.9,-113750.8,-133793.9,-375000,-375000,-150354.3,-121412.8,0.02,0.00,0.89,-4,0,-2,48,0
'[13:33:03.028 20/01/2026]',-105057.2,-188063.1,-113745,-133757,-375000,-375000,-150335.4,-121440,0.02,0.00,0.89,-4,0,-2,48,0
'[13:33:03.032 20/01/2026]',-105029.6,-188017.8,-113803.7,-134021.1,-375000,-375000,-150449.4,-121438.9,0.02,0.00,0.89,-4,0,-2,48,0
'[13:33:03.036 20/01/2026]',-104982.5,-187975.3,-113812.9,-134046.5,-375000,-375000,-150451.8,-121390.3,0.02,0.00,0.89,-4,0,-2,48,0
'[13:33:03.040 20/01/2026]',-105000.7,-188000.3,-113751.2,-133822,-375000,-375000,-150355.4,-121399.4,0.02,0.00,0.89,-4,0,-2,48,0
'[13:33:03.044 20/01/2026]',-105031,-188027.4,-113713.6,-133714,-375000,-375000,-150310,-121431.1,0.02,0.00,0.89,-4,0,-2,48,0
'[13:33:03.048 20/01/2026]',-105021.3,-188023.5,-113771.4,-133965.4,-375000,-375000,-150421.8,-121440.5,0.02,0.00,0.89,-4,0,-2,48,0
'[13:33:03.052 20/01/2026]',-104981.8,-187967.6,-113811.1,-134082,-375000,-375000,-150477.6,-121407.3,0.02,0.00,0.89,-4,0,-2,48,0
'[13:33:03.056 20/01/2026]',-104995.1,-188005.8,-113756.4,-133868.2,-375000,-375000,-150387.8,-121402.8,0.02,0.00,0.89,-4,0,-2,48,0
'[13:33:03.060 20/01/2026]',-105041,-188052.7,-113713.4,-133706.5,-375000,-375000,-150319.9,-121434.4,0.02,0.00,0.88,-4,0,-2,48,0
'[13:33:03.064 20/01/2026]',-105050.7,-188047.7,-113784.8,-133946,-375000,-375000,-150434.3,-121462.6,0.02,0.00,0.88,-4,0,-2,48,0
'[13:33:03.068 20/01/2026]',-105022.4,-188009.4,-113851.4,-134143.1,-375000,-375000,-150532.2,-121446.1,0.02,0.00,0.88,-4,0,-2,48,0
'[13:33:03.072 20/01/2026]',-105022.1,-188016.7,-113790.4,-133954.6,-375000,-375000,-150455,-121449.9,0.02,0.00,0.88,-4,0,-2,48,0
'[13:33:03.076 20/01/2026]',-105052.8,-188052.8,-113737.6,-133739,-375000,-375000,-150362.3,-121473.9,0.02,0.00,0.88,-4,0,-2,48,0
'[13:33:03.080 20/01/2026]',-105037.9,-188031.9,-113749,-133853.7,-375000,-375000,-150398.8,-121483.8,0.02,0.00,0.88,-4,0,-2,48,0
'[13:33:03.084 20/01/2026]',-105007.2,-188010.5,-113787.9,-134049.9,-375000,-375000,-150466.9,-121432.8,0.02,0.00,0.88,-4,0,-2,48,0
'[13:33:03.088 20/01/2026]',-104988.1,-188014.5,-113740.2,-133910.3,-375000,-375000,-150397.2,-121398.9,0.02,0.00,0.88,-4,0,-2,48,0
'[13:33:03.092 20/01/2026]',-105014.1,-188053.4,-113671.5,-133673.4,-375000,-375000,-150295.1,-121426.1,0.02,0.00,0.88,-4,0,-2,48,0
'[13:33:03.096 20/01/2026]',-105008.9,-188042.9,-113670.7,-133751.2,-375000,-375000,-150317.8,-121435.5,0.02,0.00,0.88,-4,0,-2,48,0
'[13:33:03.100 20/01/2026]',-104961.2,-187968.3,-113715.8,-133998.6,-375000,-375000,-150420.7,-121410.4,0.02,0.00,0.88,-4,0,-2,48,0
'[13:33:03.104 20/01/2026]',-104936.7,-187956.9,-113710.3,-133935.9,-375000,-375000,-150392.9,-121382.6,0.02,0.00,0.88,-4,0,-2,48,0
'[13:33:03.108 20/01/2026]',-104973.3,-188027.2,-113625.8,-133663.7,-375000,-375000,-150266.9,-121390.5,0.02,0.00,0.88,-4,0,-2,48,0
'[13:33:03.112 20/01/2026]',-104984.2,-188033.3,-113591.5,-133644.3,-375000,-375000,-150234.4,-121394.2,0.02,0.00,0.88,-4,0,-2,48,0
'[13:33:03.116 20/01/2026]',-104910.9,-187952.6,-113595.8,-133847.5,-375000,-375000,-150295.4,-121348.7,0.02,0.00,0.88,-4,0,-2,48,0
'[13:33:03.120 20/01/2026]',-104860.3,-187905.3,-113571.2,-133825.9,-375000,-375000,-150275.8,-121299.2,0.02,0.00,0.88,-4,0,-2,48,0
'[13:33:03.124 20/01/2026]',-104872.9,-187921.6,-113481,-133568.9,-375000,-375000,-150161.9,-121307.3,0.02,0.00,0.88,-4,0,-2,48,0
'[13:33:03.128 20/01/2026]',-104895,-187943.6,-113473.5,-133533,-375000,-375000,-150140.8,-121324.8,0.02,0.00,0.88,-4,0,-2,48,0
'[13:33:03.132 20/01/2026]',-104875.8,-187925.7,-113561.6,-133820.4,-375000,-375000,-150270.4,-121323.4,0.02,0.00,0.88,-4,0,-2,48,0
'[13:33:03.136 20/01/2026]',-104863.6,-187909.4,-113619.7,-133926.8,-375000,-375000,-150337,-121309.2,0.02,0.00,0.88,-4,0,-2,48,0
'[13:33:03.140 20/01/2026]',-104896.8,-187944,-113568.1,-133689.8,-375000,-375000,-150243.7,-121329.5,0.02,0.00,0.88,-4,0,-2,48,0
'[13:33:03.144 20/01/2026]',-104927.2,-187972,-113539.5,-133569,-375000,-375000,-150188.1,-121358,0.02,0.00,0.88,-4,0,-2,48,0
'[13:33:03.148 20/01/2026]',-104892.8,-187945.3,-113570.4,-133781.8,-375000,-375000,-150270.2,-121345.8,0.02,0.00,0.88,-4,0,-2,48,0
'[13:33:03.152 20/01/2026]',-104864.1,-187894.9,-113635.9,-133960.2,-375000,-375000,-150367.3,-121324.1,0.02,0.00,0.88,-4,0,-2,48,0
'[13:33:03.156 20/01/2026]',-104915.2,-187963.3,-113641.7,-133822.4,-375000,-375000,-150337.3,-121360,0.02,0.00,0.88,-4,0,-2,48,0
'[13:33:03.160 20/01/2026]',-104978.4,-188025.2,-113622.3,-133669,-375000,-375000,-150280.5,-121404.8,0.02,0.00,0.88,-4,0,-2,48,0
'[13:33:03.164 20/01/2026]',-104967,-188002.5,-113637.4,-133816.9,-375000,-375000,-150329.6,-121406,0.02,0.00,0.88,-4,0,-2,48,0
'[13:33:03.168 20/01/2026]',-104865.9,-187913.6,-113556,-133837.5,-375000,-375000,-150289.4,-121313,0.02,-0.02,0.88,-4,0,-2,48,0
'[13:33:03.172 20/01/2026]',-104820.9,-187887.5,-113453.2,-133613.7,-375000,-375000,-150161.1,-121260.2,0.02,-0.02,0.88,-4,0,-2,48,0
'[13:33:03.176 20/01/2026]',-104837.3,-187898.9,-113367.6,-133383.8,-375000,-375000,-150044.6,-121259.8,0.02,-0.02,0.88,-4,0,-2,48,0
'[13:33:03.180 20/01/2026]',-104816.9,-187852.3,-113390.4,-133535.4,-375000,-375000,-150102.1,-121263.3,0.02,-0.02,0.88,-4,0,-2,48,0
'[13:33:03.184 20/01/2026]',-104749.9,-187786.8,-113431,-133743.7,-375000,-375000,-150184.9,-121216.7,0.02,-0.02,0.88,-4,0,-2,48,0
'[13:33:03.188 20/01/2026]',-104718.5,-187765,-113366.6,-133600.9,-375000,-375000,-150119.5,-121191,0.02,-0.02,0.88,-4,0,-2,48,0
'[13:33:03.192 20/01/2026]',-104740.6,-187794.5,-113276.9,-133340,-375000,-375000,-150004.6,-121204.9,0.02,-0.02,0.88,-4,0,-2,48,0
'[13:33:03.196 20/01/2026]',-104751.6,-187816.6,-113311.4,-133444.3,-375000,-375000,-150045.7,-121217.9,0.02,-0.02,0.88,-4,0,-2,48,0
'[13:33:03.200 20/01/2026]',-104721.8,-187778.3,-113395.6,-133715.2,-375000,-375000,-150165.5,-121197,0.02,-0.02,0.88,-4,0,-2,48,0
'[13:33:03.204 20/01/2026]',-104708.5,-187783.3,-113385,-133652.4,-375000,-375000,-150141.5,-121173.2,0.02,0.02,0.88,-4,0,-2,48,0
'[13:33:03.208 20/01/2026]',-104752.3,-187833.4,-113311.1,-133405.6,-375000,-375000,-150037.4,-121197.9,0.02,0.02,0.88,-4,0,-2,48,0
'[13:33:03.212 20/01/2026]',-104776.1,-187841.8,-113346.5,-133445.6,-375000,-375000,-150053.3,-121223.6,0.02,0.02,0.88,-4,0,-2,48,0
'[13:33:03.216 20/01/2026]',-104747.8,-187785,-113408.5,-133705.1,-375000,-375000,-150165.1,-121212.8,0.02,0.02,0.88,-4,0,-2,48,0
'[13:33:03.220 20/01/2026]',-104721.4,-187766.5,-113415.7,-133691.9,-375000,-375000,-150160,-121175.5,0.02,0.02,0.88,-4,0,-2,48,0
'[13:33:03.224 20/01/2026]',-104756.9,-187804.2,-113368.4,-133464.2,-375000,-375000,-150068.1,-121194.3,0.02,0.02,0.88,-4,0,-2,48,0
'[13:33:03.228 20/01/2026]',-104792.3,-187826,-113369,-133436.5,-375000,-375000,-150063,-121230,0.02,0.02,0.88,-4,0,-2,48,0
'[13:33:03.232 20/01/2026]',-104773.8,-187815.6,-113435.4,-133720.3,-375000,-375000,-150189.3,-121232.9,0.02,0.02,0.88,-4,0,-2,48,0
'[13:33:03.236 20/01/2026]',-104742.2,-187780,-113450.2,-133768.6,-375000,-375000,-150211.5,-121196.3,0.02,0.02,0.88,-4,0,-2,48,0
'[13:33:03.240 20/01/2026]',-104763.9,-187823.5,-113384.4,-133510.7,-375000,-375000,-150099.9,-121199.2,0.02,0.00,0.89,-4,0,-2,48,0
'[13:33:03.244 20/01/2026]',-104789.4,-187850.8,-113355.6,-133398,-375000,-375000,-150045.2,-121222.5,0.02,0.00,0.89,-4,0,-2,48,0
'[13:33:03.248 20/01/2026]',-104780.5,-187827.5,-113424.1,-133670,-375000,-375000,-150163.3,-121231,0.02,0.00,0.89,-4,0,-2,48,0
'[13:33:03.252 20/01/2026]',-104763.1,-187799.7,-113496.8,-133827.4,-375000,-375000,-150249.6,-121212.8,0.02,0.00,0.89,-4,0,-2,48,0
'[13:33:03.256 20/01/2026]',-104787.3,-187833.4,-113453.8,-133627.7,-375000,-375000,-150173,-121227.1,0.02,0.00,0.89,-4,0,-2,48,0
'[13:33:03.260 20/01/2026]',-104834.2,-187875.9,-113411,-133468.3,-375000,-375000,-150108.5,-121265.1,0.02,0.00,0.89,-4,0,-2,48,0
'[13:33:03.264 20/01/2026]',-104840.7,-187851.5,-113471,-133695.5,-375000,-375000,-150214.8,-121294.7,0.02,0.00,0.89,-4,0,-2,48,0
'[13:33:03.268 20/01/2026]',-104804.3,-187838.3,-113520.1,-133868.3,-375000,-375000,-150292.9,-121269.3,0.02,0.00,0.89,-4,0,-2,48,0
'[13:33:03.272 20/01/2026]',-104793.8,-187861,-113476.3,-133672.1,-375000,-375000,-150202.8,-121252.9,0.02,0.00,0.89,-4,0,-2,48,0
'[13:33:03.276 20/01/2026]',-104830,-187908.3,-113405.7,-133441,-375000,-375000,-150102,-121281.6,0.03,0.00,0.88,-4,0,-2,48,0
'[13:33:03.280 20/01/2026]',-104833.5,-187894.8,-113436.9,-133602.1,-375000,-375000,-150171.8,-121297.2,0.03,0.00,0.88,-4,0,-2,48,0
'[13:33:03.284 20/01/2026]',-104804.7,-187837.7,-113511.4,-133837.4,-375000,-375000,-150277.4,-121272.1,0.03,0.00,0.88,-4,0,-2,48,0
'[13:33:03.288 20/01/2026]',-104815.3,-187849.2,-113512.7,-133757.5,-375000,-375000,-150259.5,-121271.9,0.03,0.00,0.88,-4,0,-2,48,0
'[13:33:03.292 20/01/2026]',-104882.2,-187934.2,-113496.2,-133566.7,-375000,-375000,-150204.3,-121334.6,0.03,0.00,0.88,-4,0,-2,48,0
'[13:33:03.296 20/01/2026]',-104896.4,-187958.7,-113531.9,-133661.5,-375000,-375000,-150246.4,-121357.3,0.03,0.00,0.88,-4,0,-2,48,0
'[13:33:03.300 20/01/2026]',-104888.6,-187933.7,-113636,-133969.6,-375000,-375000,-150398.4,-121362.5,0.03,0.00,0.88,-4,0,-2,48,0
'[13:33:03.304 20/01/2026]',-104924.3,-187950.6,-113694.3,-133979.6,-375000,-375000,-150435.8,-121379.9,0.03,0.00,0.88,-4,0,-2,48,0
'[13:33:03.308 20/01/2026]',-104995.8,-188042.9,-113669.5,-133750.8,-375000,-375000,-150361.7,-121432.6,0.03,0.00,0.88,-4,0,-2,48,0
'[13:33:03.312 20/01/2026]',-105013.9,-188069.8,-113646.7,-133732.5,-375000,-375000,-150348.6,-121459.5,0.02,0.00,0.88,-4,0,-2,48,0
'[13:33:03.316 20/01/2026]',-104977.4,-188025.6,-113680.6,-133982,-375000,-375000,-150449.8,-121449,0.02,0.00,0.88,-4,0,-2,48,0
'[13:33:03.320 20/01/2026]',-104940.4,-187985.9,-113650.2,-133960.3,-375000,-375000,-150431.3,-121405.8,0.02,0.00,0.88,-4,0,-2,48,0
'[13:33:03.324 20/01/2026]',-104983.1,-188041.3,-113620.7,-133735.4,-375000,-375000,-150343.2,-121431.7,0.02,0.00,0.88,-4,0,-2,48,0
'[13:33:03.328 20/01/2026]',-105022.1,-188086.2,-113638.5,-133690.9,-375000,-375000,-150326.7,-121465.1,0.02,0.00,0.88,-4,0,-2,48,0
'[13:33:03.332 20/01/2026]',-104998.3,-188047.5,-113695.1,-133958,-375000,-375000,-150435.7,-121461.6,0.02,0.00,0.88,-4,0,-2,48,0
'[13:33:03.336 20/01/2026]',-104959.8,-187986.9,-113710.9,-134015.2,-375000,-375000,-150462.7,-121428.8,0.02,0.00,0.88,-4,0,-2,48,0
'[13:33:03.340 20/01/2026]',-104981,-188011.3,-113644.6,-133774.8,-375000,-375000,-150365.3,-121447.1,0.02,0.00,0.88,-4,0,-2,48,0
'[13:33:03.344 20/01/2026]',-105045.7,-188096.2,-113683.2,-133748.9,-375000,-375000,-150382.4,-121505,0.02,0.00,0.88,-4,0,-2,48,0
'[13:33:03.348 20/01/2026]',-105019,-188078.8,-113697,-133918.1,-375000,-375000,-150437.3,-121499.3,0.03,0.02,0.89,-4,0,-2,48,0
'[13:33:03.352 20/01/2026]',-104955.3,-188008.9,-113677.1,-133984.9,-375000,-375000,-150444.2,-121442.2,0.03,0.02,0.89,-4,0,-2,48,0
'[13:33:03.356 20/01/2026]',-104974.3,-188042.8,-113635,-133806,-375000,-375000,-150373.3,-121444.9,0.03,0.02,0.89,-4,0,-2,48,0
'[13:33:03.360 20/01/2026]',-105003.4,-188070.1,-113565.7,-133607.4,-375000,-375000,-150280,-121460.6,0.03,0.02,0.89,-4,0,-2,48,0
'[13:33:03.364 20/01/2026]',-104984.8,-188038.3,-113597.4,-133805,-375000,-375000,-150351.1,-121462.4,0.03,0.02,0.89,-4,0,-2,48,0
'[13:33:03.368 20/01/2026]',-104935.3,-187991.8,-113640,-133979.9,-375000,-375000,-150423.8,-121423.6,0.03,0.02,0.89,-4,0,-2,48,0
'[13:33:03.372 20/01/2026]',-104924.9,-187992.6,-113587,-133801.9,-375000,-375000,-150353.4,-121410.2,0.03,0.02,0.89,-4,0,-2,48,0
'[13:33:03.376 20/01/2026]',-104973.6,-188029.3,-113540.8,-133582.6,-375000,-375000,-150251.8,-121424.8,0.03,0.02,0.89,-4,0,-2,48,0
'[13:33:03.380 20/01/2026]',-105008.5,-188047.1,-113633.6,-133805.9,-375000,-375000,-150348.6,-121442.1,0.03,0.02,0.89,-4,0,-2,48,0
'[13:33:03.384 20/01/2026]',-104970.2,-187992.5,-113704.3,-134024.8,-375000,-375000,-150452.5,-121420.4,0.02,-0.02,0.89,-4,0,-2,48,0
'[13:33:03.388 20/01/2026]',-104954.7,-187989.3,-113658.7,-133897.8,-375000,-375000,-150404.9,-121407.4,0.02,-0.02,0.89,-4,0,-2,48,0
'[13:33:03.392 20/01/2026]',-105029.5,-188081.4,-113667.4,-133736.9,-375000,-375000,-150361.3,-121465.7,0.02,-0.02,0.89,-4,0,-2,48,0
'[13:33:03.396 20/01/2026]',-105069.8,-188107.9,-113712.5,-133836.3,-375000,-375000,-150406.8,-121499.2,0.02,-0.02,0.89,-4,0,-2,48,0
'[13:33:03.400 20/01/2026]',-105028.6,-188049.4,-113746.3,-134040.4,-375000,-375000,-150489,-121471.7,0.02,-0.02,0.89,-4,0,-2,48,0
'[13:33:03.404 20/01/2026]',-105020,-188027.4,-113755.7,-134002.1,-375000,-375000,-150480,-121459.5,0.02,-0.02,0.89,-4,0,-2,48,0
'[13:33:03.408 20/01/2026]',-105090.4,-188105.3,-113720.7,-133792.3,-375000,-375000,-150408,-121510.6,0.02,-0.02,0.89,-4,0,-2,48,0
'[13:33:03.412 20/01/2026]',-105144.3,-188157.4,-113739.5,-133833.4,-375000,-375000,-150437.3,-121562.1,0.02,-0.02,0.89,-4,0,-2,48,0
'[13:33:03.416 20/01/2026]',-105120.2,-188125.6,-113787,-134080.1,-375000,-375000,-150534,-121548.3,0.02,-0.02,0.89,-4,0,-2,48,0
'[13:33:03.420 20/01/2026]',-105083.4,-188085.9,-113783.3,-134069.8,-375000,-375000,-150526.8,-121508.1,0.02,0.00,0.89,-4,0,-2,48,0
'[13:33:03.424 20/01/2026]',-105089.8,-188089.6,-113681.6,-133765.7,-375000,-375000,-150385.9,-121510.4,0.02,0.00,0.89,-4,0,-2,48,0
'[13:33:03.428 20/01/2026]',-105092.5,-188092.1,-113620.3,-133671.8,-375000,-375000,-150320.7,-121515.1,0.02,0.00,0.89,-4,0,-2,48,0
'[13:33:03.432 20/01/2026]',-105062.6,-188082.5,-113691.3,-133964.8,-375000,-375000,-150440.2,-121500,0.02,0.00,0.89,-4,0,-2,48,0
'[13:33:03.436 20/01/2026]',-105028.3,-188037.3,-113725.6,-134051,-375000,-375000,-150486.2,-121469.1,0.02,0.00,0.89,-4,0,-2,48,0
'[13:33:03.440 20/01/2026]',-105050.2,-188047.1,-113664.6,-133829.8,-375000,-375000,-150399.7,-121487.5,0.02,0.00,0.89,-4,0,-2,48,0
'[13:33:03.444 20/01/2026]',-105073.4,-188111,-113640.3,-133698.3,-375000,-375000,-150338.7,-121505.8,0.02,0.00,0.89,-4,0,-2,48,0
'[13:33:03.448 20/01/2026]',-105064.2,-188113.8,-113729.8,-133972.2,-375000,-375000,-150457.1,-121510.2,0.02,0.00,0.89,-4,0,-2,48,0
'[13:33:03.452 20/01/2026]',-105028.9,-188055.9,-113762.9,-134087,-375000,-375000,-150509.4,-121476.3,0.02,0.00,0.89,-4,0,-2,48,0
'[13:33:03.456 20/01/2026]',-105048.2,-188072.1,-113708.1,-133875.3,-375000,-375000,-150420.8,-121482.3,0.03,-0.02,0.88,-4,0,-2,48,0
'[13:33:03.460 20/01/2026]',-105078.9,-188111.8,-113636.5,-133668.5,-375000,-375000,-150324.9,-121495.8,0.03,-0.02,0.88,-4,0,-2,48,0
'[13:33:03.464 20/01/2026]',-105067.8,-188094.8,-113674.8,-133873.3,-375000,-375000,-150403.9,-121503,0.03,-0.02,0.88,-4,0,-2,48,0
'[13:33:03.468 20/01/2026]',-105013.9,-188023.9,-113720.3,-134039.9,-375000,-375000,-150468,-121460.9,0.03,-0.02,0.88,-4,0,-2,48,0
'[13:33:03.472 20/01/2026]',-105006.3,-188013.2,-113664.3,-133863.3,-375000,-375000,-150391.3,-121438.4,0.03,-0.02,0.88,-4,0,-2,48,0
'[13:33:03.476 20/01/2026]',-105044,-188061.3,-113594.6,-133631,-375000,-375000,-150288.2,-121456.1,0.03,-0.02,0.88,-4,0,-2,48,0
'[13:33:03.480 20/01/2026]',-105044.8,-188055,-113609.8,-133767.5,-375000,-375000,-150338.8,-121467.2,0.03,-0.02,0.88,-4,0,-2,48,0
'[13:33:03.484 20/01/2026]',-105007.2,-187994.3,-113690.6,-134030.1,-375000,-375000,-150457.7,-121444.2,0.03,-0.02,0.88,-4,0,-2,48,0
'[13:33:03.488 20/01/2026]',-104984.9,-188001.8,-113673,-133907.2,-375000,-375000,-150409.7,-121423.1,0.03,-0.02,0.88,-4,0,-2,48,0
'[13:33:03.492 20/01/2026]',-105021.2,-188050.1,-113603.3,-133661.7,-375000,-375000,-150307.6,-121449,0.03,0.02,0.88,-4,0,-2,48,0
'[13:33:03.496 20/01/2026]',-105029.6,-188065.4,-113608.7,-133746.4,-375000,-375000,-150338.8,-121468.3,0.03,0.02,0.88,-4,0,-2,48,0
'[13:33:03.500 20/01/2026]',-105003.2,-188018.9,-113694.2,-134010.5,-375000,-375000,-150455.5,-121452.3,0.03,0.02,0.88,-4,0,-2,48,0
'[13:33:03.504 20/01/2026]',-104977.9,-187978.8,-113673.1,-133921.9,-375000,-375000,-150414.8,-121418.7,0.03,0.02,0.88,-4,0,-2,48,0
'[13:33:03.508 20/01/2026]',-104995,-188021.6,-113571,-133627.6,-375000,-375000,-150278.7,-121425.4,0.03,0.02,0.88,-4,0,-2,48,0
'[13:33:03.512 20/01/2026]',-105020.5,-188052.7,-113592.7,-133684.1,-375000,-375000,-150306.2,-121458.4,0.03,0.02,0.88,-4,0,-2,48,0
'[13:33:03.516 20/01/2026]',-105012.9,-188035,-113709.8,-134018.1,-375000,-375000,-150464,-121469.8,0.03,0.02,0.88,-4,0,-2,48,0
'[13:33:03.520 20/01/2026]',-105002,-188002.9,-113725.8,-134029.3,-375000,-375000,-150479.5,-121453,0.03,0.02,0.88,-4,0,-2,48,0
'[13:33:03.524 20/01/2026]',-105035.7,-188051.2,-113640.5,-133763.7,-375000,-375000,-150364.2,-121467.1,0.03,0.02,0.88,-4,0,-2,48,0
'[13:33:03.528 20/01/2026]',-105075,-188098.7,-113626.3,-133708.6,-375000,-375000,-150339.2,-121498.6,0.02,0.02,0.88,-4,0,-2,48,0
'[13:33:03.532 20/01/2026]',-105076,-188073.9,-113730.2,-134014.9,-375000,-375000,-150481.3,-121514,0.02,0.02,0.88,-4,0,-2,48,0
'[13:33:03.536 20/01/2026]',-105027.1,-188059.1,-113733.9,-134052.9,-375000,-375000,-150493.3,-121465,0.02,0.02,0.88,-4,0,-2,48,0
'[13:33:03.540 20/01/2026]',-105035,-188084.9,-113660.6,-133780.5,-375000,-375000,-150365,-121459.4,0.02,0.02,0.88,-4,0,-2,48,0
'[13:33:03.544 20/01/2026]',-105058.7,-188098,-113602.9,-133643.7,-375000,-375000,-150294,-121472.1,0.02,0.02,0.88,-4,0,-2,48,0
'[13:33:03.548 20/01/2026]',-105039.7,-188057.2,-113672.8,-133914.1,-375000,-375000,-150406.9,-121481.5,0.02,0.02,0.88,-4,0,-2,48,0
'[13:33:03.552 20/01/2026]',-104994.5,-187989.3,-113715.8,-134035,-375000,-375000,-150459.8,-121442.3,0.02,0.02,0.88,-4,0,-2,48,0
'[13:33:03.556 20/01/2026]',-105018,-188037.7,-113671.5,-133845,-375000,-375000,-150382.8,-121444.2,0.02,0.02,0.88,-4,0,-2,48,0
'[13:33:03.560 20/01/2026]',-105066,-188106.7,-113639.1,-133680.9,-375000,-375000,-150322.5,-121481.3,0.02,0.02,0.88,-4,0,-2,48,0
'[13:33:03.564 20/01/2026]',-105058.3,-188085.9,-113687.3,-133902.1,-375000,-375000,-150415.6,-121500.1,0.03,0.00,0.88,-4,0,-2,48,0
'[13:33:03.568 20/01/2026]',-105011.6,-188035.7,-113734.5,-134077.5,-375000,-375000,-150493.6,-121467.8,0.03,0.00,0.88,-4,0,-2,48,0
'[13:33:03.572 20/01/2026]',-105018.8,-188042.6,-113709.5,-133922.1,-375000,-375000,-150436.7,-121463.4,0.03,0.00,0.88,-4,0,-2,48,0
'[13:33:03.576 20/01/2026]',-105054.7,-188081.8,-113637.7,-133688,-375000,-375000,-150330.3,-121478.9,0.03,0.00,0.88,-4,0,-2,48,0
'[13:33:03.580 20/01/2026]',-105042.9,-188078.3,-113643,-133813.7,-375000,-375000,-150366.6,-121475.3,0.03,0.00,0.88,-4,0,-2,48,0
'[13:33:03.584 20/01/2026]',-104986.9,-188018.4,-113686.3,-134024.3,-375000,-375000,-150449.1,-121436.1,0.03,0.00,0.88,-4,0,-2,48,0
'[13:33:03.588 20/01/2026]',-104966,-188002.4,-113647.2,-133884.5,-375000,-375000,-150379.2,-121399.8,0.03,0.00,0.88,-4,0,-2,48,0
'[13:33:03.592 20/01/2026]',-105005,-188038.5,-113588.1,-133651.8,-375000,-375000,-150278.5,-121426.1,0.03,0.00,0.88,-4,0,-2,48,0
'[13:33:03.596 20/01/2026]',-105035.9,-188061,-113632.1,-133768.9,-375000,-375000,-150335.6,-121462.9,0.03,0.00,0.88,-4,0,-2,48,0
'[13:33:03.600 20/01/2026]',-105023,-188034.2,-113742.3,-134065.4,-375000,-375000,-150480.2,-121458.3,0.02,0.02,0.89,-4,0,-2,48,0
'[13:33:03.604 20/01/2026]',-104992.9,-188003,-113709.3,-133962,-375000,-375000,-150433.1,-121423.8,0.02,0.02,0.89,-4,0,-2,48,0
'[13:33:03.608 20/01/2026]',-104981.8,-188011.5,-113546.1,-133596.8,-375000,-375000,-150246.6,-121413,0.02,0.02,0.89,-4,0,-2,48,0
'[13:33:03.612 20/01/2026]',-104964.5,-188008.8,-113483.9,-133558.4,-375000,-375000,-150201,-121398.9,0.02,0.02,0.89,-4,0,-2,48,0
'[13:33:03.616 20/01/2026]',-104903.9,-187939.4,-113518.1,-133801.2,-375000,-375000,-150285.6,-121359.3,0.02,0.02,0.89,-4,0,-2,48,0
'[13:33:03.620 20/01/2026]',-104881,-187907.3,-113557.9,-133864.1,-375000,-375000,-150327.3,-121328.1,0.02,0.02,0.89,-4,0,-2,48,0
'[13:33:03.624 20/01/2026]',-104924,-187950.4,-113525.8,-133647.2,-375000,-375000,-150252.3,-121361.1,0.02,0.02,0.89,-4,0,-2,48,0
'[13:33:03.628 20/01/2026]',-104963.3,-187990.3,-113527.3,-133611.3,-375000,-375000,-150246.3,-121399.1,0.02,0.02,0.89,-4,0,-2,48,0
'[13:33:03.632 20/01/2026]',-104948.9,-187988.1,-113605.5,-133895.7,-375000,-375000,-150372.6,-121402,0.02,0.02,0.89,-4,0,-2,48,0
'[13:33:03.636 20/01/2026]',-104903.5,-187937.5,-113615.9,-133929.4,-375000,-375000,-150383.1,-121355.4,0.03,0.00,0.88,-4,0,-2,48,0
'[13:33:03.640 20/01/2026]',-104937.7,-187959.3,-113559.2,-133703.6,-375000,-375000,-150294.3,-121373.9,0.03,0.00,0.88,-4,0,-2,48,0
'[13:33:03.644 20/01/2026]',-104978.4,-188017.3,-113517.7,-133567.9,-375000,-375000,-150232.6,-121404.8,0.03,0.00,0.88,-4,0,-2,48,0
'[13:33:03.648 20/01/2026]',-104928.5,-187970.8,-113511,-133721.6,-375000,-375000,-150266.8,-121373.2,0.03,0.00,0.88,-4,0,-2,48,0
'[13:33:03.652 20/01/2026]',-104858,-187885.6,-113507.8,-133821.6,-375000,-375000,-150289.2,-121305,0.03,0.00,0.88,-4,0,-2,48,0
'[13:33:03.656 20/01/2026]',-104902,-187935.7,-113535.8,-133732.1,-375000,-375000,-150282.1,-121337.9,0.03,0.00,0.88,-4,0,-2,48,0
