'Time and date','Fp1','Fp2','F3','Fz','F4','P3','Pz','P4','AccX','AccY','AccZ','GyroX','GyroY','GyroZ','Battery','Event'
'[hh:mm:ss.mmm dd/mm/yyyy]','uV','uV','uV','uV','uV','uV','uV','uV','G','G','G','Deg/s','Deg/s','Deg/s','%','Button'
'[13:13:00.000 20/01/2026]',-125481.9,-189169.8,-101618.5,-133598.4,-375000,-375000,-157707.7,-151562.6,0.03,-0.02,0.88,-4,0,-2,50,0
'[13:13:00.004 20/01/2026]',-127298,-188247.9,-100801.1,-133405,-375000,-375000,-156861.1,-150926.8,0.03,-0.02,0.88,-4,0,-2,50,0
'[13:13:00.008 20/01/2026]',-125738.5,-190559.7,-102927.1,-134184.3,-375000,-375000,-158452.6,-152322.2,0.03,-0.02,0.88,-4,0,-2,50,0
'[13:13:00.012 20/01/2026]',-123119.4,-192617.9,-104804,-134731.2,-375000,-375000,-160035.5,-153601,0.03,-0.02,0.88,-4,0,-2,50,0
'[13:13:00.016 20/01/2026]',-124875.2,-189798.3,-102193.5,-133756.9,-375000,-375000,-158181.1,-151951,0.03,-0.02,0.88,-4,0,-2,50,0
'[13:13:00.020 20/01/2026]',-127285.4,-188125.6,-100678.1,-133319.8,-375000,-375000,-156815.2,-150878.1,0.03,-0.02,0.88,-4,0,-2,50,0
'[13:13:00.024 20/01/2026]',-126225.4,-190085.8,-102491.4,-134013.9,-375000,-375000,-158125.4,-152054.9,0.03,-0.02,0.88,-4,0,-2,50,0
'[13:13:00.028 20/01/2026]',-123448.5,-192577.2,-104767.5,-134727,-375000,-375000,-159987.4,-153588.9,0.03,-0.02,0.88,-4,0,-2,50,0
'[13:13:00.032 20/01/2026]',-124330.1,-190489.5,-102826.3,-133971.1,-375000,-375000,-158691,-152395.8,0.03,-0.02,0.88,-4,0,-2,50,0
'[13:13:00.036 20/01/2026]',-127180.5,-188112,-100670.4,-133304.6,-375000,-375000,-156857.5,-150899.3,0.03,-0.02,0.88,-4,0,-2,50,0
'[13:13:00.040 20/01/2026]',-126641.9,-189640.5,-102106.7,-133895.6,-375000,-375000,-157828.8,-151798.6,0.03,-0.02,0.88,-4,0,-2,50,0
'[13:13:00.044 20/01/2026]',-123898.3,-192375.2,-104601.4,-134746.2,-375000,-375000,-159843,-153489.6,0.03,-0.02,0.88,-4,0,-2,50,0
'[13:13:00.048 20/01/2026]',-123884.5,-191157.7,-103434.2,-134244.2,-375000,-375000,-159166.2,-152812.1,0.03,-0.02,0.88,-4,0,-2,50,0
'[13:13:00.052 20/01/2026]',-126983.7,-188230.3,-100782.1,-133379.6,-375000,-375000,-156982.7,-150992.4,0.03,-0.02,0.88,-4,0,-2,50,0
'[13:13:00.056 20/01/2026]',-127009.1,-189278,-101780.4,-133851.9,-375000,-375000,-157584.8,-151594.2,0.03,-0.02,0.88,-4,0,-2,50,0
'[13:13:00.060 20/01/2026]',-124438.8,-192079.3,-104349.6,-134737.1,-375000,-375000,-159614.2,-153319.9,0.03,-0.02,0.88,-4,0,-2,50,0
'[13:13:00.064 20/01/2026]',-123526.1,-191798.9,-104045.4,-134520.1,-375000,-375000,-159604.6,-153206.7,0.03,-0.02,0.88,-4,0,-2,50,0
'[13:13:00.068 20/01/2026]',-126648.6,-188488.5,-101003.4,-133472.3,-375000,-375000,-157211.6,-151175.5,0.03,-0.02,0.88,-4,0,-2,50,0
'[13:13:00.072 20/01/2026]',-127258.6,-188922.1,-101437.8,-133727.8,-375000,-375000,-157351.4,-151390.1,0.05,0.00,0.89,-4,0,-2,50,0
'[13:13:00.076 20/01/2026]',-124976.5,-191670,-103980.9,-134629.4,-375000,-375000,-159322,-153082.8,0.05,0.00,0.89,-4,0,-2,50,0
'[13:13:00.080 20/01/2026]',-123336.1,-192299.9,-104520.1,-134717.1,-375000,-375000,-159955.5,-153529.7,0.05,0.00,0.89,-4,0,-2,50,0
'[13:13:00.084 20/01/2026]',-126250.3,-188863.7,-101362.4,-133594,-375000,-375000,-157541,-151448.9,0.05,0.00,0.89,-4,0,-2,50,0
'[13:13:00.088 20/01/2026]',-127489.2,-188647.8,-101203.2,-133636,-375000,-375000,-157201.6,-151253.2,0.05,0.00,0.89,-4,0,-2,50,0
'[13:13:00.092 20/01/2026]',-125591.4,-191205.6,-103561.3,-134495.7,-375000,-375000,-159006.5,-152812.5,0.05,0.00,0.89,-4,0,-2,50,0
'[13:13:00.096 20/01/2026]',-123350.2,-192605.8,-104806.3,-134813,-375000,-375000,-160156.8,-153693.8,0.05,0.00,0.89,-4,0,-2,50,0
'[13:13:00.100 20/01/2026]',-125802.4,-189360,-101806.9,-133714.7,-375000,-375000,-157933.1,-151749.8,0.05,0.00,0.89,-4,0,-2,50,0
'[13:13:00.104 20/01/2026]',-127656.4,-188430.1,-100995.8,-133512.3,-375000,-375000,-157077.4,-151108.3,0.05,0.00,0.89,-4,0,-2,50,0
'[13:13:00.108 20/01/2026]',-126172.3,-190710.4,-103106.9,-134292.3,-375000,-375000,-158653.7,-152492.3,0.03,-0.02,0.88,-4,0,-2,50,0
'[13:13:00.112 20/01/2026]',-123600.7,-192767.2,-104968.2,-134848,-375000,-375000,-160240,-153775.9,0.03,-0.02,0.88,-4,0,-2,50,0
'[13:13:00.116 20/01/2026]',-125335.5,-189971.4,-102376.7,-133860.6,-375000,-375000,-158389.1,-152127.8,0.03,-0.02,0.88,-4,0,-2,50,0
'[13:13:00.120 20/01/2026]',-127731.8,-188297.7,-100874.4,-133420.1,-375000,-375000,-157021.2,-151046.3,0.03,-0.02,0.88,-4,0,-2,50,0
'[13:13:00.124 20/01/2026]',-126718.1,-190269.9,-102700,-134134.2,-375000,-375000,-158339.9,-152233.4,0.03,-0.02,0.88,-4,0,-2,50,0
'[13:13:00.128 20/01/2026]',-123948.7,-192756.3,-104944.3,-134856,-375000,-375000,-160200.4,-153762.9,0.03,-0.02,0.88,-4,0,-2,50,0
'[13:13:00.132 20/01/2026]',-124833.4,-190669.9,-102994.6,-134099.9,-375000,-375000,-158897.4,-152561.1,0.03,-0.02,0.88,-4,0,-2,50,0
'[13:13:00.136 20/01/2026]',-127678.6,-188306.6,-100860.3,-133433.6,-375000,-375000,-157073.4,-151077,0.03,-0.02,0.88,-4,0,-2,50,0
'[13:13:00.140 20/01/2026]',-127118.3,-189850.8,-102304.6,-134038.6,-375000,-375000,-158058.8,-151992.3,0.03,-0.02,0.88,-4,0,-2,50,0
'[13:13:00.144 20/01/2026]',-124346.8,-192570.4,-104797.2,-134870.3,-375000,-375000,-160053.8,-153661,0.05,-0.02,0.89,-4,0,-2,50,0
'[13:13:00.148 20/01/2026]',-124304.5,-191370.5,-103649.8,-134374.9,-375000,-375000,-159390.2,-152994.7,0.05,-0.02,0.89,-4,0,-2,50,0
'[13:13:00.152 20/01/2026]',-127400.1,-188442.9,-100974.6,-133498.2,-375000,-375000,-157209.1,-151188.1,0.05,-0.02,0.89,-4,0,-2,50,0
'[13:13:00.156 20/01/2026]',-127404.6,-189494.4,-101980.9,-133956.9,-375000,-375000,-157812.3,-151801.7,0.05,-0.02,0.89,-4,0,-2,50,0
'[13:13:00.160 20/01/2026]',-124818.1,-192293,-104560.1,-134848.1,-375000,-375000,-159841.4,-153524.8,0.05,-0.02,0.89,-4,0,-2,50,0
'[13:13:00.164 20/01/2026]',-123928.8,-192021.1,-104251,-134651,-375000,-375000,-159845.4,-153426,0.05,-0.02,0.89,-4,0,-2,50,0
'[13:13:00.168 20/01/2026]',-127086.8,-188710.9,-101229,-133629.9,-375000,-375000,-157455.3,-151405.4,0.05,-0.02,0.89,-4,0,-2,50,0
'[13:13:00.172 20/01/2026]',-127718.4,-189167,-101690.6,-133907,-375000,-375000,-157609.9,-151631.3,0.05,-0.02,0.89,-4,0,-2,50,0
'[13:13:00.176 20/01/2026]',-125463.1,-191907.2,-104199,-134802.8,-375000,-375000,-159568.6,-153311.5,0.05,-0.02,0.89,-4,0,-2,50,0
'[13:13:00.180 20/01/2026]',-123801,-192557.8,-104750.6,-134897.1,-375000,-375000,-160215.9,-153765.6,0.05,0.00,0.88,-4,0,-2,50,0
'[13:13:00.184 20/01/2026]',-126732.6,-189128.8,-101629.8,-133797.5,-375000,-375000,-157809.8,-151699.4,0.05,0.00,0.88,-4,0,-2,50,0
'[13:13:00.188 20/01/2026]',-127986.7,-188894.8,-101448.9,-133830,-375000,-375000,-157448.7,-151486.7,0.05,0.00,0.88,-4,0,-2,50,0
'[13:13:00.192 20/01/2026]',-126086.1,-191439,-103810.8,-134698.6,-375000,-375000,-159261.7,-153058.5,0.05,0.00,0.88,-4,0,-2,50,0
'[13:13:00.196 20/01/2026]',-123873.8,-192917.5,-105118.1,-135071.7,-375000,-375000,-160452.5,-153987.2,0.05,0.00,0.88,-4,0,-2,50,0
'[13:13:00.200 20/01/2026]',-126317.8,-189705.1,-102132,-133994.4,-375000,-375000,-158227.6,-152047.3,0.05,0.00,0.88,-4,0,-2,50,0
'[13:13:00.204 20/01/2026]',-128187.8,-188751.2,-101300.6,-133802.9,-375000,-375000,-157360.8,-151400.8,0.05,0.00,0.88,-4,0,-2,50,0
'[13:13:00.208 20/01/2026]',-126692.2,-191052.3,-103429.6,-134607.9,-375000,-375000,-158957.5,-152805.8,0.05,0.00,0.88,-4,0,-2,50,0
'[13:13:00.212 20/01/2026]',-124087.4,-193152.4,-105301.6,-135193,-375000,-375000,-160560.7,-154106.8,0.05,0.00,0.88,-4,0,-2,50,0
'[13:13:00.216 20/01/2026]',-125764,-190376.2,-102751,-134228.9,-375000,-375000,-158717,-152462.7,0.02,0.00,0.88,-4,0,-2,50,0
'[13:13:00.220 20/01/2026]',-128159.1,-188682.2,-101221.7,-133782.5,-375000,-375000,-157325.9,-151360.3,0.02,0.00,0.88,-4,0,-2,50,0
'[13:13:00.224 20/01/2026]',-127135.5,-190632.9,-103009.8,-134491.6,-375000,-375000,-158635.1,-152538,0.02,0.00,0.88,-4,0,-2,50,0
'[13:13:00.228 20/01/2026]',-124371.8,-193145.3,-105295.8,-135214.8,-375000,-375000,-160507.3,-154081.9,0.02,0.00,0.88,-4,0,-2,50,0
'[13:13:00.232 20/01/2026]',-125197.3,-191082.4,-103373.6,-134470.7,-375000,-375000,-159229.3,-152907.7,0.02,0.00,0.88,-4,0,-2,50,0
'[13:13:00.236 20/01/2026]',-128036.8,-188686.7,-101195.6,-133797.1,-375000,-375000,-157386.5,-151409,0.02,0.00,0.88,-4,0,-2,50,0
'[13:13:00.240 20/01/2026]',-127576.6,-190221,-102633.3,-134392.9,-375000,-375000,-158368.4,-152321.9,0.02,0.00,0.88,-4,0,-2,50,0
'[13:13:00.244 20/01/2026]',-124887.3,-192969,-105162.4,-135228.1,-375000,-375000,-160384.8,-154006.2,0.02,0.00,0.88,-4,0,-2,50,0
'[13:13:00.248 20/01/2026]',-124808.9,-191767.2,-104023.1,-134738.8,-375000,-375000,-159732.7,-153347.8,0.02,0.00,0.88,-4,0,-2,50,0
'[13:13:00.252 20/01/2026]',-127921.8,-188801.6,-101318.6,-133852.3,-375000,-375000,-157528.7,-151518.8,0.03,-0.02,0.88,-4,0,-2,50,0
'[13:13:00.256 20/01/2026]',-128031.8,-189814.8,-102277.6,-134277.8,-375000,-375000,-158097.7,-152089.3,0.03,-0.02,0.88,-4,0,-2,50,0
'[13:13:00.260 20/01/2026]',-125578.8,-192628.9,-104863.9,-135163.5,-375000,-375000,-160136.3,-153815.2,0.03,-0.02,0.88,-4,0,-2,50,0
'[13:13:00.264 20/01/2026]',-124749.9,-192379.5,-104600.1,-134982,-375000,-375000,-160167.3,-153742.8,0.03,-0.02,0.88,-4,0,-2,50,0
'[13:13:00.268 20/01/2026]',-127818,-189044.4,-101555.6,-133942.2,-375000,-375000,-157755.9,-151703.1,0.03,-0.02,0.88,-4,0,-2,50,0
'[13:13:00.272 20/01/2026]',-128282.6,-189477.7,-101992,-134212.9,-375000,-375000,-157891.3,-151912.5,0.03,-0.02,0.88,-4,0,-2,50,0
'[13:13:00.276 20/01/2026]',-125777.5,-192225.8,-104513,-135118.6,-375000,-375000,-159855.5,-153601,0.03,-0.02,0.88,-4,0,-2,50,0
'[13:13:00.280 20/01/2026]',-123909.1,-192879.5,-105061.5,-135215,-375000,-375000,-160502,-154062.8,0.03,-0.02,0.88,-4,0,-2,50,0
'[13:13:00.284 20/01/2026]',-126431.3,-189439.6,-101899.4,-134089.7,-375000,-375000,-158080.5,-151982.3,0.03,-0.02,0.88,-4,0,-2,50,0
'[13:13:00.288 20/01/2026]',-127605.3,-189197.2,-101724.2,-134140.7,-375000,-375000,-157720.1,-151772.1,0.03,0.00,0.89,-4,0,-2,50,0
'[13:13:00.292 20/01/2026]',-125800,-191741.8,-104076.4,-134984.3,-375000,-375000,-159508,-153318.4,0.03,0.00,0.89,-4,0,-2,50,0
'[13:13:00.296 20/01/2026]',-123676,-193190.9,-105368,-135343.6,-375000,-375000,-160696.3,-154242.6,0.03,0.00,0.89,-4,0,-2,50,0
'[13:13:00.300 20/01/2026]',-126050.2,-189953.4,-102387.7,-134262.4,-375000,-375000,-158486.1,-152309.6,0.03,0.00,0.89,-4,0,-2,50,0
'[13:13:00.304 20/01/2026]',-127905.4,-188977.4,-101525.4,-134049.7,-375000,-375000,-157596.9,-151641,0.03,0.00,0.89,-4,0,-2,50,0
'[13:13:00.308 20/01/2026]',-126412.1,-191250.3,-103623.2,-134838.5,-375000,-375000,-159162.2,-153017,0.03,0.00,0.89,-4,0,-2,50,0
'[13:13:00.312 20/01/2026]',-123796.6,-193335.4,-105511.6,-135431,-375000,-375000,-160773.1,-154326.4,0.03,0.00,0.89,-4,0,-2,50,0
'[13:13:00.316 20/01/2026]',-125213.3,-190580.3,-102961.9,-134467.7,-375000,-375000,-158947.8,-152701.4,0.03,0.00,0.89,-4,0,-2,50,0
'[13:13:00.320 20/01/2026]',-127339.5,-188873,-101421.4,-134011.8,-375000,-375000,-157549.3,-151592.6,0.03,0.00,0.89,-4,0,-2,50,0
'[13:13:00.324 20/01/2026]',-126368.3,-190808.1,-103225.9,-134723.4,-375000,-375000,-158849.2,-152758,0.05,-0.02,0.88,-4,0,-2,50,0
'[13:13:00.328 20/01/2026]',-123686.8,-193300.2,-105495.6,-135448.5,-375000,-375000,-160710.8,-154294.7,0.05,-0.02,0.88,-4,0,-2,50,0
'[13:13:00.332 20/01/2026]',-124302.5,-191254.1,-103578.7,-134684.5,-375000,-375000,-159432.6,-153117.4,0.05,-0.02,0.88,-4,0,-2,50,0
'[13:13:00.336 20/01/2026]',-127004.4,-188848.9,-101395.2,-133960.9,-375000,-375000,-157569.3,-151592,0.05,-0.02,0.88,-4,0,-2,50,0
'[13:13:00.340 20/01/2026]',-126575.9,-190339.2,-102793.3,-134524.6,-375000,-375000,-158521.3,-152472.4,0.05,-0.02,0.88,-4,0,-2,50,0
'[13:13:00.344 20/01/2026]',-123957.9,-193070.4,-105295.8,-135371.6,-375000,-375000,-160538.4,-154166.8,0.05,-0.02,0.88,-4,0,-2,50,0
'[13:13:00.348 20/01/2026]',-123715.9,-191915.7,-104197.3,-134882.6,-375000,-375000,-159903.6,-153530.7,0.05,-0.02,0.88,-4,0,-2,50,0
'[13:13:00.352 20/01/2026]',-126574.8,-188950.4,-101489.9,-133956.9,-375000,-375000,-157686.4,-151680.9,0.05,-0.02,0.88,-4,0,-2,50,0
'[13:13:00.356 20/01/2026]',-126665.8,-189939.3,-102439.3,-134383,-375000,-375000,-158251.4,-152244.8,0.05,-0.02,0.88,-4,0,-2,50,0
'[13:13:00.360 20/01/2026]',-124280,-192743.5,-105003.8,-135289.1,-375000,-375000,-160285.4,-153971.2,0.03,-0.02,0.88,-4,0,-2,50,0
'[13:13:00.364 20/01/2026]',-123276.2,-192521.6,-104750.1,-135098.9,-375000,-375000,-160316.4,-153893.1,0.03,-0.02,0.88,-4,0,-2,50,0
'[13:13:00.368 20/01/2026]',-126158.3,-189192,-101711,-134033,-375000,-375000,-157904.5,-151849.4,0.03,-0.02,0.88,-4,0,-2,50,0
'[13:13:00.372 20/01/2026]',-126811.6,-189619.5,-102137.2,-134290.6,-375000,-375000,-158040.5,-152059.7,0.03,-0.02,0.88,-4,0,-2,50,0
'[13:13:00.376 20/01/2026]',-124689.4,-192337.9,-104626.8,-135180,-375000,-375000,-159986.6,-153728.1,0.03,-0.02,0.88,-4,0,-2,50,0
'[13:13:00.380 20/01/2026]',-122993.9,-192990.9,-105191.8,-135266.5,-375000,-375000,-160625.3,-154172.1,0.03,-0.02,0.88,-4,0,-2,50,0
'[13:13:00.384 20/01/2026]',-125622.3,-189565.9,-102048.4,-134132.9,-375000,-375000,-158212,-152090.5,0.03,-0.02,0.88,-4,0,-2,50,0
'[13:13:00.388 20/01/2026]',-126871.2,-189322.3,-101871.2,-134188.7,-375000,-375000,-157855.8,-151883,0.03,-0.02,0.88,-4,0,-2,50,0
'[13:13:00.392 20/01/2026]',-125125.3,-191864,-104217.9,-135077.7,-375000,-375000,-159652.7,-153444,0.03,-0.02,0.88,-4,0,-2,50,0
'[13:13:00.396 20/01/2026]',-122923.5,-193318.4,-105533.5,-135451.1,-375000,-375000,-160839.2,-154371.2,0.03,-0.02,0.88,-4,0,-2,50,0
'[13:13:00.400 20/01/2026]',-125077.1,-190094.7,-102550.7,-134380.2,-375000,-375000,-158629.1,-152447.9,0.03,-0.02,0.88,-4,0,-2,50,0
'[13:13:00.404 20/01/2026]',-126924.8,-189102.2,-101649.2,-134160.9,-375000,-375000,-157717.3,-151759.7,0.03,-0.02,0.88,-4,0,-2,50,0
'[13:13:00.408 20/01/2026]',-125607.1,-191356.9,-103737.2,-134947.7,-375000,-375000,-159271,-153123.6,0.03,-0.02,0.88,-4,0,-2,50,0
'[13:13:00.412 20/01/2026]',-123099.6,-193421.5,-105609,-135510.8,-375000,-375000,-160863.3,-154409.8,0.03,-0.02,0.88,-4,0,-2,50,0
'[13:13:00.416 20/01/2026]',-124591.7,-190665.9,-103055.6,-134523.2,-375000,-375000,-159035.1,-152775,0.03,-0.02,0.88,-4,0,-2,50,0
'[13:13:00.420 20/01/2026]',-126955.5,-188938.4,-101491,-134052.2,-375000,-375000,-157624.1,-151651.5,0.03,-0.02,0.88,-4,0,-2,50,0
'[13:13:00.424 20/01/2026]',-126108.6,-190863,-103302.5,-134758.4,-375000,-375000,-158918.3,-152811.2,0.03,-0.02,0.88,-4,0,-2,50,0
'[13:13:00.428 20/01/2026]',-123500.2,-193374.6,-105579,-135485.9,-375000,-375000,-160797.2,-154359.9,0.03,-0.02,0.88,-4,0,-2,50,0
'[13:13:00.432 20/01/2026]',-124143,-191367.2,-103701.4,-134721.7,-375000,-375000,-159540.9,-153198.9,0.03,-0.02,0.89,-4,0,-2,50,0
'[13:13:00.436 20/01/2026]',-126821.8,-188945.5,-101494.9,-133993.2,-375000,-375000,-157664.7,-151665.8,0.03,-0.02,0.89,-4,0,-2,50,0
'[13:13:00.440 20/01/2026]',-126403.3,-190427.8,-102884.2,-134552.2,-375000,-375000,-158604.1,-152536.7,0.03,-0.02,0.89,-4,0,-2,50,0
'[13:13:00.444 20/01/2026]',-123779.2,-193151.4,-105363.1,-135364.8,-375000,-375000,-160601,-154203.9,0.03,-0.02,0.89,-4,0,-2,50,0
'[13:13:00.448 20/01/2026]',-123499,-192017.1,-104294,-134876,-375000,-375000,-159989.6,-153580.7,0.03,-0.02,0.89,-4,0,-2,50,0
'[13:13:00.452 20/01/2026]',-126350.5,-189011.8,-101559.5,-133943,-375000,-375000,-157749.4,-151712.8,0.03,-0.02,0.89,-4,0,-2,50,0
'[13:13:00.456 20/01/2026]',-126453.6,-189983.6,-102468.9,-134363.6,-375000,-375000,-158292.9,-152259.3,0.03,-0.02,0.89,-4,0,-2,50,0
'[13:13:00.460 20/01/2026]',-124032,-192791.8,-105044.9,-135247.3,-375000,-375000,-160321,-153974.7,0.03,-0.02,0.89,-4,0,-2,50,0
'[13:13:00.464 20/01/2026]',-123004.6,-192597.5,-104827.2,-135068.5,-375000,-375000,-160380,-153921.9,0.03,-0.02,0.89,-4,0,-2,50,0
'[13:13:00.468 20/01/2026]',-125885.6,-189255.8,-101765.1,-134006.2,-375000,-375000,-157962.2,-151874.2,0.03,-0.02,0.88,-4,0,-2,50,0
'[13:13:00.472 20/01/2026]',-126582.4,-189646.4,-102156.9,-134250.3,-375000,-375000,-158063.3,-152049.3,0.03,-0.02,0.88,-4,0,-2,50,0
'[13:13:00.476 20/01/2026]',-124485.8,-192376.5,-104667.6,-135147.8,-375000,-375000,-160014.8,-153716.5,0.03,-0.02,0.88,-4,0,-2,50,0
'[13:13:00.480 20/01/2026]',-122803.3,-193057.7,-105247.3,-135253.1,-375000,-375000,-160680.2,-154185.6,0.03,-0.02,0.88,-4,0,-2,50,0
'[13:13:00.484 20/01/2026]',-125432.7,-189611.9,-102093.2,-134126.2,-375000,-375000,-158250.3,-152092.6,0.03,-0.02,0.88,-4,0,-2,50,0
'[13:13:00.488 20/01/2026]',-126771.4,-189334.8,-101863.8,-134168.3,-375000,-375000,-157864.3,-151862.2,0.03,-0.02,0.88,-4,0,-2,50,0
'[13:13:00.492 20/01/2026]',-125098.3,-191894.5,-104228.1,-135044.5,-375000,-375000,-159669.3,-153430.5,0.03,-0.02,0.88,-4,0,-2,50,0
'[13:13:00.496 20/01/2026]',-122916.2,-193386.3,-105565.1,-135416.2,-375000,-375000,-160880.1,-154378.4,0.03,-0.02,0.88,-4,0,-2,50,0
'[13:13:00.500 20/01/2026]',-125059.1,-190164.7,-102580.8,-134330.6,-375000,-375000,-158669,-152447.6,0.03,-0.02,0.88,-4,0,-2,50,0
'[13:13:00.504 20/01/2026]',-126940,-189159.5,-101690.7,-134135.3,-375000,-375000,-157761.6,-151778.8,0.03,-0.02,0.88,-4,0,-2,50,0
'[13:13:00.508 20/01/2026]',-125614.3,-191425,-103795.6,-134933.5,-375000,-375000,-159324.1,-153157.4,0.03,-0.02,0.88,-4,0,-2,50,0
'[13:13:00.512 20/01/2026]',-123074.8,-193527.7,-105703.5,-135525.3,-375000,-375000,-160945.6,-154471.7,0.03,-0.02,0.88,-4,0,-2,50,0
'[13:13:00.516 20/01/2026]',-124495.5,-190793.7,-103171.4,-134581.3,-375000,-375000,-159141.8,-152869.1,0.03,-0.02,0.88,-4,0,-2,50,0
'[13:13:00.520 20/01/2026]',-126825.9,-189045.3,-101599.8,-134130.1,-375000,-375000,-157719.6,-151745.6,0.03,-0.02,0.88,-4,0,-2,50,0
'[13:13:00.524 20/01/2026]',-125942.1,-190964,-103383.3,-134841.6,-375000,-375000,-159002.6,-152902.7,0.03,-0.02,0.88,-4,0,-2,50,0
'[13:13:00.528 20/01/2026]',-123276.6,-193492.4,-105680.2,-135587.5,-375000,-375000,-160893.7,-154465.2,0.03,-0.02,0.88,-4,0,-2,50,0
'[13:13:00.532 20/01/2026]',-123830,-191509.4,-103842.1,-134868,-375000,-375000,-159667.7,-153336.4,0.03,-0.02,0.88,-4,0,-2,50,0
'[13:13:00.536 20/01/2026]',-126509.2,-189065.8,-101626.2,-134175,-375000,-375000,-157786.5,-151809.4,0.03,-0.02,0.88,-4,0,-2,50,0
'[13:13:00.540 20/01/2026]',-126058.7,-190532.6,-102994.3,-134736.1,-375000,-375000,-158707.1,-152668.9,0.02,-0.02,0.88,-4,0,-2,50,0
'[13:13:00.544 20/01/2026]',-123437.5,-193283.1,-105491.4,-135573.7,-375000,-375000,-160719.7,-154358,0.02,-0.02,0.88,-4,0,-2,50,0
'[13:13:00.548 20/01/2026]',-123145.3,-192161.3,-104431.4,-135097.2,-375000,-375000,-160111.4,-153742.5,0.02,-0.02,0.88,-4,0,-2,50,0
'[13:13:00.552 20/01/2026]',-126004.5,-189157.3,-101694.5,-134176.4,-375000,-375000,-157876,-151877.2,0.02,-0.02,0.88,-4,0,-2,50,0
'[13:13:00.556 20/01/2026]',-126120.3,-190116.2,-102605.8,-134598.5,-375000,-375000,-158414.5,-152421.7,0.02,-0.02,0.88,-4,0,-2,50,0
'[13:13:00.560 20/01/2026]',-123708.4,-192920,-105175.3,-135470.8,-375000,-375000,-160435.6,-154127.7,0.02,-0.02,0.88,-4,0,-2,50,0
'[13:13:00.564 20/01/2026]',-122632,-192738.3,-104966.5,-135268,-375000,-375000,-160492.6,-154063.3,0.02,-0.02,0.88,-4,0,-2,50,0
'[13:13:00.568 20/01/2026]',-125525,-189396.3,-101913.2,-134242.9,-375000,-375000,-158100.8,-152049.2,0.02,-0.02,0.88,-4,0,-2,50,0
'[13:13:00.572 20/01/2026]',-126213.5,-189746.8,-102286.4,-134480.7,-375000,-375000,-158194.4,-152226.1,0.02,-0.02,0.88,-4,0,-2,50,0
'[13:13:00.576 20/01/2026]',-124088.2,-192447.7,-104774.3,-135318.4,-375000,-375000,-160098.5,-153845.4,0.03,-0.02,0.89,-4,0,-2,50,0
'[13:13:00.580 20/01/2026]',-122354.9,-193172.1,-105379.7,-135389.4,-375000,-375000,-160757.4,-154299.4,0.03,-0.02,0.89,-4,0,-2,50,0
'[13:13:00.584 20/01/2026]',-124985.3,-189762.4,-102243.7,-134291.3,-375000,-375000,-158370.3,-152249.4,0.03,-0.02,0.89,-4,0,-2,50,0
'[13:13:00.588 20/01/2026]',-126296.3,-189476.8,-102022.3,-134344.2,-375000,-375000,-157991.9,-152026.1,0.03,-0.02,0.89,-4,0,-2,50,0
'[13:13:00.592 20/01/2026]',-124511.3,-191976.1,-104331.1,-135166.8,-375000,-375000,-159742.1,-153537.9,0.03,-0.02,0.89,-4,0,-2,50,0
'[13:13:00.596 20/01/2026]',-122206.4,-193432.7,-105624.4,-135481.2,-375000,-375000,-160911.7,-154439.9,0.03,-0.02,0.89,-4,0,-2,50,0
'[13:13:00.600 20/01/2026]',-124283.7,-190207.8,-102648.2,-134398.9,-375000,-375000,-158710.9,-152519.8,0.03,-0.02,0.89,-4,0,-2,50,0
'[13:13:00.604 20/01/2026]',-126099.1,-189182.7,-101743.8,-134190.6,-375000,-375000,-157789.8,-151832.3,0.03,-0.02,0.89,-4,0,-2,50,0
'[13:13:00.608 20/01/2026]',-124729.4,-191403.2,-103803.2,-134949,-375000,-375000,-159315.9,-153171.3,0.03,-0.02,0.89,-4,0,-2,50,0
'[13:13:00.612 20/01/2026]',-122157.9,-193474.8,-105670.9,-135490,-375000,-375000,-160905.1,-154445.4,0.03,-0.02,0.89,-4,0,-2,50,0
'[13:13:00.616 20/01/2026]',-123544.4,-190756.9,-103143.8,-134540.4,-375000,-375000,-159115.2,-152851.5,0.03,-0.02,0.89,-4,0,-2,50,0
'[13:13:00.620 20/01/2026]',-125884.9,-188974.5,-101535.7,-134071,-375000,-375000,-157667.2,-151711.2,0.03,-0.02,0.89,-4,0,-2,50,0
'[13:13:00.624 20/01/2026]',-125019.7,-190843.7,-103277.6,-134744.2,-375000,-375000,-158908.2,-152825.2,0.03,-0.02,0.89,-4,0,-2,50,0
'[13:13:00.628 20/01/2026]',-122384.4,-193340,-105553.3,-135456.6,-375000,-375000,-160768.2,-154352.3,0.03,-0.02,0.89,-4,0,-2,50,0
'[13:13:00.632 20/01/2026]',-122991.2,-191352.7,-103698.1,-134723.7,-375000,-375000,-159533.3,-153214.4,0.03,-0.02,0.89,-4,0,-2,50,0
'[13:13:00.636 20/01/2026]',-125728.1,-188906.7,-101453.6,-134012.2,-375000,-375000,-157639.1,-151671.7,0.03,-0.02,0.89,-4,0,-2,50,0
'[13:13:00.640 20/01/2026]',-125363.9,-190348.7,-102810.2,-134548.1,-375000,-375000,-158539,-152506.5,0.03,-0.02,0.89,-4,0,-2,50,0
'[13:13:00.644 20/01/2026]',-122798.8,-193061.6,-105301.4,-135352.6,-375000,-375000,-160521.9,-154155.8,0.03,-0.02,0.89,-4,0,-2,50,0
'[13:13:00.648 20/01/2026]',-122554.1,-191958.2,-104256.8,-134888.6,-375000,-375000,-159933.4,-153555.5,0.03,0.00,0.88,-4,0,-2,50,0
'[13:13:00.652 20/01/2026]',-125433.9,-188948,-101496.7,-133963,-375000,-375000,-157692.5,-151685.9,0.03,0.00,0.88,-4,0,-2,50,0
'[13:13:00.656 20/01/2026]',-125565.2,-189887.1,-102405.8,-134363.3,-375000,-375000,-158208.4,-152204.6,0.03,0.00,0.88,-4,0,-2,50,0
'[13:13:00.660 20/01/2026]',-123200.7,-192665.7,-104961,-135235.5,-375000,-375000,-160216.6,-153908,0.03,0.00,0.88,-4,0,-2,50,0
'[13:13:00.664 20/01/2026]',-122138.3,-192485,-104743.7,-135041.6,-375000,-375000,-160270.1,-153849.2,0.03,0.00,0.88,-4,0,-2,50,0
'[13:13:00.668 20/01/2026]',-124943.1,-189125.8,-101665.7,-133952.6,-375000,-375000,-157836.3,-151781.2,0.03,0.00,0.88,-4,0,-2,50,0
'[13:13:00.672 20/01/2026]',-125625.9,-189490,-102038.6,-134184.7,-375000,-375000,-157923.3,-151951.6,0.03,0.00,0.88,-4,0,-2,50,0
'[13:13:00.676 20/01/2026]',-123528,-192188.4,-104515.9,-135057.7,-375000,-375000,-159848.6,-153603.2,0.03,0.00,0.88,-4,0,-2,50,0
'[13:13:00.680 20/01/2026]',-121781,-192899,-105118.5,-135157.5,-375000,-375000,-160522.5,-154080.9,0.03,0.00,0.88,-4,0,-2,50,0
'[13:13:00.684 20/01/2026]',-124318.1,-189476.8,-101973.4,-134032,-375000,-375000,-158113.7,-152017.2,0.03,0.00,0.88,-4,0,-2,50,0
'[13:13:00.688 20/01/2026]',-125577.5,-189178.8,-101737,-134043.5,-375000,-375000,-157706.6,-151763.3,0.03,0.00,0.88,-4,0,-2,50,0
'[13:13:00.692 20/01/2026]',-123881.5,-191681.5,-104033.7,-134880.3,-375000,-375000,-159458.2,-153281.1,0.03,0.00,0.88,-4,0,-2,50,0
'[13:13:00.696 20/01/2026]',-121684.7,-193156,-105357.8,-135247.4,-375000,-375000,-160662.1,-154216.4,0.03,0.00,0.88,-4,0,-2,50,0
'[13:13:00.700 20/01/2026]',-123752.2,-189958.1,-102409.3,-134170.5,-375000,-375000,-158479.8,-152316.2,0.03,0.00,0.88,-4,0,-2,50,0
'[13:13:00.704 20/01/2026]',-125572.3,-188924.9,-101505.1,-133931.1,-375000,-375000,-157545.5,-151605.9,0.03,0.00,0.88,-4,0,-2,50,0
'[13:13:00.708 20/01/2026]',-124300.8,-191170.8,-103587,-134726.3,-375000,-375000,-159100.9,-152969.3,0.03,0.00,0.88,-4,0,-2,50,0
'[13:13:00.712 20/01/2026]',-121864.3,-193291.1,-105486.5,-135335.5,-375000,-375000,-160738.5,-154301,0.03,0.00,0.88,-4,0,-2,50,0
'[13:13:00.716 20/01/2026]',-123248.4,-190576,-102974.8,-134365.5,-375000,-375000,-158938.1,-152691.6,0.03,0.00,0.88,-4,0,-2,50,0
'[13:13:00.720 20/01/2026]',-125540.7,-188781.5,-101376.2,-133851.6,-375000,-375000,-157474.3,-151518.8,0.03,-0.02,0.88,-4,0,-2,50,0
'[13:13:00.724 20/01/2026]',-124692.6,-190647.7,-103105.3,-134520.5,-375000,-375000,-158719,-152631,0.03,-0.02,0.88,-4,0,-2,50,0
'[13:13:00.728 20/01/2026]',-122128.7,-193144.3,-105351.9,-135260.5,-375000,-375000,-160589.5,-154187.5,0.03,-0.02,0.88,-4,0,-2,50,0
'[13:13:00.732 20/01/2026]',-122718.1,-191182.8,-103529.2,-134528.3,-375000,-375000,-159362.4,-153053.7,0.03,-0.02,0.88,-4,0,-2,50,0
'[13:13:00.736 20/01/2026]',-125374.1,-188736.6,-101313,-133791.3,-375000,-375000,-157465.3,-151494,0.03,-0.02,0.88,-4,0,-2,50,0
'[13:13:00.740 20/01/2026]',-124997.4,-190168.8,-102659.5,-134346.2,-375000,-375000,-158368.1,-152334.2,0.03,-0.02,0.88,-4,0,-2,50,0
'[13:13:00.744 20/01/2026]',-122473.2,-192892,-105143.5,-135198,-375000,-375000,-160377.7,-154025.6,0.03,-0.02,0.88,-4,0,-2,50,0
'[13:13:00.748 20/01/2026]',-122192.2,-191803.5,-104109.8,-134727.2,-375000,-375000,-159793.3,-153427,0.03,-0.02,0.88,-4,0,-2,50,0
'[13:13:00.752 20/01/2026]',-125002.8,-188802.5,-101383.3,-133775.8,-375000,-375000,-157553.7,-151557.2,0.03,-0.02,0.88,-4,0,-2,50,0
'[13:13:00.756 20/01/2026]',-125133.1,-189721.8,-102279,-134178,-375000,-375000,-158076.7,-152081.4,0.03,-0.02,0.89,-4,0,-2,50,0
'[13:13:00.760 20/01/2026]',-122831.6,-192509.4,-104817.5,-135076.5,-375000,-375000,-160087.5,-153790.7,0.03,-0.02,0.89,-4,0,-2,50,0
'[13:13:00.764 20/01/2026]',-121827.7,-192385,-104625,-134918.2,-375000,-375000,-160157.5,-153750.1,0.03,-0.02,0.89,-4,0,-2,50,0
'[13:13:00.768 20/01/2026]',-124646.4,-189061.4,-101582.2,-133836.7,-375000,-375000,-157750.2,-151708,0.03,-0.02,0.89,-4,0,-2,50,0
'[13:13:00.772 20/01/2026]',-125350.8,-189390.9,-101931.1,-134043.3,-375000,-375000,-157814.4,-151846.8,0.03,-0.02,0.89,-4,0,-2,50,0
'[13:13:00.776 20/01/2026]',-123349.3,-192092.5,-104410.4,-134938.9,-375000,-375000,-159745.2,-153497.3,0.03,-0.02,0.89,-4,0,-2,50,0
'[13:13:00.780 20/01/2026]',-121705.7,-192852,-105076.3,-135096.9,-375000,-375000,-160470.8,-154026.3,0.03,-0.02,0.89,-4,0,-2,50,0
'[13:13:00.784 20/01/2026]',-124286,-189476.5,-101977.1,-133986.3,-375000,-375000,-158097.8,-151989.7,0.03,-0.02,0.89,-4,0,-2,50,0
'[13:13:00.788 20/01/2026]',-125594.4,-189183.5,-101741.4,-134004.7,-375000,-375000,-157703,-151747.8,0.03,-0.02,0.89,-4,0,-2,50,0
'[13:13:00.792 20/01/2026]',-123926.4,-191676.8,-104035.8,-134842.4,-375000,-375000,-159459,-153266,0.02,-0.02,0.89,-4,0,-2,50,0
'[13:13:00.796 20/01/2026]',-121708.4,-193126.9,-105325.8,-135180.1,-375000,-375000,-160635,-154182.9,0.02,-0.02,0.89,-4,0,-2,50,0
'[13:13:00.800 20/01/2026]',-123727.5,-189877.3,-102335,-134058.4,-375000,-375000,-158400.2,-152235.8,0.02,-0.02,0.89,-4,0,-2,50,0
'[13:13:00.804 20/01/2026]',-125589.5,-188810.9,-101382.5,-133811.6,-375000,-375000,-157440.2,-151507,0.02,-0.02,0.89,-4,0,-2,50,0
'[13:13:00.808 20/01/2026]',-124320.7,-191044.3,-103450.9,-134578.9,-375000,-375000,-158970.8,-152850.3,0.02,-0.02,0.89,-4,0,-2,50,0
'[13:13:00.812 20/01/2026]',-121786.8,-193155.7,-105358.6,-135142,-375000,-375000,-160584.2,-154147.3,0.02,-0.02,0.89,-4,0,-2,50,0
'[13:13:00.816 20/01/2026]',-123166.4,-190454.8,-102857,-134206.3,-375000,-375000,-158808.4,-152568.3,0.02,-0.02,0.89,-4,0,-2,50,0
'[13:13:00.820 20/01/2026]',-125501.8,-188671,-101248.2,-133741.7,-375000,-375000,-157360.2,-151422.9,0.02,-0.02,0.89,-4,0,-2,50,0
'[13:13:00.824 20/01/2026]',-124640.1,-190555.3,-103007.5,-134419.5,-375000,-375000,-158608.1,-152539.6,0.02,-0.02,0.89,-4,0,-2,50,0
'[13:13:00.828 20/01/2026]',-122031.3,-193088.9,-105307.3,-135150.1,-375000,-375000,-160496.4,-154088.5,0.03,-0.02,0.88,-4,0,-2,50,0
'[13:13:00.832 20/01/2026]',-122623.8,-191135,-103473.2,-134445.9,-375000,-375000,-159294.1,-152985,0.03,-0.02,0.88,-4,0,-2,50,0
'[13:13:00.836 20/01/2026]',-125341.7,-188659.9,-101236.9,-133743.5,-375000,-375000,-157390,-151439.8,0.03,-0.02,0.88,-4,0,-2,50,0
'[13:13:00.840 20/01/2026]',-124994.7,-190120.1,-102600,-134304.6,-375000,-375000,-158303.9,-152289.2,0.03,-0.02,0.88,-4,0,-2,50,0
'[13:13:00.844 20/01/2026]',-122441.2,-192855.4,-105094.1,-135114,-375000,-375000,-160300.3,-153952.2,0.03,-0.02,0.88,-4,0,-2,50,0
'[13:13:00.848 20/01/2026]',-122170.5,-191769.8,-104061.3,-134649.6,-375000,-375000,-159721.3,-153354.6,0.03,-0.02,0.88,-4,0,-2,50,0
'[13:13:00.852 20/01/2026]',-125081.7,-188759.3,-101322.9,-133751.3,-375000,-375000,-157496.5,-151512,0.03,-0.02,0.88,-4,0,-2,50,0
'[13:13:00.856 20/01/2026]',-125264.7,-189697.9,-102208.5,-134159.2,-375000,-375000,-158015.6,-152044.2,0.03,-0.02,0.88,-4,0,-2,50,0
'[13:13:00.860 20/01/2026]',-122904,-192475.5,-104754.5,-135006.5,-375000,-375000,-160017.4,-153726.1,0.03,-0.02,0.88,-4,0,-2,50,0
'[13:13:00.864 20/01/2026]',-121852.6,-192337.7,-104596,-134851.7,-375000,-375000,-160120.9,-153712.3,0.03,-0.02,0.89,-4,0,-2,50,0
'[13:13:00.868 20/01/2026]',-124693.3,-188985.6,-101533,-133802,-375000,-375000,-157708.2,-151681.2,0.03,-0.02,0.89,-4,0,-2,50,0
'[13:13:00.872 20/01/2026]',-125441.4,-189332.5,-101890.4,-134015.3,-375000,-375000,-157771.7,-151828.6,0.03,-0.02,0.89,-4,0,-2,50,0
'[13:13:00.876 20/01/2026]',-123401.3,-192042.8,-104362.8,-134882.9,-375000,-375000,-159694.8,-153464.9,0.03,-0.02,0.89,-4,0,-2,50,0
'[13:13:00.880 20/01/2026]',-121691.3,-192790.3,-104998.4,-135010.5,-375000,-375000,-160406.3,-153969,0.03,-0.02,0.89,-4,0,-2,50,0
'[13:13:00.884 20/01/2026]',-124274.9,-189367.4,-101860.2,-133907.5,-375000,-375000,-158012.2,-151920.4,0.03,-0.02,0.89,-4,0,-2,50,0
'[13:13:00.888 20/01/2026]',-125582.9,-189043.8,-101600.2,-133904.9,-375000,-375000,-157585.7,-151650.8,0.03,-0.02,0.89,-4,0,-2,50,0
'[13:13:00.892 20/01/2026]',-123892.3,-191549,-103918.6,-134744.6,-375000,-375000,-159346.7,-153170.6,0.03,-0.02,0.89,-4,0,-2,50,0
'[13:13:00.896 20/01/2026]',-121678.6,-193069.7,-105286.1,-135126.9,-375000,-375000,-160579.2,-154129.6,0.03,-0.02,0.89,-4,0,-2,50,0
'[13:13:00.900 20/01/2026]',-123739.3,-189864.4,-102332,-134060.2,-375000,-375000,-158396.8,-152234.1,0.03,-0.02,0.89,-4,0,-2,50,0
'[13:13:00.904 20/01/2026]',-125557.4,-188795,-101383.4,-133800.6,-375000,-375000,-157432.1,-151504.6,0.03,-0.02,0.89,-4,0,-2,50,0
'[13:13:00.908 20/01/2026]',-124291.1,-191021.8,-103445.4,-134571,-375000,-375000,-158963.5,-152845.3,0.03,-0.02,0.89,-4,0,-2,50,0
'[13:13:00.912 20/01/2026]',-121817.5,-193160.7,-105357.1,-135164,-375000,-375000,-160597.4,-154164,0.03,-0.02,0.89,-4,0,-2,50,0
'[13:13:00.916 20/01/2026]',-123206.6,-190475.3,-102870.1,-134251.7,-375000,-375000,-158840.8,-152602.2,0.03,-0.02,0.89,-4,0,-2,50,0
'[13:13:00.920 20/01/2026]',-125572.9,-188721.7,-101305.1,-133806.3,-375000,-375000,-157423.1,-151484.5,0.03,-0.02,0.89,-4,0,-2,50,0
'[13:13:00.924 20/01/2026]',-124758.9,-190625.1,-103078.6,-134503.3,-375000,-375000,-158694.9,-152627,0.03,-0.02,0.89,-4,0,-2,50,0
'[13:13:00.928 20/01/2026]',-122187.9,-193171.3,-105396.8,-135262.3,-375000,-375000,-160604.6,-154204,0.03,-0.02,0.89,-4,0,-2,50,0
'[13:13:00.932 20/01/2026]',-122756.4,-191229.8,-103583.9,-134564,-375000,-375000,-159407.5,-153103,0.03,-0.02,0.89,-4,0,-2,50,0
'[13:13:00.936 20/01/2026]',-125429.3,-188726.9,-101299.1,-133813.7,-375000,-375000,-157471.5,-151523.1,0.02,-0.02,0.88,-4,0,-2,50,0
'[13:13:00.940 20/01/2026]',-125058.5,-190164.1,-102657.3,-134344.3,-375000,-375000,-158368,-152354,0.02,-0.02,0.88,-4,0,-2,50,0
'[13:13:00.944 20/01/2026]',-122533.6,-192911.5,-105170.2,-135179.2,-375000,-375000,-160386.4,-154035.8,0.02,-0.02,0.88,-4,0,-2,50,0
'[13:13:00.948 20/01/2026]',-122245,-191838.7,-104149.1,-134720.8,-375000,-375000,-159817.1,-153444.8,0.02,-0.02,0.88,-4,0,-2,50,0
'[13:13:00.952 20/01/2026]',-125120.9,-188819.1,-101390.4,-133804.2,-375000,-375000,-157573.1,-151587.3,0.02,-0.02,0.88,-4,0,-2,50,0
'[13:13:00.956 20/01/2026]',-125277.5,-189743.5,-102262,-134182.5,-375000,-375000,-158068.9,-152086.5,0.02,-0.02,0.88,-4,0,-2,50,0
'[13:13:00.960 20/01/2026]',-122983.5,-192540.2,-104830,-135073,-375000,-375000,-160092.3,-153795.6,0.02,-0.02,0.88,-4,0,-2,50,0
'[13:13:00.964 20/01/2026]',-121906.7,-192414.9,-104662.9,-134894.5,-375000,-375000,-160184.4,-153762.1,0.02,-0.02,0.88,-4,0,-2,50,0
'[13:13:00.968 20/01/2026]',-124701.7,-189052.1,-101574.7,-133794.4,-375000,-375000,-157745.2,-151694.7,0.02,-0.02,0.88,-4,0,-2,50,0
'[13:13:00.972 20/01/2026]',-125458.9,-189367.3,-101900.3,-134021,-375000,-375000,-157795.3,-151834.5,0.02,-0.02,0.88,-4,0,-2,50,0
'[13:13:00.976 20/01/2026]',-123468,-192046,-104354.7,-134901.3,-375000,-375000,-159700.1,-153465.8,0.02,-0.02,0.88,-4,0,-2,50,0
'[13:13:00.980 20/01/2026]',-121752.3,-192795.7,-104994.6,-135013,-375000,-375000,-160396.3,-153953.1,0.02,-0.02,0.88,-4,0,-2,50,0
'[13:13:00.984 20/01/2026]',-124272.4,-189388.6,-101870.5,-133878.7,-375000,-375000,-157995.3,-151892.2,0.02,-0.02,0.88,-4,0,-2,50,0
'[13:13:00.988 20/01/2026]',-125565.3,-189054.9,-101591.5,-133867.6,-375000,-375000,-157548.9,-151602,0.02,-0.02,0.88,-4,0,-2,50,0
'[13:13:00.992 20/01/2026]',-123920,-191544.1,-103875.8,-134720.5,-375000,-375000,-159307.8,-153121.2,0.02,-0.02,0.88,-4,0,-2,50,0
'[13:13:00.996 20/01/2026]',-121779.3,-193100.5,-105271.2,-135146.2,-375000,-375000,-160571.3,-154115.6,0.02,-0.02,0.88,-4,0,-2,50,0
'[13:13:01.000 20/01/2026]',-123843.9,-189979.7,-102386.5,-134086.5,-375000,-375000,-158415,-152238.9,0.02,-0.02,0.88,-4,0,-2,50,0
'[13:13:01.004 20/01/2026]',-125690.4,-188912.1,-101432.1,-133837.4,-375000,-375000,-157452,-151512.7,0.02,-0.02,0.88,-4,0,-2,50,0
'[13:13:01.008 20/01/2026]',-124461.2,-191129.7,-103483.4,-134620,-375000,-375000,-158973,-152846.7,0.03,0.00,0.88,-4,0,-2,50,0
'[13:13:01.012 20/01/2026]',-122015.8,-193267,-105413.5,-135232.4,-375000,-375000,-160618.4,-154178.9,0.03,0.00,0.88,-4,0,-2,50,0
'[13:13:01.016 20/01/2026]',-123343.6,-190639.4,-102987,-134299.1,-375000,-375000,-158888.5,-152642.5,0.03,0.00,0.88,-4,0,-2,50,0
'[13:13:01.020 20/01/2026]',-125650,-188842.8,-101353.6,-133776.8,-375000,-375000,-157403.3,-151462.2,0.03,0.00,0.88,-4,0,-2,50,0
'[13:13:01.024 20/01/2026]',-124885.1,-190697.9,-103078.1,-134453.1,-375000,-375000,-158634,-152572.1,0.03,0.00,0.88,-4,0,-2,50,0
'[13:13:01.028 20/01/2026]',-122343.1,-193226.5,-105382.6,-135216.1,-375000,-375000,-160520.8,-154129.4,0.03,0.00,0.88,-4,0,-2,50,0
'[13:13:01.032 20/01/2026]',-122866.2,-191319.9,-103603.5,-134513.4,-375000,-375000,-159342.3,-153045.5,0.03,0.00,0.88,-4,0,-2,50,0
'[13:13:01.036 20/01/2026]',-125491.2,-188842,-101358.6,-133766.5,-375000,-375000,-157433.8,-151487.5,0.03,0.00,0.88,-4,0,-2,50,0
'[13:13:01.040 20/01/2026]',-125148.3,-190238.5,-102691.2,-134325.8,-375000,-375000,-158327.3,-152322.8,0.03,0.00,0.88,-4,0,-2,50,0
'[13:13:01.044 20/01/2026]',-122657,-192949.2,-105167.1,-135163.6,-375000,-375000,-160308.8,-153975.4,0.03,-0.02,0.88,-4,0,-2,50,0
'[13:13:01.048 20/01/2026]',-122340.4,-191892.6,-104161.7,-134708,-375000,-375000,-159751.8,-153402.7,0.03,-0.02,0.88,-4,0,-2,50,0
'[13:13:01.052 20/01/2026]',-125127.1,-188867.5,-101418,-133754.8,-375000,-375000,-157522,-151546.3,0.03,-0.02,0.88,-4,0,-2,50,0
'[13:13:01.056 20/01/2026]',-125296,-189781.2,-102287.1,-134161.3,-375000,-375000,-158032.8,-152065.5,0.03,-0.02,0.88,-4,0,-2,50,0
'[13:13:01.060 20/01/2026]',-122995.4,-192529.3,-104814.1,-135045.3,-375000,-375000,-160032.2,-153750.6,0.03,-0.02,0.88,-4,0,-2,50,0
'[13:13:01.064 20/01/2026]',-121937.1,-192399.9,-104656.2,-134895,-375000,-375000,-160146.4,-153743.3,0.03,-0.02,0.88,-4,0,-2,50,0
'[13:13:01.068 20/01/2026]',-124710,-189059,-101600.3,-133812.4,-375000,-375000,-157734.6,-151699.1,0.03,-0.02,0.88,-4,0,-2,50,0
'[13:13:01.072 20/01/2026]',-125456.5,-189361.2,-101926.3,-134044.5,-375000,-375000,-157798.2,-151843.1,0.03,-0.02,0.88,-4,0,-2,50,0
'[13:13:01.076 20/01/2026]',-123496.6,-192016.7,-104379,-134958.6,-375000,-375000,-159711.5,-153480.4,0.03,-0.02,0.88,-4,0,-2,50,0
'[13:13:01.080 20/01/2026]',-121848.9,-192798.9,-105051.4,-135136.7,-375000,-375000,-160444.8,-154017,0.03,0.00,0.88,-4,0,-2,50,0
'[13:13:01.084 20/01/2026]',-124360.9,-189428.6,-101960,-134016.4,-375000,-375000,-158072.8,-151984.7,0.03,0.00,0.88,-4,0,-2,50,0
'[13:13:01.088 20/01/2026]',-125664.2,-189063.3,-101666.5,-133996.8,-375000,-375000,-157619.2,-151691.1,0.03,0.00,0.88,-4,0,-2,50,0
'[13:13:01.092 20/01/2026]',-124083.6,-191527.6,-103933.4,-134852.3,-375000,-375000,-159363.5,-153204.8,0.03,0.00,0.88,-4,0,-2,50,0
'[13:13:01.096 20/01/2026]',-121985.3,-193068.4,-105316.2,-135264,-375000,-375000,-160622.1,-154192.5,0.03,0.00,0.88,-4,0,-2,50,0
'[13:13:01.100 20/01/2026]',-123978.1,-189935.4,-102443.5,-134161.6,-375000,-375000,-158485.9,-152323.4,0.03,0.00,0.88,-4,0,-2,50,0
'[13:13:01.104 20/01/2026]',-125778.9,-188841.1,-101484.7,-133872.5,-375000,-375000,-157511.1,-151579,0.03,0.00,0.88,-4,0,-2,50,0
'[13:13:01.108 20/01/2026]',-124608.3,-191056.3,-103524.3,-134682,-375000,-375000,-159053.4,-152941.6,0.03,0.00,0.88,-4,0,-2,50,0
'[13:13:01.112 20/01/2026]',-122226.1,-193185.4,-105439.3,-135308.5,-375000,-375000,-160702.6,-154281.7,0.03,0.00,0.88,-4,0,-2,50,0
'[13:13:01.116 20/01/2026]',-123477.6,-190556.2,-103015.1,-134328.8,-375000,-375000,-158961.8,-152726.6,0.03,-0.02,0.89,-4,0,-2,50,0
'[13:13:01.120 20/01/2026]',-125713,-188734.4,-101382.7,-133777.1,-375000,-375000,-157487.5,-151545.4,0.03,-0.02,0.89,-4,0,-2,50,0
'[13:13:01.124 20/01/2026]',-124941,-190581.1,-103093.5,-134478.2,-375000,-375000,-158727.7,-152664.1,0.03,-0.02,0.89,-4,0,-2,50,0
'[13:13:01.128 20/01/2026]',-122436.5,-193102.9,-105385.6,-135272.9,-375000,-375000,-160629.1,-154248.8,0.03,-0.02,0.89,-4,0,-2,50,0
'[13:13:01.132 20/01/2026]',-122863.4,-191223.2,-103624.9,-134531.9,-375000,-375000,-159452.4,-153164.5,0.03,-0.02,0.89,-4,0,-2,50,0
'[13:13:01.136 20/01/2026]',-125403.2,-188743.7,-101373.7,-133744.5,-375000,-375000,-157528.4,-151581.8,0.03,-0.02,0.89,-4,0,-2,50,0
'[13:13:01.140 20/01/2026]',-125080.7,-190149.4,-102698.7,-134327.5,-375000,-375000,-158421.2,-152415.6,0.03,-0.02,0.89,-4,0,-2,50,0
'[13:13:01.144 20/01/2026]',-122662.3,-192858.1,-105162.7,-135224.6,-375000,-375000,-160419.3,-154093.7,0.03,-0.02,0.89,-4,0,-2,50,0
'[13:13:01.148 20/01/2026]',-122319.1,-191862.9,-104212.9,-134791.6,-375000,-375000,-159900.3,-153552.1,0.03,-0.02,0.89,-4,0,-2,50,0
'[13:13:01.152 20/01/2026]',-125056,-188854,-101481.7,-133806.8,-375000,-375000,-157651.6,-151673.5,0.03,0.00,0.89,-4,0,-2,50,0
'[13:13:01.156 20/01/2026]',-125293.1,-189750,-102332.9,-134232.5,-375000,-375000,-158153.2,-152186,0.03,0.00,0.89,-4,0,-2,50,0
'[13:13:01.160 20/01/2026]',-123128.2,-192491.8,-104854.7,-135163.9,-375000,-375000,-160153.4,-153883.9,0.03,0.00,0.89,-4,0,-2,50,0
'[13:13:01.164 20/01/2026]',-122083.9,-192399.3,-104723.7,-135019.5,-375000,-375000,-160267.2,-153881.7,0.03,0.00,0.89,-4,0,-2,50,0
'[13:13:01.168 20/01/2026]',-124753.4,-189065.6,-101671.3,-133871.4,-375000,-375000,-157840.2,-151816.3,0.03,0.00,0.89,-4,0,-2,50,0
'[13:13:01.172 20/01/2026]',-125537.7,-189337.5,-101961.4,-134076.5,-375000,-375000,-157859.7,-151920.3,0.03,0.00,0.89,-4,0,-2,50,0
'[13:13:01.176 20/01/2026]',-123674.7,-191994.6,-104396.7,-135012.8,-375000,-375000,-159770.9,-153568,0.03,0.00,0.89,-4,0,-2,50,0
'[13:13:01.180 20/01/2026]',-122041.7,-192788.8,-105076.6,-135189.9,-375000,-375000,-160508.8,-154110.6,0.03,0.00,0.89,-4,0,-2,50,0
'[13:13:01.184 20/01/2026]',-124430.7,-189406.5,-101970,-133976.7,-375000,-375000,-158098.6,-152020.1,0.03,0.00,0.89,-4,0,-2,50,0
'[13:13:01.188 20/01/2026]',-125714.2,-189023.6,-101669.7,-133949,-375000,-375000,-157641.8,-151719.1,0.03,0.00,0.88,-4,0,0,50,0
'[13:13:01.192 20/01/2026]',-124196.2,-191492.2,-103940.2,-134855.5,-375000,-375000,-159397.7,-153250.7,0.03,0.00,0.88,-4,0,0,50,0
'[13:13:01.196 20/01/2026]',-122101,-193036.1,-105316.5,-135301,-375000,-375000,-160649.4,-154238.8,0.03,0.00,0.88,-4,0,0,50,0
'[13:13:01.200 20/01/2026]',-123975.3,-189917.8,-102439.8,-134162.5,-375000,-375000,-158493.7,-152344.9,0.03,0.00,0.88,-4,0,0,50,0
'[13:13:01.204 20/01/2026]',-125750.5,-188820.3,-101484.8,-133874.3,-375000,-375000,-157522.3,-151591.8,0.03,0.00,0.88,-4,0,0,50,0
'[13:13:01.208 20/01/2026]',-124567.8,-190992.2,-103496.8,-134681.2,-375000,-375000,-159033.2,-152920.8,0.03,0.00,0.88,-4,0,0,50,0
'[13:13:01.212 20/01/2026]',-122164.8,-193110.4,-105398.3,-135326.2,-375000,-375000,-160664.3,-154252.6,0.03,0.00,0.88,-4,0,0,50,0
'[13:13:01.216 20/01/2026]',-123334.7,-190522.5,-102990.5,-134339.2,-375000,-375000,-158939.2,-152714.8,0.03,0.00,0.88,-4,0,0,50,0
'[13:13:01.220 20/01/2026]',-125536.2,-188696.4,-101347.7,-133770.3,-375000,-375000,-157450.4,-151518.7,0.03,0.00,0.88,-4,0,0,50,0
'[13:13:01.224 20/01/2026]',-124774.8,-190512.5,-103042.3,-134465.9,-375000,-375000,-158674,-152620.5,0.03,-0.02,0.89,-4,0,-2,50,0
'[13:13:01.228 20/01/2026]',-122301.2,-193012.9,-105314.8,-135269.1,-375000,-375000,-160556.5,-154185.9,0.03,-0.02,0.89,-4,0,-2,50,0
'[13:13:01.232 20/01/2026]',-122732.5,-191159.1,-103577.1,-134523.8,-375000,-375000,-159394.5,-153103.5,0.03,-0.02,0.89,-4,0,-2,50,0
'[13:13:01.236 20/01/2026]',-125263.2,-188658,-101312.3,-133683.3,-375000,-375000,-157452.4,-151500,0.03,-0.02,0.89,-4,0,-2,50,0
'[13:13:01.240 20/01/2026]',-125023.8,-190035.5,-102589.6,-134250.4,-375000,-375000,-158325.9,-152316.7,0.03,-0.02,0.89,-4,0,-2,50,0
'[13:13:01.244 20/01/2026]',-122724.7,-192746.2,-105066.1,-135159.8,-375000,-375000,-160327.5,-154001.5,0.03,-0.02,0.89,-4,0,-2,50,0
'[13:13:01.248 20/01/2026]',-122413.6,-191773.6,-104145.4,-134728.7,-375000,-375000,-159820.6,-153478,0.03,-0.02,0.89,-4,0,-2,50,0
'[13:13:01.252 20/01/2026]',-125078.4,-188743.1,-101378.4,-133670,-375000,-375000,-157546.8,-151564.8,0.03,-0.02,0.89,-4,0,-2,50,0
'[13:13:01.256 20/01/2026]',-125308.2,-189598,-102203,-134080.3,-375000,-375000,-158030.8,-152060.9,0.03,-0.02,0.89,-4,0,-2,50,0
'[13:13:01.260 20/01/2026]',-123161.3,-192330.8,-104717.1,-135032.9,-375000,-375000,-160028.1,-153760.5,0.02,-0.02,0.89,-4,0,-2,50,0
'[13:13:01.264 20/01/2026]',-122098.3,-192326.9,-104659,-134905.7,-375000,-375000,-160180.1,-153788.9,0.02,-0.02,0.89,-4,0,-2,50,0
'[13:13:01.268 20/01/2026]',-124744.1,-189018.4,-101621.6,-133734.7,-375000,-375000,-157767.2,-151734.2,0.02,-0.02,0.89,-4,0,-2,50,0
'[13:13:01.272 20/01/2026]',-125505,-189272.2,-101893.6,-133929.2,-375000,-375000,-157786.2,-151839.3,0.02,-0.02,0.89,-4,0,-2,50,0
'[13:13:01.276 20/01/2026]',-123654.3,-191919.8,-104333.7,-134879.7,-375000,-375000,-159691.3,-153474.6,0.02,-0.02,0.89,-4,0,-2,50,0
'[13:13:01.280 20/01/2026]',-121984.9,-192723.5,-105033.8,-135056.9,-375000,-375000,-160441.5,-154023.6,0.02,-0.02,0.89,-4,0,-2,50,0
'[13:13:01.284 20/01/2026]',-124286.9,-189355.5,-101933.2,-133821,-375000,-375000,-158041.5,-151940.1,0.02,-0.02,0.89,-4,0,-2,50,0
'[13:13:01.288 20/01/2026]',-125534.4,-188942.6,-101593.3,-133770.7,-375000,-375000,-157558.7,-151612.1,0.02,-0.02,0.89,-4,0,-2,50,0
'[13:13:01.292 20/01/2026]',-124024.3,-191398.1,-103854.4,-134682.7,-375000,-375000,-159304,-153134.3,0.02,-0.02,0.89,-4,0,-2,50,0
'[13:13:01.296 20/01/2026]',-121938.3,-192959.9,-105257,-135145,-375000,-375000,-160572.8,-154139.5,0.03,-0.02,0.88,-4,0,-2,50,0
'[13:13:01.300 20/01/2026]',-123763.7,-189848.6,-102392.7,-133976.7,-375000,-375000,-158428,-152247,0.03,-0.02,0.88,-4,0,-2,50,0
'[13:13:01.304 20/01/2026]',-125551.8,-188741.3,-101411.6,-133684.9,-375000,-375000,-157453.8,-151499.3,0.03,-0.02,0.88,-4,0,-2,50,0
'[13:13:01.308 20/01/2026]',-124436.3,-190909.5,-103413.6,-134517,-375000,-375000,-158956.7,-152823.5,0.03,-0.02,0.88,-4,0,-2,50,0
'[13:13:01.312 20/01/2026]',-122144,-193056.9,-105353.7,-135207,-375000,-375000,-160614.2,-154182.5,0.03,-0.02,0.88,-4,0,-2,50,0
'[13:13:01.316 20/01/2026]',-123322.4,-190462.3,-102943.3,-134191.5,-375000,-375000,-158885.9,-152631.3,0.03,-0.02,0.88,-4,0,-2,50,0
'[13:13:01.320 20/01/2026]',-125494,-188618.7,-101290.1,-133590.2,-375000,-375000,-157385.7,-151411.9,0.03,-0.02,0.88,-4,0,-2,50,0
'[13:13:01.324 20/01/2026]',-124766,-190424.2,-102972.4,-134316,-375000,-375000,-158603.2,-152508.6,0.03,-0.02,0.88,-4,0,-2,50,0
'[13:13:01.328 20/01/2026]',-122376.1,-192933.8,-105250.9,-135179.1,-375000,-375000,-160501.3,-154094.8,0.03,-0.02,0.88,-4,0,-2,50,0
'[13:13:01.332 20/01/2026]',-122775,-191095.3,-103538.1,-134456,-375000,-375000,-159347.9,-153031.4,0.03,-0.02,0.89,-4,0,-2,50,0
'[13:13:01.336 20/01/2026]',-125229.8,-188597.4,-101257.1,-133612.7,-375000,-375000,-157400.8,-151423,0.03,-0.02,0.89,-4,0,-2,50,0
'[13:13:01.340 20/01/2026]',-124964.6,-189978.7,-102557,-134194.6,-375000,-375000,-158282.6,-152247,0.03,-0.02,0.89,-4,0,-2,50,0
'[13:13:01.344 20/01/2026]',-122635.8,-192699.6,-105043,-135135.9,-375000,-375000,-160301.5,-153956.6,0.03,-0.02,0.89,-4,0,-2,50,0
'[13:13:01.348 20/01/2026]',-122242.5,-191748.6,-104133.5,-134695.2,-375000,-375000,-159800.5,-153436.7,0.03,-0.02,0.89,-4,0,-2,50,0
'[13:13:01.352 20/01/2026]',-124851.6,-188716.3,-101353.2,-133628.3,-375000,-375000,-157525.3,-151518.8,0.03,-0.02,0.89,-4,0,-2,50,0
'[13:13:01.356 20/01/2026]',-125090.7,-189566.3,-102186.8,-134038.5,-375000,-375000,-157994.4,-152007.7,0.03,-0.02,0.89,-4,0,-2,50,0
'[13:13:01.360 20/01/2026]',-122970.6,-192323,-104706.8,-135004.1,-375000,-375000,-159997,-153729.3,0.03,-0.02,0.89,-4,0,-2,50,0
'[13:13:01.364 20/01/2026]',-121902.2,-192291.3,-104621,-134887.9,-375000,-375000,-160156.6,-153768.9,0.03,-0.02,0.89,-4,0,-2,50,0
'[13:13:01.368 20/01/2026]',-124500,-188977.9,-101606.2,-133700.4,-375000,-375000,-157740.5,-151702.2,0.02,0.00,0.88,-4,0,-2,50,0
'[13:13:01.372 20/01/2026]',-125254,-189249,-101886.1,-133896.8,-375000,-375000,-157765.4,-151805,0.02,0.00,0.88,-4,0,-2,50,0
'[13:13:01.376 20/01/2026]',-123428.7,-191904.6,-104328.9,-134872.5,-375000,-375000,-159686.1,-153459.3,0.02,0.00,0.88,-4,0,-2,50,0
'[13:13:01.380 20/01/2026]',-121770.9,-192739.4,-105050.4,-135062.9,-375000,-375000,-160448.9,-154019.1,0.02,0.00,0.88,-4,0,-2,50,0
'[13:13:01.384 20/01/2026]',-124064,-189368.6,-101946.6,-133822.1,-375000,-375000,-158057.5,-151944.1,0.02,0.00,0.88,-4,0,-2,50,0
'[13:13:01.388 20/01/2026]',-125335,-188943.5,-101588.5,-133759.6,-375000,-375000,-157564.2,-151599.9,0.02,0.00,0.88,-4,0,-2,50,0
'[13:13:01.392 20/01/2026]',-123862.3,-191384.4,-103842.4,-134654.2,-375000,-375000,-159292.8,-153100.5,0.02,0.00,0.88,-4,0,-2,50,0
'[13:13:01.396 20/01/2026]',-121803.5,-192976.1,-105266.8,-135126.8,-375000,-375000,-160581.1,-154119.8,0.02,0.00,0.88,-4,0,-2,50,0
'[13:13:01.400 20/01/2026]',-123612.6,-189871.3,-102401.5,-133973.3,-375000,-375000,-158445,-152243.5,0.02,0.00,0.88,-4,0,-2,50,0
'[13:13:01.404 20/01/2026]',-125380.9,-188739.7,-101400.6,-133679.3,-375000,-375000,-157440.8,-151467.8,0.03,0.00,0.89,-4,0,-2,50,0
'[13:13:01.408 20/01/2026]',-124290.4,-190909.8,-103411.1,-134536.7,-375000,-375000,-158954.2,-152812.4,0.03,0.00,0.89,-4,0,-2,50,0
'[13:13:01.412 20/01/2026]',-121959.3,-193063.7,-105364.5,-135234.8,-375000,-375000,-160616.2,-154177.3,0.03,0.00,0.89,-4,0,-2,50,0
'[13:13:01.416 20/01/2026]',-123090,-190496.7,-102982.3,-134251.5,-375000,-375000,-158921.6,-152667.8,0.03,0.00,0.89,-4,0,-2,50,0
'[13:13:01.420 20/01/2026]',-125255.2,-188617.1,-101286.4,-133650.2,-375000,-375000,-157417.5,-151459,0.03,0.00,0.89,-4,0,-2,50,0
'[13:13:01.424 20/01/2026]',-124540.6,-190413.3,-102959.9,-134360.3,-375000,-375000,-158622.3,-152551.4,0.03,0.00,0.89,-4,0,-2,50,0
'[13:13:01.428 20/01/2026]',-122157.8,-192956.3,-105262.9,-135201.1,-375000,-375000,-160504.3,-154124.1,0.03,0.00,0.89,-4,0,-2,50,0
'[13:13:01.432 20/01/2026]',-122578,-191144.7,-103569.1,-134475.6,-375000,-375000,-159374.5,-153076.9,0.03,0.00,0.89,-4,0,-2,50,0
'[13:13:01.436 20/01/2026]',-125048.9,-188600,-101269.1,-133612.9,-375000,-375000,-157415.5,-151455.7,0.03,0.00,0.89,-4,0,-2,50,0
'[13:13:01.440 20/01/2026]',-124788,-189958.6,-102556.3,-134194,-375000,-375000,-158284.3,-152270.9,0.03,-0.02,0.88,-4,0,-2,50,0
'[13:13:01.444 20/01/2026]',-122492.6,-192676.3,-105052.3,-135144.9,-375000,-375000,-160298.6,-153973.2,0.03,-0.02,0.88,-4,0,-2,50,0
'[13:13:01.448 20/01/2026]',-122113.7,-191737,-104148.6,-134715.5,-375000,-375000,-159807.5,-153464.8,0.03,-0.02,0.88,-4,0,-2,50,0
'[13:13:01.452 20/01/2026]',-124707.8,-188694.4,-101373.4,-133647.6,-375000,-375000,-157531.6,-151557.2,0.03,-0.02,0.88,-4,0,-2,50,0
'[13:13:01.456 20/01/2026]',-124905.4,-189547.7,-102192.6,-134029.7,-375000,-375000,-157989.7,-152017.3,0.03,-0.02,0.88,-4,0,-2,50,0
'[13:13:01.460 20/01/2026]',-122806.4,-192293.1,-104711.7,-135001.5,-375000,-375000,-159991,-153719.4,0.03,-0.02,0.88,-4,0,-2,50,0
'[13:13:01.464 20/01/2026]',-121728.4,-192266.8,-104659.3,-134883,-375000,-375000,-160162,-153767.5,0.03,-0.02,0.88,-4,0,-2,50,0
'[13:13:01.468 20/01/2026]',-124295.5,-188932.9,-101610.6,-133688.2,-375000,-375000,-157745.7,-151706.4,0.03,-0.02,0.88,-4,0,-2,50,0
'[13:13:01.472 20/01/2026]',-125077.2,-189200.5,-101877.3,-133882.8,-375000,-375000,-157763.3,-151802.7,0.03,-0.02,0.88,-4,0,-2,50,0
'[13:13:01.476 20/01/2026]',-123287.4,-191857,-104308.3,-134848.2,-375000,-375000,-159668.7,-153435.9,0.03,0.00,0.88,-4,0,-2,50,0
'[13:13:01.480 20/01/2026]',-121656,-192727.7,-105062.3,-135077.1,-375000,-375000,-160465.8,-154027,0.03,0.00,0.88,-4,0,-2,50,0
'[13:13:01.484 20/01/2026]',-123909.2,-189376.3,-101979.5,-133851.1,-375000,-375000,-158095.9,-151978.4,0.03,0.00,0.88,-4,0,-2,50,0
'[13:13:01.488 20/01/2026]',-125148.1,-188944.1,-101618.8,-133776.8,-375000,-375000,-157591.8,-151629,0.03,0.00,0.88,-4,0,-2,50,0
'[13:13:01.492 20/01/2026]',-123672.7,-191387.6,-103870.4,-134683.5,-375000,-375000,-159324.3,-153130.8,0.03,0.00,0.88,-4,0,-2,50,0
'[13:13:01.496 20/01/2026]',-121634.7,-192994.4,-105326,-135197.6,-375000,-375000,-160637.4,-154178,0.03,0.00,0.88,-4,0,-2,50,0
'[13:13:01.500 20/01/2026]',-123413,-189925.5,-102495.5,-134057.5,-375000,-375000,-158532.2,-152334.2,0.03,0.00,0.88,-4,0,-2,50,0
'[13:13:01.504 20/01/2026]',-125158.2,-188780.4,-101470.2,-133737.5,-375000,-375000,-157525.1,-151555.9,0.03,0.00,0.88,-4,0,-2,50,0
'[13:13:01.508 20/01/2026]',-124065.9,-190937.9,-103465.3,-134578.2,-375000,-375000,-159024.4,-152886.2,0.03,0.00,0.88,-4,0,-2,50,0
'[13:13:01.512 20/01/2026]',-121765.3,-193099.2,-105425.9,-135282.9,-375000,-375000,-160690.5,-154253.4,0.02,0.00,0.88,-4,0,-2,50,0
'[13:13:01.516 20/01/2026]',-122900.5,-190556.4,-103072,-134298.3,-375000,-375000,-159006.9,-152747.7,0.02,0.00,0.88,-4,0,-2,50,0
'[13:13:01.520 20/01/2026]',-125083.8,-188684.5,-101367.9,-133682.3,-375000,-375000,-157487.4,-151520.1,0.02,0.00,0.88,-4,0,-2,50,0
'[13:13:01.524 20/01/2026]',-124410.3,-190491.3,-103046.4,-134413.2,-375000,-375000,-158695.5,-152618.2,0.02,0.00,0.88,-4,0,-2,50,0
'[13:13:01.528 20/01/2026]',-122053.8,-193011.6,-105361.1,-135269,-375000,-375000,-160587,-154199.6,0.02,0.00,0.88,-4,0,-2,50,0
'[13:13:01.532 20/01/2026]',-122442.7,-191227.5,-103698.1,-134556.7,-375000,-375000,-159487.7,-153170.5,0.02,0.00,0.88,-4,0,-2,50,0
'[13:13:01.536 20/01/2026]',-124919.9,-188701,-101389.8,-133695.2,-375000,-375000,-157539.4,-151565,0.02,0.00,0.88,-4,0,-2,50,0
'[13:13:01.540 20/01/2026]',-124712.1,-190062.4,-102679.5,-134288.1,-375000,-375000,-158406.6,-152383.8,0.02,0.00,0.88,-4,0,-2,50,0
'[13:13:01.544 20/01/2026]',-122449.8,-192781.3,-105174.1,-135237.8,-375000,-375000,-160415.6,-154085.5,0.02,0.00,0.88,-4,0,-2,50,0
'[13:13:01.548 20/01/2026]',-122066.2,-191887.4,-104323.6,-134831.8,-375000,-375000,-159967.9,-153615.6,0.05,-0.02,0.88,-4,0,-2,50,0
'[13:13:01.552 20/01/2026]',-124666.7,-188856.2,-101549.6,-133759.8,-375000,-375000,-157706.7,-151716.9,0.05,-0.02,0.88,-4,0,-2,50,0
'[13:13:01.556 20/01/2026]',-124904.6,-189691.5,-102332.7,-134137.8,-375000,-375000,-158150,-152173.4,0.05,-0.02,0.88,-4,0,-2,50,0
'[13:13:01.560 20/01/2026]',-122833.9,-192437.7,-104869.6,-135132.7,-375000,-375000,-160158.6,-153892.8,0.05,-0.02,0.88,-4,0,-2,50,0
'[13:13:01.564 20/01/2026]',-121747.2,-192453.9,-104847.5,-135038.1,-375000,-375000,-160350.6,-153967.7,0.05,-0.02,0.88,-4,0,-2,50,0
'[13:13:01.568 20/01/2026]',-124274.1,-189127.8,-101795.6,-133821.1,-375000,-375000,-157935,-151901.4,0.05,-0.02,0.88,-4,0,-2,50,0
'[13:13:01.572 20/01/2026]',-125013.6,-189367.1,-102034.7,-133994.4,-375000,-375000,-157930.3,-151978.3,0.05,-0.02,0.88,-4,0,-2,50,0
'[13:13:01.576 20/01/2026]',-123247.7,-192012,-104473.8,-134978.1,-375000,-375000,-159838.6,-153620.8,0.05,-0.02,0.88,-4,0,-2,50,0
'[13:13:01.580 20/01/2026]',-121624.1,-192900.8,-105261.2,-135215.7,-375000,-375000,-160641.9,-154218.5,0.05,-0.02,0.88,-4,0,-2,50,0
'[13:13:01.584 20/01/2026]',-123826.9,-189552.3,-102179.5,-133955.2,-375000,-375000,-158271.6,-152163.2,0.03,-0.02,0.89,-4,0,-2,50,0
'[13:13:01.588 20/01/2026]',-125087,-189099.6,-101793.3,-133876.1,-375000,-375000,-157760.9,-151809.7,0.03,-0.02,0.89,-4,0,-2,50,0
'[13:13:01.592 20/01/2026]',-123686.9,-191553.2,-104060.1,-134832.4,-375000,-375000,-159511.3,-153345.6,0.03,-0.02,0.89,-4,0,-2,50,0
'[13:13:01.596 20/01/2026]',-121661.2,-193189.1,-105536.8,-135366.4,-375000,-375000,-160838.2,-154416.3,0.03,-0.02,0.89,-4,0,-2,50,0
'[13:13:01.600 20/01/2026]',-123377.8,-190105.7,-102682.6,-134184.5,-375000,-375000,-158723.4,-152561.2,0.03,-0.02,0.89,-4,0,-2,50,0
'[13:13:01.604 20/01/2026]',-125138.1,-188937,-101633.2,-133844.1,-375000,-375000,-157695.2,-151759.8,0.03,-0.02,0.89,-4,0,-2,50,0
'[13:13:01.608 20/01/2026]',-124106.6,-191097.2,-103635.6,-134714.7,-375000,-375000,-159201.4,-153096.4,0.03,-0.02,0.89,-4,0,-2,50,0
'[13:13:01.612 20/01/2026]',-121867.8,-193275.3,-105619.7,-135460.7,-375000,-375000,-160886.1,-154483.4,0.03,-0.02,0.89,-4,0,-2,50,0
'[13:13:01.616 20/01/2026]',-122903.8,-190736.5,-103241.6,-134452,-375000,-375000,-159194.1,-152961,0.03,-0.02,0.89,-4,0,-2,50,0
'[13:13:01.620 20/01/2026]',-125032.5,-188823.7,-101537.4,-133817.8,-375000,-375000,-157656.6,-151719.5,0.02,0.00,0.88,-4,0,-2,50,0
'[13:13:01.624 20/01/2026]',-124384,-190605,-103212.3,-134553.5,-375000,-375000,-158862.3,-152807.7,0.02,0.00,0.88,-4,0,-2,50,0
'[13:13:01.628 20/01/2026]',-122095,-193162,-105535.6,-135454.3,-375000,-375000,-160777.7,-154413.5,0.02,0.00,0.88,-4,0,-2,50,0
'[13:13:01.632 20/01/2026]',-122440.5,-191432.3,-103896.4,-134726,-375000,-375000,-159682.1,-153393.8,0.02,0.00,0.88,-4,0,-2,50,0
'[13:13:01.636 20/01/2026]',-124912.4,-188898.8,-101587.5,-133862.9,-375000,-375000,-157733.1,-151787.5,0.02,0.00,0.88,-4,0,-2,50,0
'[13:13:01.640 20/01/2026]',-124663.3,-190228.6,-102855.8,-134433.7,-375000,-375000,-158580.9,-152581.4,0.02,0.00,0.88,-4,0,-2,50,0
'[13:13:01.644 20/01/2026]',-122447.7,-192946,-105353.6,-135421.6,-375000,-375000,-160598.8,-154293.1,0.02,0.00,0.88,-4,0,-2,50,0
'[13:13:01.648 20/01/2026]',-122055.9,-192082.7,-104524.1,-135013.3,-375000,-375000,-160161,-153826,0.02,0.00,0.88,-4,0,-2,50,0
'[13:13:01.652 20/01/2026]',-124608.5,-189030.3,-101733.6,-133908.1,-375000,-375000,-157885.7,-151899.7,0.02,0.00,0.88,-4,0,-2,50,0
'[13:13:01.656 20/01/2026]',-124869.7,-189852.8,-102514,-134304.8,-375000,-375000,-158329.1,-152356.8,0.03,-0.02,0.88,-4,0,-2,50,0
'[13:13:01.660 20/01/2026]',-122859.7,-192622.9,-105046.7,-135305.3,-375000,-375000,-160326.2,-154059.1,0.03,-0.02,0.88,-4,0,-2,50,0
'[13:13:01.664 20/01/2026]',-121789.7,-192684.5,-105064.4,-135232.5,-375000,-375000,-160560,-154167.9,0.03,-0.02,0.88,-4,0,-2,50,0
'[13:13:01.668 20/01/2026]',-124250.3,-189355.2,-102007.1,-133989.8,-375000,-375000,-158135.5,-152087.3,0.03,-0.02,0.88,-4,0,-2,50,0
'[13:13:01.672 20/01/2026]',-125017.8,-189561.2,-102235.9,-134170.2,-375000,-375000,-158118.2,-152155.3,0.03,-0.02,0.88,-4,0,-2,50,0
'[13:13:01.676 20/01/2026]',-123309.3,-192217.1,-104684.3,-135184.4,-375000,-375000,-160042.1,-153824.7,0.03,-0.02,0.88,-4,0,-2,50,0
'[13:13:01.680 20/01/2026]',-121689.2,-193146.4,-105502.4,-135448.1,-375000,-375000,-160882.7,-154465.7,0.03,-0.02,0.88,-4,0,-2,50,0
'[13:13:01.684 20/01/2026]',-123830.9,-189806.1,-102428.2,-134175.8,-375000,-375000,-158514.5,-152404.3,0.03,-0.02,0.88,-4,0,-2,50,0
'[13:13:01.688 20/01/2026]',-125074.7,-189332,-102018.3,-134091.6,-375000,-375000,-157983.7,-152029.9,0.03,-0.02,0.88,-4,0,-2,50,0
'[13:13:01.692 20/01/2026]',-123697.2,-191768,-104257.3,-135042.8,-375000,-375000,-159712.5,-153545,0.03,-0.02,0.88,-4,0,0,50,0
'[13:13:01.696 20/01/2026]',-121702.9,-193418.2,-105746,-135583,-375000,-375000,-161046.6,-154618,0.03,-0.02,0.88,-4,0,0,50,0
'[13:13:01.700 20/01/2026]',-123367.9,-190365.7,-102923.2,-134390.8,-375000,-375000,-158950,-152765.4,0.03,-0.02,0.88,-4,0,0,50,0
'[13:13:01.704 20/01/2026]',-125102.8,-189168.1,-101858.9,-134034.3,-375000,-375000,-157902.8,-151947.7,0.03,-0.02,0.88,-4,0,0,50,0
'[13:13:01.708 20/01/2026]',-124091.5,-191292.8,-103825.5,-134887.7,-375000,-375000,-159384.5,-153268.8,0.03,-0.02,0.88,-4,0,0,50,0
'[13:13:01.712 20/01/2026]',-121872.9,-193507.2,-105845.8,-135649.1,-375000,-375000,-161096.6,-154684.8,0.03,-0.02,0.88,-4,0,0,50,0
'[13:13:01.716 20/01/2026]',-122871,-191022.7,-103537.3,-134642.4,-375000,-375000,-159449.7,-153195.4,0.03,-0.02,0.88,-4,0,0,50,0
'[13:13:01.720 20/01/2026]',-124991.4,-189089.8,-101760.1,-133985.8,-375000,-375000,-157891.5,-151927.6,0.03,-0.02,0.88,-4,0,0,50,0
'[13:13:01.724 20/01/2026]',-124430.1,-190862.5,-103439.4,-134748.9,-375000,-375000,-159093,-153019.6,0.03,-0.02,0.88,-4,0,0,50,0
'[13:13:01.728 20/01/2026]',-122169.2,-193426.7,-105791.7,-135657.4,-375000,-375000,-161014.5,-154631.5,0.03,-0.02,0.88,-4,0,-2,50,0
'[13:13:01.732 20/01/2026]',-122435.9,-191702.3,-104155.1,-134900,-375000,-375000,-159930.3,-153606.8,0.03,-0.02,0.88,-4,0,-2,50,0
'[13:13:01.736 20/01/2026]',-124838.3,-189139.9,-101820,-133993.4,-375000,-375000,-157960.3,-151969.7,0.03,-0.02,0.88,-4,0,-2,50,0
'[13:13:01.740 20/01/2026]',-124667.1,-190464.4,-103074.6,-134589,-375000,-375000,-158802.2,-152765,0.03,-0.02,0.88,-4,0,-2,50,0
'[13:13:01.744 20/01/2026]',-122492,-193199.6,-105580.1,-135589.4,-375000,-375000,-160822.5,-154477.8,0.03,-0.02,0.88,-4,0,-2,50,0
'[13:13:01.748 20/01/2026]',-122039.2,-192357.5,-104768.7,-135160.4,-375000,-375000,-160388,-154007.8,0.03,-0.02,0.88,-4,0,-2,50,0
'[13:13:01.752 20/01/2026]',-124529.3,-189284.7,-101953.5,-134006.3,-375000,-375000,-158084.1,-152054.5,0.03,-0.02,0.88,-4,0,-2,50,0
'[13:13:01.756 20/01/2026]',-124847.9,-190086.4,-102724,-134427.5,-375000,-375000,-158522.4,-152517.8,0.03,-0.02,0.88,-4,0,-2,50,0
'[13:13:01.760 20/01/2026]',-122887.2,-192820.1,-105236.9,-135459.3,-375000,-375000,-160524.8,-154229.7,0.03,-0.02,0.88,-4,0,-2,50,0
'[13:13:01.764 20/01/2026]',-121802.8,-192894.7,-105257.8,-135397.7,-375000,-375000,-160754.6,-154328.9,0.05,-0.02,0.88,-4,0,-2,50,0
'[13:13:01.768 20/01/2026]',-124194.7,-189550.7,-102183.5,-134124.1,-375000,-375000,-158318.3,-152231.9,0.05,-0.02,0.88,-4,0,-2,50,0
'[13:13:01.772 20/01/2026]',-124957.2,-189730.9,-102388.6,-134307.1,-375000,-375000,-158285.8,-152286.3,0.05,-0.02,0.88,-4,0,-2,50,0
'[13:13:01.776 20/01/2026]',-123260.3,-192359,-104816.1,-135338.6,-375000,-375000,-160187.8,-153941.8,0.05,-0.02,0.88,-4,0,-2,50,0
'[13:13:01.780 20/01/2026]',-121657.7,-193301.1,-105641.6,-135614.4,-375000,-375000,-161032.4,-154587.8,0.05,-0.02,0.88,-4,0,-2,50,0
'[13:13:01.784 20/01/2026]',-123761.8,-189973.1,-102568.3,-134290.7,-375000,-375000,-158656.4,-152516.4,0.05,-0.02,0.88,-4,0,-2,50,0
'[13:13:01.788 20/01/2026]',-125031.6,-189480.5,-102149.6,-134187.8,-375000,-375000,-158115.7,-152135.3,0.05,-0.02,0.88,-4,0,-2,50,0
'[13:13:01.792 20/01/2026]',-123684.7,-191885.6,-104369,-135133.4,-375000,-375000,-159828.8,-153642.4,0.05,-0.02,0.88,-4,0,-2,50,0
'[13:13:01.796 20/01/2026]',-121683.1,-193548.2,-105871.6,-135676.3,-375000,-375000,-161171.9,-154724,0.05,-0.02,0.88,-4,0,-2,50,0
'[13:13:01.800 20/01/2026]',-123292.1,-190519.6,-103076.3,-134466.6,-375000,-375000,-159085.3,-152875.7,0.03,0.00,0.89,-4,0,-2,50,0
'[13:13:01.804 20/01/2026]',-124987.1,-189279,-101960.4,-134047.7,-375000,-375000,-157995,-152008.4,0.03,0.00,0.89,-4,0,-2,50,0
'[13:13:01.808 20/01/2026]',-124020,-191405.7,-103928.1,-134917.2,-375000,-375000,-159476.7,-153324.1,0.03,0.00,0.89,-4,0,-2,50,0
'[13:13:01.812 20/01/2026]',-121814.9,-193594.6,-105927.1,-135680.2,-375000,-375000,-161178.3,-154730.1,0.03,0.00,0.89,-4,0,-2,50,0
'[13:13:01.816 20/01/2026]',-122742.9,-191101.8,-103611.6,-134636.9,-375000,-375000,-159526.2,-153234.7,0.03,0.00,0.89,-4,0,-2,50,0
'[13:13:01.820 20/01/2026]',-124816.1,-189147.2,-101845.7,-133941.3,-375000,-375000,-157951.5,-151941.8,0.03,0.00,0.89,-4,0,-2,50,0
'[13:13:01.824 20/01/2026]',-124244.1,-190912.9,-103483.9,-134692.6,-375000,-375000,-159120,-153005.9,0.03,0.00,0.89,-4,0,-2,50,0
'[13:13:01.828 20/01/2026]',-122021,-193494,-105830.8,-135643,-375000,-375000,-161055.3,-154635.1,0.03,0.00,0.89,-4,0,-2,50,0
'[13:13:01.832 20/01/2026]',-122305.8,-191815.4,-104251.6,-134948.2,-375000,-375000,-160022.8,-153673.9,0.03,0.00,0.89,-4,0,-2,50,0
'[13:13:01.836 20/01/2026]',-124665.3,-189231.1,-101895.1,-133991.6,-375000,-375000,-158011.3,-151999.3,0.02,-0.02,0.88,-4,0,-2,50,0
'[13:13:01.840 20/01/2026]',-124508.2,-190530.2,-103112.1,-134571.1,-375000,-375000,-158820.8,-152768.6,0.02,-0.02,0.88,-4,0,-2,50,0
'[13:13:01.844 20/01/2026]',-122378.8,-193252,-105610.2,-135591.9,-375000,-375000,-160836.3,-154482.4,0.02,-0.02,0.88,-4,0,-2,50,0
'[13:13:01.848 20/01/2026]',-121921.1,-192467.6,-104851.3,-135208.6,-375000,-375000,-160456.6,-154065.5,0.02,-0.02,0.88,-4,0,-2,50,0
'[13:13:01.852 20/01/2026]',-124401,-189394.3,-102033.7,-134040.5,-375000,-375000,-158150.9,-152099.8,0.02,-0.02,0.88,-4,0,-2,50,0
'[13:13:01.856 20/01/2026]',-124740.7,-190163.4,-102768,-134440.9,-375000,-375000,-158564.9,-152537.3,0.02,-0.02,0.88,-4,0,-2,50,0
'[13:13:01.860 20/01/2026]',-122867.6,-192914.6,-105293.5,-135516.3,-375000,-375000,-160588.2,-154280.8,0.02,-0.02,0.88,-4,0,-2,50,0
'[13:13:01.864 20/01/2026]',-121779.7,-193021.3,-105356.3,-135466.1,-375000,-375000,-160846,-154410.9,0.02,-0.02,0.88,-4,0,-2,50,0
'[13:13:01.868 20/01/2026]',-124111.1,-189672.1,-102269.1,-134139.8,-375000,-375000,-158392,-152289,0.02,-0.02,0.88,-4,0,-2,50,0
'[13:13:01.872 20/01/2026]',-124917.2,-189823.6,-102446.5,-134279.5,-375000,-375000,-158332.1,-152315.9,0.03,-0.02,0.88,-4,0,-2,50,0
'[13:13:01.876 20/01/2026]',-123299.9,-192447.7,-104869.2,-135316.7,-375000,-375000,-160235.3,-153974.2,0.03,-0.02,0.88,-4,0,-2,50,0
'[13:13:01.880 20/01/2026]',-121705.6,-193415.9,-105736.2,-135617.7,-375000,-375000,-161111.6,-154653.1,0.03,-0.02,0.88,-4,0,-2,50,0
'[13:13:01.884 20/01/2026]',-123765,-190094.5,-102669,-134297.9,-375000,-375000,-158747.5,-152585.1,0.03,-0.02,0.88,-4,0,-2,50,0
'[13:13:01.888 20/01/2026]',-125015.4,-189570,-102211.1,-134179.9,-375000,-375000,-158177.1,-152174,0.03,-0.02,0.88,-4,0,-2,50,0
'[13:13:01.892 20/01/2026]',-123721.2,-191974.6,-104434,-135154.4,-375000,-375000,-159897.9,-153688.8,0.03,-0.02,0.88,-4,0,-2,50,0
'[13:13:01.896 20/01/2026]',-121761.8,-193660.2,-105950.8,-135739.7,-375000,-375000,-161259.7,-154799.6,0.03,-0.02,0.88,-4,0,-2,50,0
'[13:13:01.900 20/01/2026]',-123286.7,-190647.2,-103163.9,-134502.5,-375000,-375000,-159170.3,-152938.9,0.03,-0.02,0.88,-4,0,-2,50,0
'[13:13:01.904 20/01/2026]',-124954.9,-189390.2,-102040.3,-134104,-375000,-375000,-158082,-152085.3,0.03,-0.02,0.88,-4,0,-2,50,0
'[13:13:01.908 20/01/2026]',-123969.3,-191485.9,-103985.7,-134972.9,-375000,-375000,-159537.8,-153383.2,0.05,-0.02,0.88,-4,0,-2,50,0
'[13:13:01.912 20/01/2026]',-121773.7,-193712.3,-106024.3,-135771.7,-375000,-375000,-161259.8,-154812.3,0.05,-0.02,0.88,-4,0,-2,50,0
'[13:13:01.916 20/01/2026]',-122672.5,-191266.7,-103745.5,-134742.7,-375000,-375000,-159626,-153331.6,0.05,-0.02,0.88,-4,0,-2,50,0
'[13:13:01.920 20/01/2026]',-124784.5,-189308.5,-101965,-134068,-375000,-375000,-158052.4,-152049,0.05,-0.02,0.88,-4,0,-2,50,0
'[13:13:01.924 20/01/2026]',-124236,-191030.2,-103582.9,-134820,-375000,-375000,-159221.1,-153117.4,0.05,-0.02,0.88,-4,0,-2,50,0
'[13:13:01.928 20/01/2026]',-122026.6,-193582.3,-105927.9,-135761.4,-375000,-375000,-161146,-154743.2,0.05,-0.02,0.88,-4,0,-2,50,0
'[13:13:01.932 20/01/2026]',-122250.4,-191926.3,-104366.1,-135029,-375000,-375000,-160113,-153766,0.05,-0.02,0.88,-4,0,-2,50,0
'[13:13:01.936 20/01/2026]',-124612.6,-189339.3,-102004.1,-134075.3,-375000,-375000,-158114,-152090.5,0.05,-0.02,0.88,-4,0,-2,50,0
'[13:13:01.940 20/01/2026]',-124539.9,-190656.7,-103245.4,-134705.2,-375000,-375000,-158961.2,-152896.4,0.05,-0.02,0.88,-4,0,-2,50,0
'[13:13:01.944 20/01/2026]',-122456.8,-193380.8,-105743.5,-135741.9,-375000,-375000,-160987.8,-154624.8,0.05,-0.02,0.88,-4,0,-2,50,0
'[13:13:01.948 20/01/2026]',-121967.5,-192594,-104983.2,-135335.8,-375000,-375000,-160596.6,-154194.7,0.05,-0.02,0.88,-4,0,-2,50,0
'[13:13:01.952 20/01/2026]',-124379.5,-189503,-102149.3,-134134.1,-375000,-375000,-158275.1,-152207.4,0.05,-0.02,0.88,-4,0,-2,50,0
'[13:13:01.956 20/01/2026]',-124707.8,-190244,-102855.8,-134516.6,-375000,-375000,-158668.8,-152621.9,0.05,-0.02,0.88,-4,0,-2,50,0
'[13:13:01.960 20/01/2026]',-122830.6,-192977.8,-105380.4,-135578.5,-375000,-375000,-160680.5,-154360,0.05,-0.02,0.88,-4,0,-2,50,0
'[13:13:01.964 20/01/2026]',-121691.5,-193109.6,-105466.1,-135525.9,-375000,-375000,-160950.1,-154502.7,0.05,-0.02,0.88,-4,0,-2,50,0
'[13:13:01.968 20/01/2026]',-123992.6,-189766.6,-102398.2,-134206.5,-375000,-375000,-158508.9,-152394,0.05,-0.02,0.88,-4,0,-2,50,0
'[13:13:01.972 20/01/2026]',-124789.2,-189896.7,-102528.3,-134340.3,-375000,-375000,-158425.4,-152403.4,0.05,-0.02,0.88,-4,0,-2,50,0
'[13:13:01.976 20/01/2026]',-123220.1,-192526.8,-104959.1,-135401.1,-375000,-375000,-160338.7,-154072.9,0.05,-0.02,0.88,-4,0,-2,50,0
'[13:13:01.980 20/01/2026]',-121610.1,-193529.6,-105854.1,-135716.3,-375000,-375000,-161225.9,-154760.4,0.03,0.00,0.88,-4,0,-2,50,0
'[13:13:01.984 20/01/2026]',-123629.5,-190231.7,-102804.3,-134408,-375000,-375000,-158877,-152707.8,0.03,0.00,0.88,-4,0,-2,50,0
'[13:13:01.988 20/01/2026]',-124940.8,-189698.4,-102346.1,-134313.2,-375000,-375000,-158317.1,-152314.3,0.03,0.00,0.88,-4,0,-2,50,0
'[13:13:01.992 20/01/2026]',-123672.7,-192093.7,-104569.5,-135299.2,-375000,-375000,-160032.9,-153833.5,0.03,0.00,0.88,-4,0,-2,50,0
'[13:13:01.996 20/01/2026]',-121685.8,-193794,-106103.2,-135884.2,-375000,-375000,-161396.6,-154946.1,0.03,0.00,0.88,-4,0,-2,50,0
'[13:13:02.000 20/01/2026]',-123228.5,-190787.4,-103331.6,-134663.1,-375000,-375000,-159315.8,-153100.3,0.03,0.00,0.88,-4,0,-2,50,0
'[13:13:02.004 20/01/2026]',-124951.3,-189502,-102177.5,-134243.6,-375000,-375000,-158198.4,-152211.8,0.03,0.00,0.88,-4,0,-2,50,0
'[13:13:02.008 20/01/2026]',-124010.6,-191577.2,-104098.5,-135105.2,-375000,-375000,-159640.4,-153496.6,0.03,0.00,0.88,-4,0,-2,50,0
'[13:13:02.012 20/01/2026]',-121845.9,-193801.8,-106112.4,-135902.9,-375000,-375000,-161354.8,-154923.1,0.03,0.00,0.88,-4,0,-2,50,0
'[13:13:02.016 20/01/2026]',-122755.8,-191391.1,-103873.2,-134898.8,-375000,-375000,-159754.1,-153469.4,0.05,-0.02,0.88,-4,0,-2,50,0
'[13:13:02.020 20/01/2026]',-124832.3,-189395,-102063,-134173.3,-375000,-375000,-158136.8,-152134.8,0.05,-0.02,0.88,-4,0,-2,50,0
'[13:13:02.024 20/01/2026]',-124287.2,-191112.4,-103668.5,-134915.3,-375000,-375000,-159299.7,-153196.7,0.05,-0.02,0.88,-4,0,-2,50,0
'[13:13:02.028 20/01/2026]',-122120.5,-193706.6,-106040.3,-135905.1,-375000,-375000,-161270.2,-154870,0.05,-0.02,0.88,-4,0,-2,50,0
'[13:13:02.032 20/01/2026]',-122328,-192104.2,-104525.3,-135206,-375000,-375000,-160281.1,-153931.8,0.05,-0.02,0.88,-4,0,-2,50,0
'[13:13:02.036 20/01/2026]',-124698.9,-189480,-102127.8,-134228.8,-375000,-375000,-158251.5,-152220.8,0.05,-0.02,0.88,-4,0,-2,50,0
'[13:13:02.040 20/01/2026]',-124595.1,-190722.7,-103308.9,-134797.2,-375000,-375000,-159036.8,-152964.1,0.05,-0.02,0.88,-4,0,-2,50,0
'[13:13:02.044 20/01/2026]',-122520,-193451.3,-105818.9,-135829,-375000,-375000,-161060.7,-154696.7,0.05,-0.02,0.88,-4,0,-2,50,0
'[13:13:02.048 20/01/2026]',-122004.3,-192724.7,-105109.5,-135442.6,-375000,-375000,-160711.9,-154304.8,0.05,-0.02,0.88,-4,0,-2,50,0
'[13:13:02.052 20/01/2026]',-124406.3,-189621.6,-102268.6,-134236.8,-375000,-375000,-158384,-152312.3,0.03,-0.02,0.89,-4,0,-2,50,0
'[13:13:02.056 20/01/2026]',-124811.1,-190375.9,-102994.9,-134667.4,-375000,-375000,-158801.2,-152761.7,0.03,-0.02,0.89,-4,0,-2,50,0
'[13:13:02.060 20/01/2026]',-122944.3,-193108.1,-105512.1,-135729.9,-375000,-375000,-160809.9,-154495.8,0.03,-0.02,0.89,-4,0,-2,50,0
'[13:13:02.064 20/01/2026]',-121795.8,-193289.1,-105639.5,-135695.7,-375000,-375000,-161117.3,-154669.2,0.03,-0.02,0.89,-4,0,-2,50,0
'[13:13:02.068 20/01/2026]',-124118,-189959.1,-102568.3,-134395.7,-375000,-375000,-158691.8,-152570.7,0.03,-0.02,0.89,-4,0,-2,50,0
'[13:13:02.072 20/01/2026]',-124942.2,-190059.6,-102694,-134533.7,-375000,-375000,-158596.8,-152573.5,0.03,-0.02,0.89,-4,0,-2,50,0
'[13:13:02.076 20/01/2026]',-123347.6,-192652.2,-105087.1,-135557.4,-375000,-375000,-160472.1,-154215.2,0.03,-0.02,0.89,-4,0,-2,50,0
'[13:13:02.080 20/01/2026]',-121710.6,-193684.7,-105993.6,-135865.1,-375000,-375000,-161376.1,-154916,0.03,-0.02,0.89,-4,0,-2,50,0
'[13:13:02.084 20/01/2026]',-123696.4,-190383.9,-102961.6,-134539.7,-375000,-375000,-159024.2,-152853.9,0.03,-0.02,0.89,-4,0,-2,50,0
'[13:13:02.088 20/01/2026]',-124978.9,-189791.6,-102450.3,-134398.8,-375000,-375000,-158405.3,-152403,0.03,-0.02,0.89,-4,0,-2,50,0
'[13:13:02.092 20/01/2026]',-123734.8,-192182.1,-104658.9,-135399.8,-375000,-375000,-160126,-153934.4,0.03,-0.02,0.89,-4,0,-2,50,0
'[13:13:02.096 20/01/2026]',-121742.9,-193913.5,-106230.7,-135991.6,-375000,-375000,-161512.7,-155065.8,0.03,-0.02,0.89,-4,0,-2,50,0
'[13:13:02.100 20/01/2026]',-123225.2,-190938.3,-103461.2,-134763.5,-375000,-375000,-159445.9,-153221.2,0.03,-0.02,0.89,-4,0,-2,50,0
'[13:13:02.104 20/01/2026]',-124964.9,-189627.8,-102275.5,-134328.8,-375000,-375000,-158307.9,-152312.7,0.03,-0.02,0.89,-4,0,-2,50,0
'[13:13:02.108 20/01/2026]',-124068.2,-191711.6,-104225.3,-135217.6,-375000,-375000,-159771.6,-153630.1,0.03,-0.02,0.89,-4,0,-2,50,0
'[13:13:02.112 20/01/2026]',-121907,-193967.9,-106293,-136028.9,-375000,-375000,-161513.3,-155087.2,0.03,-0.02,0.89,-4,0,-2,50,0
'[13:13:02.116 20/01/2026]',-122785.9,-191584.3,-104062.5,-135026.8,-375000,-375000,-159921.8,-153636.5,0.03,-0.02,0.89,-4,0,-2,50,0
'[13:13:02.120 20/01/2026]',-124887.3,-189569.6,-102228.2,-134310.6,-375000,-375000,-158299,-152300.4,0.03,-0.02,0.89,-4,0,-2,50,0
'[13:13:02.124 20/01/2026]',-124374.2,-191260.5,-103809.9,-135049.3,-375000,-375000,-159439.6,-153343.8,0.05,-0.02,0.89,-4,0,-2,50,0
'[13:13:02.128 20/01/2026]',-122221.4,-193858.2,-106188.8,-136029.6,-375000,-375000,-161408.7,-155012.7,0.05,-0.02,0.89,-4,0,-2,50,0
'[13:13:02.132 20/01/2026]',-122383.8,-192257.8,-104686.9,-135319,-375000,-375000,-160417.4,-154067.6,0.05,-0.02,0.89,-4,0,-2,50,0
'[13:13:02.136 20/01/2026]',-124702.3,-189608.2,-102260,-134311,-375000,-375000,-158362.5,-152331.3,0.05,-0.02,0.89,-4,0,-2,50,0
'[13:13:02.140 20/01/2026]',-124626.4,-190855.7,-103436.1,-134890.1,-375000,-375000,-159150.6,-153081,0.05,-0.02,0.89,-4,0,-2,50,0
'[13:13:02.144 20/01/2026]',-122566.9,-193583.2,-105939,-135927.8,-375000,-375000,-161185.4,-154822.8,0.05,-0.02,0.89,-4,0,-2,50,0
'[13:13:02.148 20/01/2026]',-122043.3,-192857.1,-105242.4,-135546.9,-375000,-375000,-160847.9,-154437.3,0.05,-0.02,0.89,-4,0,-2,50,0
'[13:13:02.152 20/01/2026]',-124445.3,-189720.8,-102385.9,-134343.4,-375000,-375000,-158522.7,-152444.1,0.05,-0.02,0.89,-4,0,-2,50,0
'[13:13:02.156 20/01/2026]',-124824.3,-190436.5,-103082.3,-134747,-375000,-375000,-158913.7,-152868.9,0.05,-0.02,0.89,-4,0,-2,50,0
'[13:13:02.160 20/01/2026]',-122990.4,-193206.9,-105615.8,-135830.6,-375000,-375000,-160922.5,-154615.5,0.03,0.00,0.88,-4,0,-2,50,0
'[13:13:02.164 20/01/2026]',-121861.1,-193435.5,-105775.4,-135832.8,-375000,-375000,-161257.1,-154822.3,0.03,0.00,0.88,-4,0,-2,50,0
'[13:13:02.168 20/01/2026]',-124121.1,-190081.5,-102686.8,-134493.8,-375000,-375000,-158806.8,-152690.8,0.03,0.00,0.88,-4,0,-2,50,0
'[13:13:02.172 20/01/2026]',-124957.3,-190138.8,-102775.4,-134611.9,-375000,-375000,-158678.6,-152663.2,0.03,0.00,0.88,-4,0,-2,50,0
'[13:13:02.176 20/01/2026]',-123376.4,-192721.8,-105167.6,-135639.4,-375000,-375000,-160558.1,-154307.3,0.03,0.00,0.88,-4,0,-2,50,0
'[13:13:02.180 20/01/2026]',-121732.7,-193794.7,-106116.4,-135969.1,-375000,-375000,-161490.7,-155034.7,0.03,0.00,0.88,-4,0,-2,50,0
'[13:13:02.184 20/01/2026]',-123696,-190501.4,-103066.4,-134640.3,-375000,-375000,-159137.3,-152966.8,0.03,0.00,0.88,-4,0,-2,50,0
'[13:13:02.188 20/01/2026]',-125006.2,-189888.6,-102543.2,-134506.9,-375000,-375000,-158521.7,-152522.5,0.03,0.00,0.88,-4,0,-2,50,0
'[13:13:02.192 20/01/2026]',-123778.7,-192262.4,-104748.7,-135489.4,-375000,-375000,-160219,-154029.2,0.03,0.00,0.88,-4,0,-2,50,0
'[13:13:02.196 20/01/2026]',-121788.9,-194027.3,-106341.4,-136093.1,-375000,-375000,-161635.6,-155186,0.02,0.00,0.88,-4,0,-2,50,0
'[13:13:02.200 20/01/2026]',-123239.2,-191064.4,-103599.2,-134869.7,-375000,-375000,-159585.3,-153358.1,0.02,0.00,0.88,-4,0,-2,50,0
'[13:13:02.204 20/01/2026]',-124983.2,-189730.2,-102398.3,-134429.8,-375000,-375000,-158436.5,-152443.4,0.02,0.00,0.88,-4,0,-2,50,0
'[13:13:02.208 20/01/2026]',-124094.8,-191782.2,-104293.5,-135288.3,-375000,-375000,-159868.1,-153727.9,0.02,0.00,0.88,-4,0,-2,50,0
'[13:13:02.212 20/01/2026]',-121947,-194045.9,-106355,-136093.3,-375000,-375000,-161606.9,-155178,0.02,0.00,0.88,-4,0,-2,50,0
'[13:13:02.216 20/01/2026]',-122763.1,-191679.3,-104152.1,-135079.7,-375000,-375000,-160028.9,-153736.4,0.02,0.00,0.88,-4,0,-2,50,0
'[13:13:02.220 20/01/2026]',-124856.9,-189625.9,-102289.3,-134345.4,-375000,-375000,-158384.1,-152378.5,0.02,0.00,0.88,-4,0,-2,50,0
'[13:13:02.224 20/01/2026]',-124373.3,-191325.5,-103886.4,-135102.5,-375000,-375000,-159536.5,-153440.3,0.02,0.00,0.88,-4,0,-2,50,0
'[13:13:02.228 20/01/2026]',-122239.9,-193932.2,-106270,-136084.6,-375000,-375000,-161509.8,-155116.6,0.02,0.00,0.88,-4,0,-2,50,0
'[13:13:02.232 20/01/2026]',-122373.1,-192353.7,-104786.9,-135368.4,-375000,-375000,-160525.8,-154175.3,0.03,-0.02,0.88,-4,0,-2,50,0
'[13:13:02.236 20/01/2026]',-124698.2,-189682.4,-102353.6,-134359.8,-375000,-375000,-158462.8,-152431.3,0.03,-0.02,0.88,-4,0,-2,50,0
'[13:13:02.240 20/01/2026]',-124657.4,-190911.5,-103501,-134940.7,-375000,-375000,-159244.8,-153181.5,0.03,-0.02,0.88,-4,0,-2,50,0
'[13:13:02.244 20/01/2026]',-122642.5,-193650.6,-106001.1,-135993.5,-375000,-375000,-161281.9,-154932.5,0.03,-0.02,0.88,-4,0,-2,50,0
'[13:13:02.248 20/01/2026]',-122095.5,-192992.6,-105367.7,-135652.2,-375000,-375000,-160992.2,-154591,0.03,-0.02,0.88,-4,0,-2,50,0
'[13:13:02.252 20/01/2026]',-124463.2,-189859.1,-102500.1,-134433.5,-375000,-375000,-158640.9,-152573,0.03,-0.02,0.88,-4,0,-2,50,0
'[13:13:02.256 20/01/2026]',-124850.9,-190542.2,-103161.4,-134806.7,-375000,-375000,-158993.2,-152955.3,0.03,-0.02,0.88,-4,0,-2,50,0
'[13:13:02.260 20/01/2026]',-123029.5,-193268.6,-105668.3,-135882.3,-375000,-375000,-160998,-154695.4,0.03,-0.02,0.88,-4,0,-2,50,0
'[13:13:02.264 20/01/2026]',-121887.7,-193525.3,-105873.1,-135907.4,-375000,-375000,-161364.6,-154929.2,0.03,-0.02,0.88,-4,0,-2,50,0
'[13:13:02.268 20/01/2026]',-124155,-190180.7,-102802.4,-134597.7,-375000,-375000,-158927,-152818.1,0.03,-0.02,0.88,-4,0,-2,50,0
'[13:13:02.272 20/01/2026]',-124989.7,-190247.9,-102890.1,-134724.7,-375000,-375000,-158806,-152796.5,0.03,-0.02,0.88,-4,0,-2,50,0
'[13:13:02.276 20/01/2026]',-123464.4,-192849.2,-105286.9,-135769,-375000,-375000,-160689.3,-154450.1,0.03,-0.02,0.88,-4,0,-2,50,0
'[13:13:02.280 20/01/2026]',-121813.5,-193932,-106250.6,-136097,-375000,-375000,-161629.3,-155182.2,0.03,-0.02,0.88,-4,0,-2,50,0
'[13:13:02.284 20/01/2026]',-123728,-190644.5,-103213.6,-134771.4,-375000,-375000,-159291.1,-153124.7,0.03,-0.02,0.88,-4,0,-2,50,0
'[13:13:02.288 20/01/2026]',-125050.5,-190011.6,-102653.7,-134618.1,-375000,-375000,-158652,-152659.1,0.03,-0.02,0.88,-4,0,-2,50,0
'[13:13:02.292 20/01/2026]',-123815.5,-192357.8,-104823.9,-135573.2,-375000,-375000,-160323.9,-154139.6,0.03,-0.02,0.88,-4,0,-2,50,0
'[13:13:02.296 20/01/2026]',-121850,-194132.7,-106439.5,-136184.4,-375000,-375000,-161740.5,-155293.9,0.03,-0.02,0.88,-4,0,-2,50,0
'[13:13:02.300 20/01/2026]',-123290.4,-191203.8,-103730.9,-134979.1,-375000,-375000,-159718.8,-153486.5,0.03,-0.02,0.88,-4,0,-2,50,0
'[13:13:02.304 20/01/2026]',-125013.2,-189838.4,-102497.5,-134528.5,-375000,-375000,-158546.8,-152553.2,0.03,-0.02,0.89,-4,0,-2,50,0
'[13:13:02.308 20/01/2026]',-124153.5,-191893.6,-104430.1,-135412.6,-375000,-375000,-159991.8,-153860.8,0.03,-0.02,0.89,-4,0,-2,50,0
'[13:13:02.312 20/01/2026]',-122007.8,-194175.9,-106505.7,-136233.3,-375000,-375000,-161750.7,-155330.4,0.03,-0.02,0.89,-4,0,-2,50,0
'[13:13:02.316 20/01/2026]',-122803.4,-191845.6,-104316.3,-135237.5,-375000,-375000,-160200.1,-153909.3,0.03,-0.02,0.89,-4,0,-2,50,0
'[13:13:02.320 20/01/2026]',-124918.1,-189764.7,-102417.6,-134482.9,-375000,-375000,-158531.8,-152525.3,0.03,-0.02,0.89,-4,0,-2,50,0
'[13:13:02.324 20/01/2026]',-124451.7,-191408.3,-103954,-135204.8,-375000,-375000,-159635.7,-153540,0.03,-0.02,0.89,-4,0,-2,50,0
'[13:13:02.328 20/01/2026]',-122341.2,-194012.8,-106364.1,-136200.3,-375000,-375000,-161603.7,-155222.4,0.03,-0.02,0.89,-4,0,-2,50,0
'[13:13:02.332 20/01/2026]',-122450.2,-192492.3,-104930.9,-135514.9,-375000,-375000,-160667.8,-154325.8,0.03,-0.02,0.89,-4,0,-2,50,0
'[13:13:02.336 20/01/2026]',-124769.2,-189800.3,-102473,-134491.4,-375000,-375000,-158589.8,-152566.8,0.03,-0.02,0.89,-4,0,-2,50,0
'[13:13:02.340 20/01/2026]',-124728.1,-191007.5,-103610.9,-135065.4,-375000,-375000,-159349.9,-153298.9,0.03,0.00,0.88,-4,0,-2,50,0
'[13:13:02.344 20/01/2026]',-122706.2,-193733.5,-106114.8,-136113.1,-375000,-375000,-161382.8,-155045.1,0.03,0.00,0.88,-4,0,-2,50,0
'[13:13:02.348 20/01/2026]',-122130.4,-193127.9,-105508.2,-135786.2,-375000,-375000,-161123.9,-154732.3,0.03,0.00,0.88,-4,0,-2,50,0
'[13:13:02.352 20/01/2026]',-124503.1,-189993.7,-102636.1,-134564.9,-375000,-375000,-158777,-152717,0.03,0.00,0.88,-4,0,-2,50,0
'[13:13:02.356 20/01/2026]',-124901.1,-190653.4,-103271,-134921.3,-375000,-375000,-159105.5,-153082.1,0.03,0.00,0.88,-4,0,-2,50,0
'[13:13:02.360 20/01/2026]',-123103.7,-193365.3,-105764.8,-135979.5,-375000,-375000,-161097,-154808.6,0.03,0.00,0.88,-4,0,-2,50,0
'[13:13:02.364 20/01/2026]',-121952.5,-193666.1,-106006.2,-136017.9,-375000,-375000,-161494.3,-155068,0.03,0.00,0.88,-4,0,-2,50,0
'[13:13:02.368 20/01/2026]',-124218.6,-190330.7,-102936.3,-134711.7,-375000,-375000,-159067.1,-152960.5,0.03,0.00,0.88,-4,0,-2,50,0
'[13:13:02.372 20/01/2026]',-125080.6,-190345.4,-102989.5,-134827.3,-375000,-375000,-158920.5,-152915.1,0.03,0.00,0.88,-4,0,-2,50,0
'[13:13:02.376 20/01/2026]',-123536.9,-192906.7,-105365.5,-135855.1,-375000,-375000,-160787.7,-154551.2,0.03,-0.02,0.88,-4,0,-2,50,0
'[13:13:02.380 20/01/2026]',-121896.7,-194055.5,-106366.3,-136219.4,-375000,-375000,-161756.9,-155315.1,0.03,-0.02,0.88,-4,0,-2,50,0
'[13:13:02.384 20/01/2026]',-123827.7,-190795.3,-103355.2,-134909.5,-375000,-375000,-159425.5,-153263.8,0.03,-0.02,0.88,-4,0,-2,50,0
'[13:13:02.388 20/01/2026]',-125160.4,-190114.8,-102782.1,-134745.2,-375000,-375000,-158760,-152767.6,0.03,-0.02,0.88,-4,0,-2,50,0
'[13:13:02.392 20/01/2026]',-123968,-192447.4,-104945.4,-135721.4,-375000,-375000,-160434.2,-154256.7,0.03,-0.02,0.88,-4,0,-2,50,0
'[13:13:02.396 20/01/2026]',-121989,-194249.9,-106583.7,-136353.7,-375000,-375000,-161875.2,-155442.2,0.03,-0.02,0.88,-4,0,-2,50,0
'[13:13:02.400 20/01/2026]',-123384.2,-191330.3,-103883.5,-135149.5,-375000,-375000,-159866.7,-153645.7,0.03,-0.02,0.88,-4,0,-2,50,0
'[13:13:02.404 20/01/2026]',-125151.5,-189946.8,-102637.1,-134685,-375000,-375000,-158682.9,-152694.5,0.03,-0.02,0.88,-4,0,-2,50,0
'[13:13:02.408 20/01/2026]',-124329.8,-191985.4,-104535.1,-135561.7,-375000,-375000,-160109.4,-153983.4,0.03,-0.02,0.88,-4,0,-2,50,0
'[13:13:02.412 20/01/2026]',-122183.8,-194275.9,-106621.9,-136386.7,-375000,-375000,-161874.9,-155463.2,0.03,-0.02,0.88,-4,0,-2,50,0
'[13:13:02.416 20/01/2026]',-122937,-191977.8,-104478,-135406.2,-375000,-375000,-160354.3,-154069,0.03,-0.02,0.88,-4,0,-2,50,0
'[13:13:02.420 20/01/2026]',-125033.4,-189873.6,-102572.6,-134633.8,-375000,-375000,-158664.6,-152661.3,0.03,-0.02,0.88,-4,0,-2,50,0
'[13:13:02.424 20/01/2026]',-124591.3,-191526,-104123.4,-135374.2,-375000,-375000,-159780.7,-153689.1,0.03,-0.02,0.88,-4,0,-2,50,0
'[13:13:02.428 20/01/2026]',-122483.6,-194135.3,-106510.6,-136363.3,-375000,-375000,-161751.2,-155365.9,0.03,-0.02,0.88,-4,0,-2,50,0
'[13:13:02.432 20/01/2026]',-122563.1,-192633.5,-105088,-135678.8,-375000,-375000,-160823.9,-154476.4,0.03,-0.02,0.88,-4,0,-2,50,0
'[13:13:02.436 20/01/2026]',-124881.6,-189932.9,-102617,-134650.2,-375000,-375000,-158740.8,-152710.5,0.03,-0.02,0.88,-4,0,-2,50,0
'[13:13:02.440 20/01/2026]',-124869.1,-191109.1,-103730.8,-135212.2,-375000,-375000,-159478.7,-153424.9,0.03,-0.02,0.88,-4,0,-2,50,0
'[13:13:02.444 20/01/2026]',-122863.5,-193835.9,-106235.6,-136252.2,-375000,-375000,-161507.3,-155170.6,0.03,-0.02,0.88,-4,0,-2,50,0
'[13:13:02.448 20/01/2026]',-122238.8,-193242.9,-105653.4,-135905.9,-375000,-375000,-161251.6,-154855.2,0.03,-0.02,0.88,-4,0,-2,50,0
'[13:13:02.452 20/01/2026]',-124586.3,-190089.1,-102766.7,-134657.3,-375000,-375000,-158887.2,-152817.1,0.03,-0.02,0.88,-4,0,-2,50,0
'[13:13:02.456 20/01/2026]',-125012.3,-190715.1,-103368.9,-135001.9,-375000,-375000,-159192.5,-153166.2,0.03,-0.02,0.88,-4,0,-2,50,0
'[13:13:02.460 20/01/2026]',-123244.9,-193440.9,-105872.9,-136091.3,-375000,-375000,-161202,-154916,0.03,-0.02,0.88,-4,0,-2,50,0
'[13:13:02.464 20/01/2026]',-122048.3,-193762.1,-106135.1,-136131.1,-375000,-375000,-161613.1,-155180.5,0.03,-0.02,0.88,-4,0,-2,50,0
'[13:13:02.468 20/01/2026]',-124255.5,-190399.6,-103045.3,-134786.5,-375000,-375000,-159157.9,-153041.6,0.03,-0.02,0.88,-4,0,-2,50,0
'[13:13:02.472 20/01/2026]',-125137.4,-190404.3,-103082.6,-134886.3,-375000,-375000,-158988.7,-152977.9,0.03,-0.02,0.88,-4,0,-2,50,0
'[13:13:02.476 20/01/2026]',-123637.7,-192979.1,-105462.5,-135934.8,-375000,-375000,-160858.8,-154625.1,0.03,-0.02,0.88,-4,0,-2,50,0
'[13:13:02.480 20/01/2026]',-121954.9,-194146,-106493.5,-136304.3,-375000,-375000,-161855.4,-155419,0.03,-0.02,0.88,-4,0,-2,50,0
'[13:13:02.484 20/01/2026]',-123790.3,-190865.4,-103459.1,-134959.1,-375000,-375000,-159517.4,-153358,0.03,-0.02,0.88,-4,0,-2,50,0
'[13:13:02.488 20/01/2026]',-125119.2,-190161.5,-102845.2,-134774.1,-375000,-375000,-158826.6,-152837.4,0.03,-0.02,0.88,-4,0,-2,50,0
'[13:13:02.492 20/01/2026]',-123972.3,-192505,-105023.1,-135760,-375000,-375000,-160502.4,-154324.5,0.03,-0.02,0.88,-4,0,-2,50,0
'[13:13:02.496 20/01/2026]',-122006,-194346.1,-106698.1,-136422.5,-375000,-375000,-161976.4,-155536,0.03,-0.02,0.88,-4,0,-2,50,0
'[13:13:02.500 20/01/2026]',-123415.5,-191469.6,-104030.3,-135258.6,-375000,-375000,-159997.5,-153770.4,0.03,-0.02,0.88,-4,0,-2,50,0
'[13:13:02.504 20/01/2026]',-125204.9,-190057.6,-102755,-134806.6,-375000,-375000,-158799.7,-152812.3,0.03,-0.02,0.88,-4,0,-2,50,0
'[13:13:02.508 20/01/2026]',-124372.6,-192042.4,-104603.1,-135652.2,-375000,-375000,-160182.1,-154058.4,0.03,-0.02,0.88,-4,0,-2,50,0
'[13:13:02.512 20/01/2026]',-122246.7,-194341.8,-106698.5,-136493.8,-375000,-375000,-161956.7,-155545.9,0.03,-0.02,0.88,-4,0,-2,50,0
'[13:13:02.516 20/01/2026]',-123009.6,-192086.2,-104591.5,-135548.7,-375000,-375000,-160471.3,-154189,0.03,-0.02,0.88,-4,0,-2,50,0
'[13:13:02.520 20/01/2026]',-125105,-189963.8,-102661.9,-134765.3,-375000,-375000,-158764.1,-152764.8,0.03,0.00,0.89,-4,0,-2,50,0
'[13:13:02.524 20/01/2026]',-124686.9,-191587.6,-104183,-135479,-375000,-375000,-159854.1,-153769.6,0.03,0.00,0.89,-4,0,-2,50,0
'[13:13:02.528 20/01/2026]',-122592.3,-194204.2,-106580.1,-136454.2,-375000,-375000,-161830.2,-155451.3,0.03,0.00,0.89,-4,0,-2,50,0
'[13:13:02.532 20/01/2026]',-122657.1,-192765.8,-105220.7,-135801.5,-375000,-375000,-160955.2,-154606.7,0.03,0.00,0.89,-4,0,-2,50,0
'[13:13:02.536 20/01/2026]',-124962.8,-190042.2,-102733.1,-134750.4,-375000,-375000,-158852.6,-152824.7,0.03,0.00,0.89,-4,0,-2,50,0
'[13:13:02.540 20/01/2026]',-124949.5,-191198.5,-103820.5,-135279.3,-375000,-375000,-159568.7,-153509.5,0.03,0.00,0.89,-4,0,-2,50,0
'[13:13:02.544 20/01/2026]',-122965.2,-193932.3,-106331.6,-136327.5,-375000,-375000,-161609.1,-155261.9,0.03,0.00,0.89,-4,0,-2,50,0
'[13:13:02.548 20/01/2026]',-122330.3,-193393,-105793.4,-136012.5,-375000,-375000,-161395.1,-154986.9,0.03,0.00,0.89,-4,0,-2,50,0
'[13:13:02.552 20/01/2026]',-124652.1,-190223.2,-102877.5,-134753.9,-375000,-375000,-159017.7,-152940.5,0.03,0.00,0.89,-4,0,-2,50,0
'[13:13:02.556 20/01/2026]',-125060.8,-190823.4,-103459.6,-135071.5,-375000,-375000,-159298.5,-153261.6,0.03,-0.02,0.88,-4,0,-2,50,0
'[13:13:02.560 20/01/2026]',-123253.6,-193509.2,-105937.7,-136115.2,-375000,-375000,-161280.6,-154985.1,0.03,-0.02,0.88,-4,0,-2,50,0
'[13:13:02.564 20/01/2026]',-121991.2,-193853.7,-106223.8,-136150.2,-375000,-375000,-161717.5,-155273,0.03,-0.02,0.88,-4,0,-2,50,0
'[13:13:02.568 20/01/2026]',-124157.5,-190512,-103151.4,-134808.4,-375000,-375000,-159270.4,-153138.5,0.03,-0.02,0.88,-4,0,-2,50,0
'[13:13:02.572 20/01/2026]',-125064.1,-190487.1,-103152,-134900.5,-375000,-375000,-159064.1,-153043,0.03,-0.02,0.88,-4,0,-2,50,0
'[13:13:02.576 20/01/2026]',-123582.8,-193041.6,-105518.1,-135937,-375000,-375000,-160918.1,-154673.3,0.03,-0.02,0.88,-4,0,-2,50,0
'[13:13:02.580 20/01/2026]',-121889.3,-194220.2,-106577,-136315.1,-375000,-375000,-161928.9,-155471.3,0.03,-0.02,0.88,-4,0,-2,50,0
'[13:13:02.584 20/01/2026]',-123737.4,-190947,-103552.1,-134984.7,-375000,-375000,-159601.6,-153411.6,0.03,-0.02,0.88,-4,0,-2,50,0
'[13:13:02.588 20/01/2026]',-125099.9,-190208.2,-102901.8,-134787.8,-375000,-375000,-158879.6,-152865.3,0.03,-0.02,0.88,-4,0,-2,50,0
'[13:13:02.592 20/01/2026]',-123964.8,-192515.6,-105042.2,-135750.4,-375000,-375000,-160526.5,-154330.6,0.03,0.00,0.88,-4,0,-2,50,0
'[13:13:02.596 20/01/2026]',-122007.6,-194361.7,-106715.8,-136405.5,-375000,-375000,-162001.2,-155549.6,0.03,0.00,0.88,-4,0,-2,50,0
'[13:13:02.600 20/01/2026]',-123345,-191488.5,-104050,-135210.7,-375000,-375000,-160018.7,-153772.8,0.03,0.00,0.88,-4,0,-2,50,0
'[13:13:02.604 20/01/2026]',-125130.8,-190042.8,-102739.4,-134727.9,-375000,-375000,-158788.2,-152783.2,0.03,0.00,0.88,-4,0,-2,50,0
'[13:13:02.608 20/01/2026]',-124335,-192028,-104586.1,-135569.9,-375000,-375000,-160168,-154026,0.03,0.00,0.88,-4,0,-2,50,0
'[13:13:02.612 20/01/2026]',-122220.5,-194360.5,-106713.8,-136422.9,-375000,-375000,-161958.8,-155534.8,0.03,0.00,0.88,-4,0,-2,50,0
'[13:13:02.616 20/01/2026]',-122884.6,-192118.3,-104616.3,-135456,-375000,-375000,-160473,-154165.8,0.03,0.00,0.88,-4,0,-2,50,0
'[13:13:02.620 20/01/2026]',-124975.6,-189938.5,-102634.2,-134648.1,-375000,-375000,-158733.2,-152709.3,0.03,0.00,0.88,-4,0,-2,50,0
'[13:13:02.624 20/01/2026]',-124574.4,-191541.5,-104138.6,-135370.4,-375000,-375000,-159811.3,-153709.3,0.03,0.00,0.88,-4,0,-2,50,0
'[13:13:02.628 20/01/2026]',-122472,-194154.4,-106526.5,-136354.9,-375000,-375000,-161784.9,-155394.6,0.03,-0.02,0.89,-4,0,-2,50,0
'[13:13:02.632 20/01/2026]',-122488.4,-192737.8,-105199.9,-135705.3,-375000,-375000,-160927,-154563.7,0.03,-0.02,0.89,-4,0,-2,50,0
'[13:13:02.636 20/01/2026]',-124777.7,-189977.1,-102679.8,-134651.5,-375000,-375000,-158802.5,-152763.6,0.03,-0.02,0.89,-4,0,-2,50,0
'[13:13:02.640 20/01/2026]',-124781.6,-191108.4,-103739.2,-135186,-375000,-375000,-159497.5,-153438.5,0.03,-0.02,0.89,-4,0,-2,50,0
'[13:13:02.644 20/01/2026]',-122816.9,-193838.9,-106250.5,-136248.5,-375000,-375000,-161533.2,-155197,0.03,-0.02,0.89,-4,0,-2,50,0
'[13:13:02.648 20/01/2026]',-122167.9,-193324.5,-105741.1,-135954.7,-375000,-375000,-161336.8,-154936.2,0.03,-0.02,0.89,-4,0,-2,50,0
'[13:13:02.652 20/01/2026]',-124488.7,-190145.4,-102823.3,-134696.2,-375000,-375000,-158951.3,-152878.2,0.03,-0.02,0.89,-4,0,-2,50,0
'[13:13:02.656 20/01/2026]',-124938.5,-190712.4,-103376.3,-135012.4,-375000,-375000,-159208.5,-153180.2,0.03,-0.02,0.89,-4,0,-2,50,0
'[13:13:02.660 20/01/2026]',-123208.2,-193404.1,-105861.9,-136078.5,-375000,-375000,-161186.1,-154904.5,0.03,-0.02,0.89,-4,0,-2,50,0
'[13:13:02.664 20/01/2026]',-122000,-193804.9,-106186.7,-136150.6,-375000,-375000,-161651.1,-155228.6,0.03,0.00,0.88,-4,0,-2,50,0
'[13:13:02.668 20/01/2026]',-124176.9,-190450.8,-103102.1,-134810.3,-375000,-375000,-159206.1,-153091,0.03,0.00,0.88,-4,0,-2,50,0
'[13:13:02.672 20/01/2026]',-125088,-190397.1,-103083.8,-134898.4,-375000,-375000,-158997.4,-152994,0.03,0.00,0.88,-4,0,-2,50,0
'[13:13:02.676 20/01/2026]',-123609.9,-192936.1,-105424.8,-135914.7,-375000,-375000,-160831.6,-154603,0.03,0.00,0.88,-4,0,-2,50,0
'[13:13:02.680 20/01/2026]',-121921.8,-194145.2,-106508.9,-136310,-375000,-375000,-161863.8,-155423.9,0.03,0.00,0.88,-4,0,-2,50,0
'[13:13:02.684 20/01/2026]',-123722.5,-190889.9,-103500.6,-134983.2,-375000,-375000,-159553.4,-153381.9,0.03,0.00,0.88,-4,0,-2,50,0
'[13:13:02.688 20/01/2026]',-125089.3,-190137.2,-102837.9,-134786.4,-375000,-375000,-158826.9,-152835,0.03,0.00,0.88,-4,0,-2,50,0
'[13:13:02.692 20/01/2026]',-123954.1,-192439,-104973.5,-135741.3,-375000,-375000,-160464.6,-154294.1,0.03,0.00,0.88,-4,0,-2,50,0
'[13:13:02.696 20/01/2026]',-121962.8,-194306.9,-106666.3,-136397.7,-375000,-375000,-161948,-155520.7,0.03,0.00,0.88,-4,0,-2,50,0
'[13:13:02.700 20/01/2026]',-123264.9,-191465.4,-104023.7,-135219.9,-375000,-375000,-159989.4,-153762.6,0.05,0.00,0.88,-4,0,-2,50,0
'[13:13:02.704 20/01/2026]',-125033.5,-189975.6,-102686.3,-134698.6,-375000,-375000,-158722.1,-152731,0.05,0.00,0.88,-4,0,-2,50,0
'[13:13:02.708 20/01/2026]',-124242.1,-191947.6,-104522,-135530.3,-375000,-375000,-160091.5,-153967.2,0.05,0.00,0.88,-4,0,-2,50,0
'[13:13:02.712 20/01/2026]',-122134.2,-194279.4,-106644.1,-136376.2,-375000,-375000,-161881.7,-155468.2,0.05,0.00,0.88,-4,0,-2,50,0
'[13:13:02.716 20/01/2026]',-122810.1,-192063.1,-104562.7,-135426.9,-375000,-375000,-160420.3,-154122.2,0.05,0.00,0.88,-4,0,-2,50,0
'[13:13:02.720 20/01/2026]',-124926.8,-189871.6,-102575,-134622.2,-375000,-375000,-158672.3,-152664.3,0.05,0.00,0.88,-4,0,-2,50,0
'[13:13:02.724 20/01/2026]',-124540.9,-191451.7,-104061.7,-135331,-375000,-375000,-159733.6,-153650.4,0.05,0.00,0.88,-4,0,-2,50,0
'[13:13:02.728 20/01/2026]',-122451.5,-194070.4,-106453.6,-136327.4,-375000,-375000,-161713.6,-155343,0.05,0.00,0.88,-4,0,-2,50,0
'[13:13:02.732 20/01/2026]',-122417,-192678.6,-105140.5,-135677.9,-375000,-375000,-160864.9,-154512.8,0.05,0.00,0.88,-4,0,-2,50,0
'[13:13:02.736 20/01/2026]',-124711.7,-189911,-102614,-134624.6,-375000,-375000,-158736.7,-152704.8,0.03,0.00,0.89,-4,0,-2,50,0
'[13:13:02.740 20/01/2026]',-124734.3,-191021,-103662.1,-135166.2,-375000,-375000,-159426.8,-153379.8,0.03,0.00,0.89,-4,0,-2,50,0
'[13:13:02.744 20/01/2026]',-122802.7,-193755.9,-106175.1,-136233.8,-375000,-375000,-161470,-155146.2,0.03,0.00,0.89,-4,0,-2,50,0
'[13:13:02.748 20/01/2026]',-122115.6,-193311.6,-105726.1,-135964.4,-375000,-375000,-161322.4,-154931.9,0.03,0.00,0.89,-4,0,-2,50,0
'[13:13:02.752 20/01/2026]',-124426.3,-190103.2,-102783.2,-134696.3,-375000,-375000,-158919.7,-152861.2,0.03,0.00,0.89,-4,0,-2,50,0
'[13:13:02.756 20/01/2026]',-124892.8,-190630.9,-103300.9,-134995.5,-375000,-375000,-159144.4,-153132.7,0.03,0.00,0.89,-4,0,-2,50,0
'[13:13:02.760 20/01/2026]',-123167.6,-193320.3,-105779.1,-136054.6,-375000,-375000,-161118.3,-154850.5,0.03,0.00,0.89,-4,0,-2,50,0
'[13:13:02.764 20/01/2026]',-121916.8,-193759.4,-106143.6,-136136.5,-375000,-375000,-161610.8,-155189.9,0.03,0.00,0.89,-4,0,-2,50,0
'[13:13:02.768 20/01/2026]',-124049,-190407,-103054.8,-134781.5,-375000,-375000,-159160.2,-153046.1,0.03,0.00,0.89,-4,0,-2,50,0
'[13:13:02.772 20/01/2026]',-124959.4,-190314.2,-102999.6,-134832.2,-375000,-375000,-158915,-152914.2,0.03,-0.02,0.88,-4,0,-2,50,0
'[13:13:02.776 20/01/2026]',-123525.7,-192850.3,-105347.6,-135868.5,-375000,-375000,-160759.6,-154544.4,0.03,-0.02,0.88,-4,0,-2,50,0
'[13:13:02.780 20/01/2026]',-121833.5,-194083.5,-106455,-136273.5,-375000,-375000,-161809.8,-155383.1,0.03,-0.02,0.88,-4,0,-2,50,0
'[13:13:02.784 20/01/2026]',-123586,-190836.2,-103453.1,-134920.8,-375000,-375000,-159494,-153324.6,0.03,-0.02,0.88,-4,0,-2,50,0
'[13:13:02.788 20/01/2026]',-124980.1,-190059.4,-102769.3,-134715,-375000,-375000,-158753.3,-152762.2,0.03,-0.02,0.88,-4,0,-2,50,0
'[13:13:02.792 20/01/2026]',-123876.1,-192361.4,-104898.6,-135680.7,-375000,-375000,-160393.9,-154229.8,0.03,-0.02,0.88,-4,0,-2,50,0
'[13:13:02.796 20/01/2026]',-121877.1,-194251.3,-106607.1,-136340.5,-375000,-375000,-161890,-155465.4,0.03,-0.02,0.88,-4,0,-2,50,0
'[13:13:02.800 20/01/2026]',-123122.5,-191397.1,-103968.1,-135130.9,-375000,-375000,-159915.3,-153683.7,0.03,-0.02,0.88,-4,0,-2,50,0
'[13:13:02.804 20/01/2026]',-124887.6,-189885.1,-102599.5,-134600.8,-375000,-375000,-158636.2,-152639.2,0.03,-0.02,0.88,-4,0,-2,50,0
'[13:13:02.808 20/01/2026]',-124121.3,-191860.8,-104438.1,-135449.7,-375000,-375000,-160014.9,-153882.2,0.05,0.00,0.88,-4,0,-2,50,0
'[13:13:02.812 20/01/2026]',-122019.6,-194220.7,-106583.7,-136320.5,-375000,-375000,-161832,-155413.6,0.05,0.00,0.88,-4,0,-2,50,0
'[13:13:02.816 20/01/2026]',-122650.3,-192029.8,-104538.6,-135368.6,-375000,-375000,-160385.3,-154079.6,0.05,0.00,0.88,-4,0,-2,50,0
'[13:13:02.820 20/01/2026]',-124750.6,-189825.5,-102531.9,-134545.2,-375000,-375000,-158622,-152603.7,0.05,0.00,0.88,-4,0,-2,50,0
'[13:13:02.824 20/01/2026]',-124399.8,-191398,-103997.3,-135254.2,-375000,-375000,-159673.3,-153582.7,0.05,0.00,0.88,-4,0,-2,50,0
'[13:13:02.828 20/01/2026]',-122340.7,-194023.6,-106406.6,-136249.9,-375000,-375000,-161648.5,-155276.9,0.05,0.00,0.88,-4,0,-2,50,0
'[13:13:02.832 20/01/2026]',-122298.3,-192686.5,-105142.2,-135632.5,-375000,-375000,-160849.9,-154499.4,0.05,0.00,0.88,-4,0,-2,50,0
'[13:13:02.836 20/01/2026]',-124587.4,-189890.1,-102580.2,-134554.5,-375000,-375000,-158695.5,-152660,0.05,0.00,0.88,-4,0,-2,50,0
'[13:13:02.840 20/01/2026]',-124634.7,-190983.3,-103615.6,-135088.8,-375000,-375000,-159368.4,-153316.3,0.05,0.00,0.88,-4,0,-2,50,0
'[13:13:02.844 20/01/2026]',-122710.5,-193704.5,-106107.8,-136148.9,-375000,-375000,-161395,-155071.5,0.03,-0.02,0.88,-4,0,-2,50,0
'[13:13:02.848 20/01/2026]',-122021.9,-193279.4,-105672.4,-135891.6,-375000,-375000,-161262,-154870.2,0.03,-0.02,0.88,-4,0,-2,50,0
'[13:13:02.852 20/01/2026]',-124298.8,-190080.2,-102744.4,-134623,-375000,-375000,-158867.8,-152801.6,0.03,-0.02,0.88,-4,0,-2,50,0
'[13:13:02.856 20/01/2026]',-124772.4,-190598.5,-103249.8,-134923.3,-375000,-375000,-159088.8,-153072.5,0.03,-0.02,0.88,-4,0,-2,50,0
'[13:13:02.860 20/01/2026]',-123078.1,-193277,-105717.7,-135991.5,-375000,-375000,-161055.7,-154791.7,0.03,-0.02,0.88,-4,0,-2,50,0
'[13:13:02.864 20/01/2026]',-121803.3,-193731.4,-106106,-136068.8,-375000,-375000,-161553.6,-155138.3,0.03,-0.02,0.88,-4,0,-2,50,0
'[13:13:02.868 20/01/2026]',-123900.9,-190366,-103015.5,-134703.8,-375000,-375000,-159096.6,-152986,0.03,-0.02,0.88,-4,0,-2,50,0
'[13:13:02.872 20/01/2026]',-124845.9,-190250.1,-102941.5,-134759.2,-375000,-375000,-158836.4,-152843.2,0.03,-0.02,0.88,-4,0,-2,50,0
'[13:13:02.876 20/01/2026]',-123442.2,-192782.7,-105280.8,-135791.9,-375000,-375000,-160666.8,-154459.8,0.03,-0.02,0.88,-4,0,-2,50,0
'[13:13:02.880 20/01/2026]',-121747.8,-194049.8,-106408.9,-136200.3,-375000,-375000,-161733.9,-155313.7,0.03,-0.02,0.88,-4,0,-2,50,0
'[13:13:02.884 20/01/2026]',-123510.1,-190836.5,-103434.3,-134883.3,-375000,-375000,-159451.1,-153292.5,0.03,-0.02,0.88,-4,0,-2,50,0
'[13:13:02.888 20/01/2026]',-124910.4,-190019.1,-102715.3,-134649.6,-375000,-375000,-158673.7,-152695.5,0.03,-0.02,0.88,-4,0,-2,50,0
'[13:13:02.892 20/01/2026]',-123829.1,-192286.2,-104836.2,-135612.8,-375000,-375000,-160312.6,-154155.9,0.03,-0.02,0.88,-4,0,-2,50,0
'[13:13:02.896 20/01/2026]',-121880.1,-194225.1,-106586.8,-136317.1,-375000,-375000,-161847.9,-155433,0.03,-0.02,0.88,-4,0,-2,50,0
'[13:13:02.900 20/01/2026]',-123107.8,-191436.4,-103973.3,-135116,-375000,-375000,-159886.8,-153660.5,0.03,-0.02,0.88,-4,0,-2,50,0
'[13:13:02.904 20/01/2026]',-124913.7,-189890.1,-102574.4,-134578.5,-375000,-375000,-158581.5,-152594.5,0.03,-0.02,0.88,-4,0,-2,50,0
'[13:13:02.908 20/01/2026]',-124193.7,-191848.2,-104383.7,-135419.3,-375000,-375000,-159934.8,-153821.5,0.03,-0.02,0.88,-4,0,-2,50,0
'[13:13:02.912 20/01/2026]',-122104,-194228.1,-106551.5,-136298.1,-375000,-375000,-161760,-155360.6,0.03,-0.02,0.88,-4,0,-2,50,0
'[13:13:02.916 20/01/2026]',-122705.4,-192090.3,-104559.3,-135375.1,-375000,-375000,-160360.2,-154068.6,0.03,-0.02,0.88,-4,0,-2,50,0
'[13:13:02.920 20/01/2026]',-124790.6,-189863.2,-102515.2,-134540.7,-375000,-375000,-158579.9,-152580.1,0.03,-0.02,0.88,-4,0,-2,50,0
'[13:13:02.924 20/01/2026]',-124434.7,-191410.3,-103967.9,-135234.8,-375000,-375000,-159607.5,-153532.9,0.03,-0.02,0.88,-4,0,-2,50,0
'[13:13:02.928 20/01/2026]',-122370.2,-194054.8,-106384.4,-136239.9,-375000,-375000,-161593,-155229.7,0.03,-0.02,0.88,-4,0,-2,50,0
'[13:13:02.932 20/01/2026]',-122277.8,-192743.4,-105134.4,-135631.7,-375000,-375000,-160813.6,-154467.3,0.03,-0.02,0.88,-4,0,-2,50,0
'[13:13:02.936 20/01/2026]',-124556.9,-189921.6,-102552.4,-134548.2,-375000,-375000,-158652.5,-152632.4,0.03,-0.02,0.88,-4,0,-2,50,0
'[13:13:02.940 20/01/2026]',-124619.1,-190991,-103573.2,-135065.9,-375000,-375000,-159300.2,-153265.3,0.03,-0.02,0.88,-4,0,-2,50,0
'[13:13:02.944 20/01/2026]',-122680.9,-193708.2,-106070.2,-136109,-375000,-375000,-161314.2,-154999.3,0.03,-0.02,0.88,-4,0,-2,50,0
'[13:13:02.948 20/01/2026]',-121954.1,-193294.8,-105658.8,-135850.4,-375000,-375000,-161195.5,-154806.5,0.03,-0.02,0.88,-4,0,-2,50,0
'[13:13:02.952 20/01/2026]',-124233.9,-190068.4,-102713.6,-134580.3,-375000,-375000,-158799,-152741.7,0.03,-0.02,0.89,-4,0,-2,50,0
'[13:13:02.956 20/01/2026]',-124733.9,-190561.9,-103189.5,-134870.9,-375000,-375000,-159008.3,-153006,0.03,-0.02,0.89,-4,0,-2,50,0
'[13:13:02.960 20/01/2026]',-123058.7,-193243.8,-105660.8,-135941,-375000,-375000,-160981.1,-154726.4,0.03,-0.02,0.89,-4,0,-2,50,0
'[13:13:02.964 20/01/2026]',-121790.4,-193746.9,-106095.1,-136051.6,-375000,-375000,-161522.2,-155112.3,0.03,-0.02,0.89,-4,0,-2,50,0
'[13:13:02.968 20/01/2026]',-123891.6,-190389.5,-102990.7,-134690.3,-375000,-375000,-159079.5,-152976.7,0.03,-0.02,0.89,-4,0,-2,50,0
'[13:13:02.972 20/01/2026]',-124841.3,-190243.6,-102889.8,-134733.8,-375000,-375000,-158803.5,-152815.8,0.03,-0.02,0.89,-4,0,-2,50,0
'[13:13:02.976 20/01/2026]',-123441.8,-192753.3,-105216.8,-135757,-375000,-375000,-160624.6,-154422.8,0.03,-0.02,0.89,-4,0,-2,50,0
'[13:13:02.980 20/01/2026]',-121719.1,-194061,-106388.7,-136188.1,-375000,-375000,-161727.9,-155305.4,0.03,-0.02,0.89,-4,0,-2,50,0
'[13:13:02.984 20/01/2026]',-123441.4,-190842.9,-103424.7,-134868.4,-375000,-375000,-159446.5,-153286.7,0.03,-0.02,0.89,-4,0,-2,50,0
'[13:13:02.988 20/01/2026]',-124844,-189985.6,-102668.7,-134613.7,-375000,-375000,-158639.1,-152664.2,0.03,0.00,0.88,-4,0,-2,50,0
'[13:13:02.992 20/01/2026]',-123762.3,-192241.3,-104757.8,-135552.2,-375000,-375000,-160242.6,-154094.8,0.03,0.00,0.88,-4,0,-2,50,0
'[13:13:02.996 20/01/2026]',-121780.6,-194187.4,-106510.7,-136247.4,-375000,-375000,-161785.2,-155374.6,0.03,0.00,0.88,-4,0,-2,50,0
'[13:13:03.000 20/01/2026]',-122980.8,-191411.2,-103942.7,-135078.4,-375000,-375000,-159879.3,-153654.6,0.03,0.00,0.88,-4,0,-2,50,0
'[13:13:03.004 20/01/2026]',-124777.1,-189824.9,-102507.4,-134520.3,-375000,-375000,-158549.9,-152567.1,0.03,0.00,0.88,-4,0,-2,50,0
'[13:13:03.008 20/01/2026]',-124070.6,-191751.6,-104302.4,-135359.4,-375000,-375000,-159893,-153786.6,0.03,0.00,0.88,-4,0,-2,50,0
'[13:13:03.012 20/01/2026]',-121980.6,-194142.4,-106484.4,-136247.7,-375000,-375000,-161731,-155338.6,0.03,0.00,0.88,-4,0,-2,50,0
'[13:13:03.016 20/01/2026]',-122526.8,-192054,-104540.3,-135336.8,-375000,-375000,-160361.2,-154068.6,0.03,0.00,0.88,-4,0,-2,50,0
'[13:13:03.020 20/01/2026]',-124626.8,-189767.8,-102455.8,-134473.7,-375000,-375000,-158545.9,-152541.8,0.03,0.00,0.88,-4,0,-2,50,0
'[13:13:03.024 20/01/2026]',-124307.8,-191280.8,-103874.2,-135160.6,-375000,-375000,-159555.3,-153479.5,0.02,0.00,0.88,-4,0,-2,50,0
'[13:13:03.028 20/01/2026]',-122261.4,-193939.1,-106311.8,-136177.4,-375000,-375000,-161561.4,-155198.5,0.02,0.00,0.88,-4,0,-2,50,0
'[13:13:03.032 20/01/2026]',-122172.4,-192675,-105116.1,-135598.5,-375000,-375000,-160817.8,-154473.4,0.02,0.00,0.88,-4,0,-2,50,0
'[13:13:03.036 20/01/2026]',-124433.8,-189837.7,-102514.8,-134494.8,-375000,-375000,-158638.3,-152614.6,0.02,0.00,0.88,-4,0,-2,50,0
'[13:13:03.040 20/01/2026]',-124522.1,-190887.3,-103509.2,-135010.6,-375000,-375000,-159276.8,-153243.5,0.02,0.00,0.88,-4,0,-2,50,0
'[13:13:03.044 20/01/2026]',-122630.3,-193635,-106033.9,-136083.9,-375000,-375000,-161316.1,-155005,0.02,0.00,0.88,-4,0,-2,50,0
'[13:13:03.048 20/01/2026]',-121894.7,-193286.7,-105678,-135861.9,-375000,-375000,-161243.1,-154855.4,0.02,0.00,0.88,-4,0,-2,50,0
'[13:13:03.052 20/01/2026]',-124161.2,-190063,-102708.1,-134585.8,-375000,-375000,-158840.3,-152779.8,0.02,0.00,0.88,-4,0,-2,50,0
'[13:13:03.056 20/01/2026]',-124682.8,-190539.9,-103167.8,-134869.7,-375000,-375000,-159030.5,-153026.8,0.02,0.00,0.88,-4,0,-2,50,0
'[13:13:03.060 20/01/2026]',-123017.9,-193207,-105633.4,-135927.1,-375000,-375000,-160985.2,-154734,0.03,-0.02,0.88,-4,0,-2,50,0
'[13:13:03.064 20/01/2026]',-121724.9,-193737.9,-106088.8,-136044.6,-375000,-375000,-161545.1,-155132.4,0.03,-0.02,0.88,-4,0,-2,50,0
'[13:13:03.068 20/01/2026]',-123786.8,-190374.5,-102990.7,-134675.4,-375000,-375000,-159103,-152991.7,0.03,-0.02,0.88,-4,0,-2,50,0
'[13:13:03.072 20/01/2026]',-124751.3,-190205.8,-102872.1,-134703.1,-375000,-375000,-158809.6,-152819.9,0.03,-0.02,0.88,-4,0,-2,50,0
'[13:13:03.076 20/01/2026]',-123373.9,-192711.2,-105189.6,-135728.5,-375000,-375000,-160624,-154417.6,0.03,-0.02,0.88,-4,0,-2,50,0
'[13:13:03.080 20/01/2026]',-121672.4,-194038.7,-106378,-136169.3,-375000,-375000,-161734.2,-155306.4,0.03,-0.02,0.88,-4,0,-2,50,0
'[13:13:03.084 20/01/2026]',-123376.5,-190838.4,-103415.9,-134850.8,-375000,-375000,-159469.1,-153297.1,0.03,-0.02,0.88,-4,0,-2,50,0
'[13:13:03.088 20/01/2026]',-124792.7,-189962.6,-102638.3,-134598.3,-375000,-375000,-158650,-152671,0.03,-0.02,0.88,-4,0,-2,50,0
'[13:13:03.092 20/01/2026]',-123732.8,-192210.2,-104735,-135536.6,-375000,-375000,-160245.3,-154094.8,0.03,-0.02,0.88,-4,0,-2,50,0
'[13:13:03.096 20/01/2026]',-121771,-194184.3,-106509.2,-136254.1,-375000,-375000,-161806.2,-155394.2,0.03,-0.02,0.89,-4,0,-2,50,0
'[13:13:03.100 20/01/2026]',-122929.2,-191420.6,-103939.2,-135079,-375000,-375000,-159900,-153669.9,0.03,-0.02,0.89,-4,0,-2,50,0
'[13:13:03.104 20/01/2026]',-124718.5,-189816.7,-102490.2,-134514.4,-375000,-375000,-158554.7,-152572,0.03,-0.02,0.89,-4,0,-2,50,0
'[13:13:03.108 20/01/2026]',-124022.3,-191730.2,-104280.4,-135352.4,-375000,-375000,-159886.3,-153788.8,0.03,-0.02,0.89,-4,0,-2,50,0
'[13:13:03.112 20/01/2026]',-121967.4,-194138,-106477.3,-136258.4,-375000,-375000,-161732.4,-155354.8,0.03,-0.02,0.89,-4,0,-2,50,0
'[13:13:03.116 20/01/2026]',-122496.1,-192074.5,-104544.9,-135356,-375000,-375000,-160377.3,-154099.8,0.03,-0.02,0.89,-4,0,-2,50,0
'[13:13:03.120 20/01/2026]',-124597,-189768.9,-102452.8,-134493.3,-375000,-375000,-158554.6,-152569.6,0.03,-0.02,0.89,-4,0,-2,50,0
'[13:13:03.124 20/01/2026]',-124273.5,-191270,-103868.7,-135172.2,-375000,-375000,-159554.1,-153500.6,0.03,-0.02,0.89,-4,0,-2,50,0
'[13:13:03.128 20/01/2026]',-122241.6,-193921.9,-106288.7,-136171.4,-375000,-375000,-161548.8,-155204,0.03,-0.02,0.89,-4,0,-2,50,0
'[13:13:03.132 20/01/2026]',-122123.5,-192693,-105109.3,-135587.4,-375000,-375000,-160825.8,-154484.8,0.03,0.00,0.89,-4,0,-2,50,0
'[13:13:03.136 20/01/2026]',-124384.5,-189831.8,-102492.2,-134481.5,-375000,-375000,-158642.1,-152621.1,0.03,0.00,0.89,-4,0,-2,50,0
'[13:13:03.140 20/01/2026]',-124495.8,-190849.3,-103470.9,-134991.2,-375000,-375000,-159260.3,-153236.9,0.03,0.00,0.89,-4,0,-2,50,0
'[13:13:03.144 20/01/2026]',-122618.3,-193593.9,-105999.8,-136064.5,-375000,-375000,-161297.6,-155000.4,0.03,0.00,0.89,-4,0,-2,50,0
'[13:13:03.148 20/01/2026]',-121848.8,-193274.6,-105663.3,-135843.6,-375000,-375000,-161241.3,-154861.1,0.03,0.00,0.89,-4,0,-2,50,0
'[13:13:03.152 20/01/2026]',-124093.6,-190036.9,-102685.5,-134550.8,-375000,-375000,-158826,-152768.4,0.03,0.00,0.89,-4,0,-2,50,0
'[13:13:03.156 20/01/2026]',-124606.5,-190460.7,-103132.2,-134817.5,-375000,-375000,-158986.6,-152985.4,0.03,0.00,0.89,-4,0,-2,50,0
'[13:13:03.160 20/01/2026]',-122958.1,-193140.3,-105595.3,-135897.6,-375000,-375000,-160957.9,-154712.3,0.03,0.00,0.89,-4,0,-2,50,0
'[13:13:03.164 20/01/2026]',-121687.3,-193726.7,-106068.7,-136039.7,-375000,-375000,-161532.3,-155131.4,0.03,0.00,0.89,-4,0,-2,50,0
'[13:13:03.168 20/01/2026]',-123775,-190387.1,-102988.9,-134691.9,-375000,-375000,-159088.3,-152993.2,0.03,-0.02,0.89,-4,0,-2,50,0
'[13:13:03.172 20/01/2026]',-124753.3,-190189.3,-102854.7,-134722.6,-375000,-375000,-158778.5,-152809,0.03,-0.02,0.89,-4,0,-2,50,0
'[13:13:03.176 20/01/2026]',-123358.4,-192667.9,-105146.5,-135729.6,-375000,-375000,-160578.1,-154394.8,0.03,-0.02,0.89,-4,0,-2,50,0
'[13:13:03.180 20/01/2026]',-121626.7,-194016,-106345.9,-136170.3,-375000,-375000,-161704.9,-155295.7,0.03,-0.02,0.89,-4,0,-2,50,0
'[13:13:03.184 20/01/2026]',-123316.7,-190830.6,-103410.2,-134866.7,-375000,-375000,-159455,-153296.3,0.03,-0.02,0.89,-4,0,-2,50,0
'[13:13:03.188 20/01/2026]',-124736.5,-189927.5,-102617.7,-134601.6,-375000,-375000,-158619.7,-152650.7,0.03,-0.02,0.89,-4,0,-2,50,0
'[13:13:03.192 20/01/2026]',-123696.3,-192159.6,-104678.2,-135525.9,-375000,-375000,-160205.7,-154067.7,0.03,-0.02,0.89,-4,0,-2,50,0
'[13:13:03.196 20/01/2026]',-121717.2,-194119.3,-106458.2,-136216.4,-375000,-375000,-161754.8,-155348.7,0.03,-0.02,0.89,-4,0,-2,50,0
'[13:13:03.200 20/01/2026]',-122880.5,-191398.3,-103932.2,-135072.3,-375000,-375000,-159886.6,-153660.3,0.03,-0.02,0.89,-4,0,-2,50,0
'[13:13:03.204 20/01/2026]',-124688.2,-189761.9,-102450.5,-134494.6,-375000,-375000,-158525.3,-152545.1,0.03,0.00,0.88,-4,0,-2,50,0
'[13:13:03.208 20/01/2026]',-124008.3,-191653.1,-104211.8,-135314.8,-375000,-375000,-159840.9,-153742.5,0.03,0.00,0.88,-4,0,-2,50,0
'[13:13:03.212 20/01/2026]',-121945.2,-194059.5,-106407.6,-136205.8,-375000,-375000,-161683,-155299.1,0.03,0.00,0.88,-4,0,-2,50,0
'[13:13:03.216 20/01/2026]',-122462.2,-192011.4,-104496.9,-135307.7,-375000,-375000,-160337.7,-154051,0.03,0.00,0.88,-4,0,-2,50,0
'[13:13:03.220 20/01/2026]',-124550.1,-189687.1,-102381,-134431.7,-375000,-375000,-158497.5,-152506.2,0.03,0.00,0.88,-4,0,-2,50,0
'[13:13:03.224 20/01/2026]',-124259.6,-191166,-103764.6,-135100.6,-375000,-375000,-159475.5,-153421.1,0.03,0.00,0.88,-4,0,-2,50,0
'[13:13:03.228 20/01/2026]',-122239.8,-193828.5,-106200,-136105.2,-375000,-375000,-161474.1,-155133.3,0.03,0.00,0.88,-4,0,-2,50,0
'[13:13:03.232 20/01/2026]',-122090.9,-192633,-105062.8,-135532.6,-375000,-375000,-160775.1,-154440.1,0.03,0.00,0.88,-4,0,-2,50,0
'[13:13:03.236 20/01/2026]',-124346.4,-189746,-102425.3,-134402,-375000,-375000,-158564.7,-152557.1,0.03,0.00,0.88,-4,0,-2,50,0
'[13:13:03.240 20/01/2026]',-124447.2,-190735.5,-103364.2,-134883.8,-375000,-375000,-159154.8,-153144.5,0.03,-0.02,0.88,-4,0,-2,50,0
'[13:13:03.244 20/01/2026]',-122574.9,-193452.8,-105860.5,-135942.8,-375000,-375000,-161169.6,-154882.4,0.03,-0.02,0.88,-4,0,-2,50,0
'[13:13:03.248 20/01/2026]',-121762.4,-193172,-105571.6,-135742.9,-375000,-375000,-161143.3,-154769.1,0.03,-0.02,0.88,-4,0,-2,50,0
'[13:13:03.252 20/01/2026]',-123985.9,-189907.7,-102575.8,-134439.6,-375000,-375000,-158707.6,-152661.5,0.03,-0.02,0.88,-4,0,-2,50,0
'[13:13:03.256 20/01/2026]',-124513.4,-190313.7,-102981.5,-134693.8,-375000,-375000,-158837.2,-152856.4,0.03,-0.02,0.88,-4,0,-2,50,0
'[13:13:03.260 20/01/2026]',-122853.2,-192982.1,-105439.8,-135758.9,-375000,-375000,-160789,-154563.4,0.03,-0.02,0.88,-4,0,-2,50,0
'[13:13:03.264 20/01/2026]',-121520.6,-193582.5,-105937.3,-135898.6,-375000,-375000,-161393.1,-155004.4,0.03,-0.02,0.88,-4,0,-2,50,0
'[13:13:03.268 20/01/2026]',-123532,-190219.7,-102825.1,-134512.4,-375000,-375000,-158945.6,-152852.8,0.03,-0.02,0.88,-4,0,-2,50,0
'[13:13:03.272 20/01/2026]',-124523.9,-189986.2,-102660.4,-134512.8,-375000,-375000,-158604.4,-152633.6,0.03,-0.02,0.88,-4,0,-2,50,0
'[13:13:03.276 20/01/2026]',-123179.2,-192462.8,-104954.7,-135518.6,-375000,-375000,-160395.8,-154209.9,0.03,-0.02,0.89,-4,0,-2,50,0
'[13:13:03.280 20/01/2026]',-121466.3,-193849.9,-106193.8,-135992.3,-375000,-375000,-161552.4,-155138.4,0.03,-0.02,0.89,-4,0,-2,50,0
'[13:13:03.284 20/01/2026]',-123134,-190668.9,-103242.3,-134694.7,-375000,-375000,-159301.6,-153140.5,0.03,-0.02,0.89,-4,0,-2,50,0
'[13:13:03.288 20/01/2026]',-124546.3,-189718,-102389.3,-134409,-375000,-375000,-158425,-152452.5,0.03,-0.02,0.89,-4,0,-2,50,0
'[13:13:03.292 20/01/2026]',-123537.2,-191924.7,-104446.9,-135345.9,-375000,-375000,-159991.7,-153854.9,0.03,-0.02,0.89,-4,0,-2,50,0
'[13:13:03.296 20/01/2026]',-121560.7,-193897.5,-106250.9,-136051.6,-375000,-375000,-161545,-155142.7,0.03,-0.02,0.89,-4,0,-2,50,0
'[13:13:03.300 20/01/2026]',-122659.7,-191133.2,-103704.8,-134873.1,-375000,-375000,-159666.6,-153442.3,0.03,-0.02,0.89,-4,0,-2,50,0
'[13:13:03.304 20/01/2026]',-124450.8,-189461.4,-102197.6,-134267.1,-375000,-375000,-158292.5,-152313.8,0.03,-0.02,0.89,-4,0,-2,50,0
'[13:13:03.308 20/01/2026]',-123798,-191388.8,-103961.6,-135082.3,-375000,-375000,-159594.9,-153499.5,0.03,-0.02,0.89,-4,0,-2,50,0
'[13:13:03.312 20/01/2026]',-121767.3,-193849.6,-106185,-135977,-375000,-375000,-161446.2,-155069.6,0.03,-0.02,0.88,-4,0,-2,50,0
'[13:13:03.316 20/01/2026]',-122241.9,-191808.2,-104261,-135054.3,-375000,-375000,-160099.6,-153822.9,0.03,-0.02,0.88,-4,0,-2,50,0
'[13:13:03.320 20/01/2026]',-124316.5,-189451.6,-102111.3,-134146.2,-375000,-375000,-158233.5,-152256.5,0.03,-0.02,0.88,-4,0,-2,50,0
'[13:13:03.324 20/01/2026]',-124004.1,-190912,-103475.6,-134786.5,-375000,-375000,-159189.3,-153151.8,0.03,-0.02,0.88,-4,0,-2,50,0
'[13:13:03.328 20/01/2026]',-121967.3,-193567.8,-105897.8,-135781.8,-375000,-375000,-161171.6,-154846.4,0.03,-0.02,0.88,-4,0,-2,50,0
'[13:13:03.332 20/01/2026]',-121749.1,-192381.2,-104759.8,-135196.4,-375000,-375000,-160465.2,-154140.8,0.03,-0.02,0.88,-4,0,-2,50,0
'[13:13:03.336 20/01/2026]',-123960.5,-189486.6,-102102.5,-134055.4,-375000,-375000,-158242.3,-152238.4,0.03,-0.02,0.88,-4,0,-2,50,0
'[13:13:03.340 20/01/2026]',-124070.5,-190452.7,-103020,-134536.5,-375000,-375000,-158820.3,-152813.6,0.03,-0.02,0.88,-4,0,-2,50,0
'[13:13:03.344 20/01/2026]',-122183.2,-193162.8,-105506.4,-135589.9,-375000,-375000,-160826.7,-154549.6,0.03,-0.02,0.88,-4,0,-2,50,0
'[13:13:03.348 20/01/2026]',-121353.2,-192899.9,-105229.6,-135385.9,-375000,-375000,-160804.6,-154440.2,0.03,-0.02,0.88,-4,0,-2,50,0
'[13:13:03.352 20/01/2026]',-123553.2,-189643.1,-102233.4,-134076.8,-375000,-375000,-158370.1,-152329,0.03,-0.02,0.88,-4,0,-2,50,0
'[13:13:03.356 20/01/2026]',-124115.9,-190031.2,-102624.2,-134333.5,-375000,-375000,-158492.6,-152517.4,0.03,-0.02,0.88,-4,0,-2,50,0
'[13:13:03.360 20/01/2026]',-122484.3,-192670.4,-105059.1,-135382.6,-375000,-375000,-160421.5,-154200.3,0.03,-0.02,0.88,-4,0,-2,50,0
'[13:13:03.364 20/01/2026]',-121161.9,-193288.1,-105594.7,-135546.8,-375000,-375000,-161041.9,-154661.2,0.03,-0.02,0.88,-4,0,-2,50,0
'[13:13:03.368 20/01/2026]',-123164.6,-189918.5,-102485.6,-134162.6,-375000,-375000,-158587,-152506,0.03,-0.02,0.88,-4,0,-2,50,0
'[13:13:03.372 20/01/2026]',-124176.2,-189654.3,-102272.1,-134147.2,-375000,-375000,-158217,-152262.5,0.03,-0.02,0.88,-4,0,-2,50,0
'[13:13:03.376 20/01/2026]',-122848,-192121.9,-104563.5,-135152.8,-375000,-375000,-159999.3,-153834.2,0.03,-0.02,0.88,-4,0,-2,50,0
'[13:13:03.380 20/01/2026]',-121101.8,-193519.1,-105816.5,-135611.1,-375000,-375000,-161161.7,-154767.5,0.03,-0.02,0.88,-4,0,-2,50,0
'[13:13:03.384 20/01/2026]',-122746.2,-190345.2,-102879.4,-134290.2,-375000,-375000,-158922.1,-152772.4,0.03,0.00,0.89,-4,0,-2,50,0
'[13:13:03.388 20/01/2026]',-124183.4,-189371.9,-102010.2,-133988,-375000,-375000,-158035.2,-152075.4,0.03,0.00,0.89,-4,0,-2,50,0
'[13:13:03.392 20/01/2026]',-123164.6,-191568.7,-104043.7,-134901.8,-375000,-375000,-159588,-153460.9,0.03,0.00,0.89,-4,0,-2,50,0
'[13:13:03.396 20/01/2026]',-121188.6,-193572.5,-105859.8,-135624,-375000,-375000,-161166.3,-154779.8,0.03,0.00,0.89,-4,0,-2,50,0
'[13:13:03.400 20/01/2026]',-122246.9,-190852.8,-103339.8,-134458.4,-375000,-375000,-159294.3,-153088.4,0.03,0.00,0.89,-4,0,-2,50,0
'[13:13:03.404 20/01/2026]',-124034.5,-189147.3,-101796,-133841.8,-375000,-375000,-157873.9,-151917.7,0.03,0.00,0.89,-4,0,-2,50,0
'[13:13:03.408 20/01/2026]',-123369.7,-191000.2,-103523.1,-134647.1,-375000,-375000,-159155.9,-153086.1,0.03,0.00,0.89,-4,0,-2,50,0
'[13:13:03.412 20/01/2026]',-121305,-193429.3,-105728.7,-135550,-375000,-375000,-161013.8,-154661.5,0.03,0.00,0.89,-4,0,-2,50,0
'[13:13:03.416 20/01/2026]',-121742.4,-191411.9,-103838.2,-134647.3,-375000,-375000,-159690,-153428.7,0.03,0.00,0.89,-4,0,-2,50,0
'[13:13:03.420 20/01/2026]',-123805.7,-189033.1,-101676.2,-133731.3,-375000,-375000,-157807.8,-151843.5,0.03,-0.02,0.88,-4,0,-2,50,0
'[13:13:03.424 20/01/2026]',-123536.4,-190479.5,-103031,-134391.6,-375000,-375000,-158765.2,-152738.5,0.03,-0.02,0.88,-4,0,-2,50,0
'[13:13:03.428 20/01/2026]',-121527.1,-193130.8,-105472,-135406.8,-375000,-375000,-160760.6,-154453.8,0.03,-0.02,0.88,-4,0,-2,50,0
'[13:13:03.432 20/01/2026]',-121319.6,-191977.7,-104367.5,-134845.9,-375000,-375000,-160083.7,-153781.7,0.03,-0.02,0.88,-4,0,-2,50,0
'[13:13:03.436 20/01/2026]',-123549.8,-189053,-101688.3,-133684.3,-375000,-375000,-157837.7,-151853.9,0.03,-0.02,0.88,-4,0,-2,50,0
'[13:13:03.440 20/01/2026]',-123691.5,-190004.2,-102602.6,-134162.4,-375000,-375000,-158400.6,-152419.5,0.03,-0.02,0.88,-4,0,-2,50,0
'[13:13:03.444 20/01/2026]',-121849.6,-192725.6,-105092.6,-135217.6,-375000,-375000,-160411.8,-154162.2,0.03,-0.02,0.88,-4,0,-2,50,0
'[13:13:03.448 20/01/2026]',-121022.5,-192491.2,-104831.1,-135019,-375000,-375000,-160410.4,-154069.5,0.03,-0.02,0.88,-4,0,-2,50,0
'[13:13:03.452 20/01/2026]',-123205.3,-189202.2,-101810.7,-133674.9,-375000,-375000,-157951.8,-151931.5,0.03,-0.02,0.88,-4,0,-2,50,0
'[13:13:03.456 20/01/2026]',-123763,-189563.3,-102173.1,-133901.6,-375000,-375000,-158048.8,-152089.6,0.03,-0.02,0.88,-4,0,-2,50,0
'[13:13:03.460 20/01/2026]',-122176.2,-192224.3,-104612.2,-134984.2,-375000,-375000,-160000.2,-153804.2,0.03,-0.02,0.88,-4,0,-2,50,0
'[13:13:03.464 20/01/2026]',-120811.7,-192855.8,-105166.3,-135144,-375000,-375000,-160622,-154261.9,0.03,-0.02,0.88,-4,0,-2,50,0
'[13:13:03.468 20/01/2026]',-122762.9,-189482.3,-102048.9,-133747,-375000,-375000,-158163,-152091.5,0.03,-0.02,0.88,-4,0,-2,50,0
'[13:13:03.472 20/01/2026]',-123763.3,-189188.7,-101814.7,-133729.5,-375000,-375000,-157769.5,-151829.8,0.03,-0.02,0.88,-4,0,-2,50,0
'[13:13:03.476 20/01/2026]',-122440.7,-191643.6,-104092.6,-134730.7,-375000,-375000,-159534.9,-153390.9,0.03,-0.02,0.88,-4,0,-2,50,0
'[13:13:03.480 20/01/2026]',-120698,-193061.1,-105358.2,-135199.7,-375000,-375000,-160708.6,-154338.7,0.03,-0.02,0.88,-4,0,-2,50,0
'[13:13:03.484 20/01/2026]',-122302.4,-189899.3,-102432.2,-133872.4,-375000,-375000,-158464.6,-152340.6,0.03,-0.02,0.88,-4,0,-2,50,0
'[13:13:03.488 20/01/2026]',-123729.6,-188895.3,-101529.7,-133545,-375000,-375000,-157545.2,-151614.4,0.03,-0.02,0.88,-4,0,-2,50,0
'[13:13:03.492 20/01/2026]',-122730,-191082.1,-103561.3,-134463.2,-375000,-375000,-159093.3,-153002.6,0.03,0.00,0.89,-4,0,-2,50,0
'[13:13:03.496 20/01/2026]',-120757.1,-193106.6,-105394.3,-135181.3,-375000,-375000,-160679.7,-154321.8,0.03,0.00,0.89,-4,0,-2,50,0
'[13:13:03.500 20/01/2026]',-121797.8,-190411.6,-102880.3,-134012.7,-375000,-375000,-158828,-152638.2,0.03,0.00,0.89,-4,0,-2,50,0
'[13:13:03.504 20/01/2026]',-123619.2,-188697.9,-101336.5,-133398.9,-375000,-375000,-157408.9,-151467.7,0.03,0.00,0.89,-4,0,-2,50,0
'[13:13:03.508 20/01/2026]',-122984.3,-190542.7,-103056.6,-134201.1,-375000,-375000,-158678.3,-152620.5,0.03,0.00,0.89,-4,0,-2,50,0
'[13:13:03.512 20/01/2026]',-120930.8,-192971.7,-105264.4,-135098.7,-375000,-375000,-160530.8,-154189.9,0.03,0.00,0.89,-4,0,-2,50,0
'[13:13:03.516 20/01/2026]',-121375.6,-191017.5,-103434.6,-134241.3,-375000,-375000,-159266.9,-153013.6,0.03,0.00,0.89,-4,0,-2,50,0
'[13:13:03.520 20/01/2026]',-123474.9,-188628.7,-101253.6,-133323,-375000,-375000,-157371.8,-151418.2,0.03,0.00,0.89,-4,0,-2,50,0
'[13:13:03.524 20/01/2026]',-123218,-190058,-102586.7,-133965.7,-375000,-375000,-158298.2,-152291,0.03,0.00,0.89,-4,0,-2,50,0
'[13:13:03.528 20/01/2026]',-121218.5,-192706.3,-105010.8,-134970.9,-375000,-375000,-160277,-153984.6,0.03,-0.02,0.89,-4,0,-2,50,0
'[13:13:03.532 20/01/2026]',-120969.3,-191562.4,-103919.3,-134406.8,-375000,-375000,-159615.2,-153313.6,0.03,-0.02,0.89,-4,0,-2,50,0
'[13:13:03.536 20/01/2026]',-123184.8,-188628.2,-101231.9,-133239.3,-375000,-375000,-157361.5,-151381.3,0.03,-0.02,0.89,-4,0,-2,50,0
'[13:13:03.540 20/01/2026]',-123359.2,-189605.7,-102131.4,-133710,-375000,-375000,-157901.2,-151925.7,0.03,-0.02,0.89,-4,0,-2,50,0
'[13:13:03.544 20/01/2026]',-121558.4,-192346.5,-104639.3,-134777.1,-375000,-375000,-159908.3,-153663.3,0.03,-0.02,0.89,-4,0,-2,50,0
'[13:13:03.548 20/01/2026]',-120722.8,-192160.9,-104423.5,-134596.6,-375000,-375000,-159934.4,-153596,0.03,-0.02,0.89,-4,0,-2,50,0
'[13:13:03.552 20/01/2026]',-122911.6,-188898.1,-101425.6,-133267.8,-375000,-375000,-157497.1,-151476.9,0.03,-0.02,0.89,-4,0,-2,50,0
'[13:13:03.556 20/01/2026]',-123509.2,-189271.5,-101785.2,-133506.7,-375000,-375000,-157594.3,-151638.8,0.03,-0.02,0.89,-4,0,-2,50,0
'[13:13:03.560 20/01/2026]',-121935.3,-191918.7,-104215.3,-134559.5,-375000,-375000,-159511,-153313.3,0.03,-0.02,0.89,-4,0,-2,50,0
'[13:13:03.564 20/01/2026]',-120580.8,-192607.3,-104810.1,-134730.8,-375000,-375000,-160161.9,-153793.5,0.03,-0.02,0.89,-4,0,-2,50,0
'[13:13:03.568 20/01/2026]',-122559.1,-189273.6,-101725.2,-133354.3,-375000,-375000,-157726.1,-151653.5,0.03,-0.02,0.89,-4,0,-2,50,0
'[13:13:03.572 20/01/2026]',-123578.2,-188976,-101474.8,-133324.2,-375000,-375000,-157324.6,-151383.2,0.03,-0.02,0.89,-4,0,-2,50,0
'[13:13:03.576 20/01/2026]',-122278.1,-191436.7,-103737.2,-134320.5,-375000,-375000,-159083.1,-152935.5,0.03,-0.02,0.89,-4,0,-2,50,0
'[13:13:03.580 20/01/2026]',-120534,-192858.3,-105007.9,-134794.6,-375000,-375000,-160264.5,-153892,0.03,-0.02,0.89,-4,0,-2,50,0
'[13:13:03.584 20/01/2026]',-122086.4,-189683.6,-102068.7,-133449.6,-375000,-375000,-158021.5,-151887.3,0.03,-0.02,0.89,-4,0,-2,50,0
'[13:13:03.588 20/01/2026]',-123505.9,-188649,-101164.1,-133103.7,-375000,-375000,-157079.7,-151139.1,0.03,-0.02,0.89,-4,0,-2,50,0
'[13:13:03.592 20/01/2026]',-122495.6,-190813.8,-103182.6,-134017.6,-375000,-375000,-158620.2,-152517.9,0.03,-0.02,0.89,-4,0,-2,50,0
'[13:13:03.596 20/01/2026]',-120494.9,-192839.9,-105018.1,-134750.3,-375000,-375000,-160218.7,-153849.2,0.03,-0.02,0.89,-4,0,-2,50,0
'[13:13:03.600 20/01/2026]',-121505.5,-190161.3,-102528.4,-133590.5,-375000,-375000,-158387.3,-152187.6,0.03,0.00,0.88,-4,0,-2,50,0
'[13:13:03.604 20/01/2026]',-123310.3,-188391.8,-100927,-132937.8,-375000,-375000,-156932.8,-150987,0.03,0.00,0.88,-4,0,-2,50,0
'[13:13:03.608 20/01/2026]',-122684.9,-190204,-102645.8,-133748.2,-375000,-375000,-158205.7,-152148.5,0.03,0.00,0.88,-4,0,-2,50,0
'[13:13:03.612 20/01/2026]',-120626.6,-192632.2,-104860.3,-134656.9,-375000,-375000,-160066.3,-153725.3,0.03,0.00,0.88,-4,0,-2,50,0
'[13:13:03.616 20/01/2026]',-121011.1,-190665.5,-103015.3,-133780.4,-375000,-375000,-158796,-152541.9,0.03,0.00,0.88,-4,0,-2,50,0
'[13:13:03.620 20/01/2026]',-123062.1,-188231.5,-100812.3,-132843.9,-375000,-375000,-156892.7,-150937,0.03,0.00,0.88,-4,0,-2,50,0
'[13:13:03.624 20/01/2026]',-122802.1,-189628.4,-102121,-133483.4,-375000,-375000,-157816.1,-151808.2,0.03,0.00,0.88,-4,0,-2,50,0
'[13:13:03.628 20/01/2026]',-120798.9,-192275.1,-104554.7,-134504.8,-375000,-375000,-159815.4,-153524.2,0.03,0.00,0.88,-4,0,-2,50,0
'[13:13:03.632 20/01/2026]',-120503.4,-191161,-103503.4,-133953.6,-375000,-375000,-159177.7,-152875.4,0.03,0.00,0.88,-4,0,-2,50,0
'[13:13:03.636 20/01/2026]',-122685.1,-188200.5,-100793,-132767.7,-375000,-375000,-156909.1,-150924.4,0.05,-0.02,0.89,-4,0,-2,50,0
'[13:13:03.640 20/01/2026]',-122837,-189096,-101649.6,-133224.5,-375000,-375000,-157439.9,-151459.1,0.05,-0.02,0.89,-4,0,-2,50,0
